Sample_index,EXG Channel 0,EXG Channel 1,EXG Channel 2,EXG Channel 3,EXG Channel 4,EXG Channel 5,EXG Channel 6,EXG Channel 7,EXG Channel 8,EXG Channel 9,EXG Channel 10,EXG Channel 11,EXG Channel 12,EXG Channel 13,EXG Channel 14,EXG Channel 15,Accel Channel 0,Accel Channel 1,Accel Channel 2,Not Used,Digital Channel 0 (D11),Digital Channel 1 (D12),Digital Channel 2 (D13),Digital Channel 3 (D17),Not Used,Digital Channel 4 (D18),Analog Channel 0,Analog Channel 1,Analog Channel 2,Timestamp,Marker Channel
210.000000,10139.779465,13920.554688,-1520.231547,-3826.797465,-2530.686859,-17018.573525,-4729.159740,-3335.372011,15495.995044,10683.016262,-13971.717831,6542.154436,16259.910614,-6131.798760,-9662.793238,4958.063955,0.002000,-0.016000,1.006000,192.000000,0.000000,0.000000,0.000000,0.000000,0.000000,0.000000,0.000000,0.000000,0.000000,1769694543.643150,101.000000
212.000000,10116.645410,13893.464374,-1541.108077,-3851.853770,-2554.558522,-17031.425778,-4755.400688,-3359.914227,15557.439990,10749.736220,-13910.496403,6599.553716,16313.912429,-6054.685242,-9612.501813,5015.016200,0.002000,-0.016000,1.006000,192.000000,0.000000,0.000000,0.000000,0.000000,0.000000,0.000000,0.000000,0.000000,0.000000,1769694543.643219,0.000000
214.000000,10107.615305,13883.450792,-1548.059469,-3864.840134,-2561.822839,-17032.208089,-4766.084822,-3368.184372,15495.145678,10677.048347,-13981.060860,6536.432390,16251.618117,-6139.152484,-9683.066271,4967.094060,0.002000,-0.016000,1.006000,192.000000,0.000000,0.000000,0.000000,0.000000,0.000000,0.000000,0.000000,0.000000,0.000000,1769694543.643278,0.000000
216.000000,10160.790105,13934.345714,-1494.102358,-3818.035581,-2513.811292,-16973.490056,-4714.117016,-3314.249613,15557.216472,10745.936423,-13908.887077,6603.264106,16312.504269,-6063.201256,-9610.736026,5019.039514,0.006000,-0.014000,1.016000,192.000000,0.000000,24.000000,127.500000,72.000000,15.500000,96.000000,0.000000,0.000000,0.000000,1769694543.643332,0.000000
218.000000,10082.670758,13851.085466,-1566.007920,-3897.585439,-2585.962723,-17057.644374,-4786.380206,-3389.485584,15528.673295,10703.646923,-13945.566290,6559.521742,16276.428554,-6114.297344,-9647.370535,4982.337950,0.006000,-0.014000,1.016000,192.000000,0.000000,0.000000,0.000000,0.000000,0.000000,0.000000,0.000000,0.000000,0.000000,1769694543.643387,0.000000
220.000000,10143.892186,13918.207755,-1510.307373,-3841.437857,-2537.437086,-17008.515240,-4730.679659,-3331.773380,15513.228239,10687.352501,-13957.122142,6547.988242,16263.732763,-6134.324507,-9653.584320,4960.343833,0.006000,-0.014000,1.016000,192.000000,0.000000,0.000000,0.000000,0.000000,0.000000,0.000000,0.000000,0.000000,0.000000,1769694543.643440,0.000000
222.000000,10123.842671,13895.654845,-1535.475437,-3867.008253,-2568.461307,-17056.750304,-4751.891464,-3356.270892,15566.872426,10742.874234,-13904.014397,6595.575106,16310.604371,-6078.892181,-9602.398825,4997.224211,0.006000,-0.014000,1.016000,192.000000,0.000000,0.000000,0.000000,0.000000,0.000000,0.000000,0.000000,0.000000,0.000000,1769694543.643476,0.000000
224.000000,10095.768880,13866.307004,-1557.849533,-3891.461061,-2603.039456,-17092.647206,-4771.851572,-3380.231962,15493.826925,10660.798628,-13982.401965,6523.222509,16235.457806,-6167.405089,-9679.802916,4934.281699,0.006000,-0.014000,1.016000,192.000000,0.000000,0.000000,0.000000,0.000000,0.000000,0.000000,0.000000,0.000000,0.000000,1769694543.643494,0.000000
226.000000,10160.365422,13931.104711,-1493.744730,-3828.250328,-2543.002670,-17037.460749,-4706.450368,-3314.182557,15550.287432,10724.769321,-13914.318551,6589.741300,16286.889170,-6103.255582,-9615.631058,4974.224266,0.006000,-0.014000,1.016000,192.000000,0.000000,0.000000,127.500000,72.000000,15.500000,72.000000,0.000000,0.000000,0.000000,1769694543.643535,0.000000
228.000000,10070.332595,13837.741475,-1576.580295,-3915.556242,-2621.613755,-17128.409997,-4789.464747,-3399.990904,15515.508117,10682.949207,-13949.231976,6553.978509,16260.044725,-6144.248682,-9652.377326,4945.390516,0.006000,-0.014000,1.016000,192.000000,0.000000,0.000000,0.000000,0.000000,0.000000,0.000000,0.000000,0.000000,0.000000,1769694543.643553,0.000000
230.000000,10141.589956,13917.268982,-1512.050809,-3836.900453,-2550.512856,-17048.837787,-4719.749656,-3324.956098,15495.011567,10663.704355,-13967.068668,6537.237053,16240.710466,-6167.785068,-9676.360747,4923.217585,0.006000,-0.014000,1.016000,192.000000,0.000000,0.000000,0.000000,0.000000,0.000000,0.000000,0.000000,0.000000,0.000000,1769694543.643572,0.000000
232.000000,10109.470500,13885.104821,-1547.165399,-3867.611750,-2574.920961,-17064.774581,-4756.406517,-3359.333081,15559.094019,10735.274641,-13904.684949,6594.457518,16302.513039,-6095.834803,-9618.961468,4980.125127,0.006000,-0.014000,1.016000,192.000000,0.000000,0.000000,0.000000,0.000000,0.000000,0.000000,0.000000,0.000000,0.000000,1769694543.643591,0.000000
234.000000,10103.167308,13878.578112,-1553.401536,-3871.858582,-2578.966627,-17058.694906,-4761.413307,-3363.982244,15497.045576,10665.604253,-13976.836381,6529.145721,16245.873719,-6155.268092,-9686.463736,4942.395382,0.006000,-0.014000,1.016000,192.000000,0.000000,0.000000,0.000000,0.000000,0.000000,0.000000,0.000000,0.000000,0.000000,1769694543.643608,0.000000
236.000000,10145.054477,13923.840394,-1502.037227,-3822.528282,-2536.163036,-16997.853458,-4711.837138,-3317.647078,15554.467208,10730.960754,-13913.044502,6591.127108,16303.228295,-6089.889239,-9621.710732,4997.581839,0.004000,-0.012000,1.006000,192.000000,0.000000,16.000000,127.500000,80.000000,15.500000,56.000000,0.000000,0.000000,0.000000,1769694543.643628,0.000000
238.000000,10085.352967,13860.987289,-1555.547304,-3891.081082,-2587.102662,-17058.583147,-4775.338444,-3381.170735,15525.700513,10702.954018,-13941.297107,6562.360413,16280.161295,-6114.498510,-9646.655279,4974.425432,0.004000,-0.012000,1.006000,192.000000,0.000000,0.000000,0.000000,0.000000,0.000000,0.000000,0.000000,0.000000,0.000000,1769694543.643646,0.000000
240.000000,10144.406276,13924.153319,-1494.772910,-3834.084133,-2538.107638,-17005.989493,-4718.542661,-3321.268060,15517.184498,10693.387472,-13951.847130,6553.665585,16270.527693,-6123.908594,-9659.216959,4942.373030,0.004000,-0.012000,1.006000,192.000000,0.000000,0.000000,0.000000,0.000000,0.000000,0.000000,0.000000,0.000000,0.000000,1769694543.643664,0.000000
242.000000,10118.947639,13895.297217,-1521.751466,-3861.509724,-2563.230999,-17047.362572,-4743.621319,-3348.805410,15573.890874,10756.195874,-13888.234066,6611.154272,16327.546993,-6064.654120,-9598.286104,4988.752900,0.004000,-0.012000,1.006000,192.000000,0.000000,0.000000,0.000000,0.000000,0.000000,0.000000,0.000000,0.000000,0.000000,1769694543.643683,0.000000
244.000000,10087.945770,13862.350745,-1548.193580,-3888.421224,-2590.880107,-17081.828962,-4769.102307,-3376.074538,15501.426518,10669.292291,-13969.370898,6532.722000,16253.629774,-6157.056231,-9677.813611,4925.743333,0.004000,-0.012000,1.006000,192.000000,0.000000,0.000000,0.000000,0.000000,0.000000,0.000000,0.000000,0.000000,0.000000,1769694543.643700,0.000000
246.000000,10140.226500,13922.588697,-1493.252992,-3825.702229,-2535.693650,-17032.923345,-4707.925583,-3321.893909,15539.156263,10719.695475,-13921.806386,6580.353568,16289.817249,-6108.150614,-9621.643677,4960.388536,0.004000,-0.014000,1.008000,192.000000,0.000000,16.000000,127.500000,72.000000,15.500000,64.000000,0.000000,0.000000,0.000000,1769694543.643718,0.000000
248.000000,10049.009031,13828.018466,-1581.363568,-3912.270536,-2614.662363,-17127.091244,-4793.711578,-3413.223137,15509.473146,10684.603236,-13956.809218,6549.686974,16266.012641,-6140.962975,-9641.089695,4946.821028,0.004000,-0.014000,1.008000,192.000000,0.000000,0.000000,0.000000,0.000000,0.000000,0.000000,0.000000,0.000000,0.000000,1769694543.643735,0.000000
250.000000,10118.746474,13899.946380,-1520.119789,-3838.621538,-2557.397194,-17061.690040,-4725.806978,-3342.457514,15486.160277,10657.848198,-13980.859695,6533.034925,16241.224556,-6169.014414,-9661.519189,4926.659754,0.004000,-0.014000,1.008000,192.000000,0.000000,0.000000,0.000000,0.000000,0.000000,0.000000,0.000000,0.000000,0.000000,1769694543.643753,0.000000
252.000000,10094.450127,13872.453734,-1551.993376,-3867.790564,-2594.143461,-17085.628758,-4755.154819,-3369.167849,15542.263155,10717.303838,-13918.185403,6587.126146,16293.661749,-6099.858117,-9613.664104,4980.326293,0.004000,-0.014000,1.008000,192.000000,0.000000,0.000000,0.000000,0.000000,0.000000,0.000000,0.000000,0.000000,0.000000,1769694543.643771,0.000000
254.000000,10083.788345,13861.635490,-1569.293626,-3878.698215,-2614.215328,-17086.299310,-4767.627092,-3376.186296,15477.756021,10651.455599,-13984.838305,6525.860015,16227.902916,-6164.946397,-9703.384006,4933.387629,0.004000,-0.014000,1.008000,192.000000,0.000000,0.000000,0.000000,0.000000,0.000000,0.000000,0.000000,0.000000,0.000000,1769694543.643798,0.000000
0.000000,10152.072925,13932.155243,-1497.745692,-3808.334924,-2543.136781,-17002.212048,-4699.767196,-3304.660714,15535.535280,10721.975353,-13912.999798,6592.736434,16287.112687,-6092.414986,-9648.577529,4987.456499,0.005000,-0.009000,1.006000,192.000000,0.000000,24.000000,127.500000,112.000000,15.500000,48.000000,0.000000,0.000000,0.000000,1769694543.643818,0.000000
2.000000,10063.135333,13839.350800,-1575.328597,-3899.999428,-2609.767331,-17083.952377,-4783.832107,-3392.301904,15521.856013,10693.901562,-13935.351543,6564.752050,16275.556836,-6115.414931,-9663.396736,4973.352548,0.005000,-0.009000,1.006000,192.000000,0.000000,0.000000,0.000000,0.000000,0.000000,0.000000,0.000000,0.000000,0.000000,1769694543.643833,0.000000
4.000000,10136.627869,13915.749063,-1499.176204,-3827.155093,-2535.805408,-17009.476365,-4710.205461,-3316.305973,15500.934780,10674.477896,-13959.536130,6543.897872,16256.066114,-6139.443057,-9676.673672,4936.092190,0.005000,-0.009000,1.006000,192.000000,0.000000,0.000000,0.000000,0.000000,0.000000,0.000000,0.000000,0.000000,0.000000,1769694543.643851,0.000000
6.000000,10103.748453,13883.741365,-1526.646498,-3863.543733,-2559.297092,-17044.345086,-4742.101400,-3347.777229,15557.775266,10743.433028,-13888.301121,6606.862737,16318.315723,-6071.694919,-9603.091729,4985.757766,0.005000,-0.009000,1.006000,192.000000,0.000000,0.000000,0.000000,0.000000,0.000000,0.000000,0.000000,0.000000,0.000000,1769694543.643868,0.000000
8.000000,10083.318959,13860.249682,-1548.372394,-3886.051939,-2577.938447,-17071.211883,-4766.196581,-3370.374843,15485.266207,10659.122248,-13973.885950,6524.116579,16247.214824,-6151.401240,-9683.535657,4911.617030,0.005000,-0.009000,1.006000,192.000000,0.000000,0.000000,0.000000,0.000000,0.000000,0.000000,0.000000,0.000000,0.000000,1769694543.643885,0.000000
10.000000,10146.082657,13921.471110,-1486.726282,-3820.427218,-2513.721885,-17003.575504,-4702.471757,-3311.679162,15558.177597,10727.853862,-13901.533354,6589.338969,16312.727787,-6081.529687,-9602.689398,4975.811240,0.005500,-0.008500,1.006000,192.000000,0.000000,24.000000,127.500000,96.000000,15.500000,56.000000,0.000000,0.000000,0.000000,1769694543.643902,0.000000
12.000000,10066.890427,13841.340106,-1567.259618,-3898.032474,-2591.125976,-17091.686081,-4780.747566,-3395.587611,15514.792861,10686.033748,-13945.163959,6549.038774,16275.310966,-6129.809455,-9636.507587,4962.623711,0.005500,-0.008500,1.006000,192.000000,0.000000,0.000000,0.000000,0.000000,0.000000,0.000000,0.000000,0.000000,0.000000,1769694543.643919,0.000000
14.000000,10114.365532,13895.632493,-1513.570728,-3835.805218,-2534.576063,-17036.253755,-4723.035362,-3341.004651,15498.274922,10676.847181,-13965.839322,6540.075724,16256.826074,-6138.973670,-9650.723296,4952.967757,0.005500,-0.008500,1.006000,192.000000,0.000000,0.000000,0.000000,0.000000,0.000000,0.000000,0.000000,0.000000,0.000000,1769694543.643938,0.000000
16.000000,10077.753374,13860.808475,-1545.667833,-3868.617579,-2569.221266,-17078.476200,-4749.321014,-3374.420509,15527.063969,10720.120158,-13925.270906,6581.672321,16289.638435,-6097.220611,-9600.253058,4992.150365,0.005500,-0.008500,1.006000,192.000000,0.000000,0.000000,0.000000,0.000000,0.000000,0.000000,0.000000,0.000000,0.000000,1769694543.643956,0.000000
18.000000,10052.495903,13833.494643,-1573.585161,-3892.064559,-2603.844119,-17105.141831,-4768.297645,-3397.867489,15451.738590,10637.172835,-14004.373730,6506.503404,16209.887410,-6185.778223,-9676.450154,4931.979469,0.005500,-0.008500,1.006000,192.000000,0.000000,0.000000,0.000000,0.000000,0.000000,0.000000,0.000000,0.000000,0.000000,1769694543.643971,0.000000
20.000000,10102.697921,13883.741365,-1527.674678,-3833.972375,-2562.739261,-17043.540423,-4715.592231,-3343.843322,15499.392509,10686.391376,-13948.002630,6555.811352,16253.763885,-6130.412952,-9628.930346,4973.911342,0.005750,-0.008250,1.003000,192.000000,0.000000,24.000000,127.500000,96.000000,15.500000,32.000000,0.000000,0.000000,0.000000,1769694543.643990,0.000000
22.000000,10053.591139,13831.728856,-1590.170156,-3893.070387,-2624.027744,-17086.187552,-4780.322883,-3402.829576,15479.007718,10671.147486,-13968.655642,6539.092247,16231.210975,-6142.661708,-9668.381175,4971.072670,0.005750,-0.008250,1.003000,192.000000,0.000000,0.000000,0.000000,0.000000,0.000000,0.000000,0.000000,0.000000,0.000000,1769694543.644008,0.000000
24.000000,10139.444189,13920.197060,-1509.279193,-3815.822758,-2554.402060,-17003.217876,-4707.120920,-3318.764665,15490.876495,10687.061928,-13964.028831,6554.157323,16235.167233,-6132.603423,-9683.289788,4968.256351,0.005750,-0.008250,1.003000,192.000000,0.000000,0.000000,0.000000,0.000000,0.000000,0.000000,0.000000,0.000000,0.000000,1769694543.644022,0.000000
26.000000,10116.153671,13891.497420,-1534.179036,-3856.927616,-2579.480717,-17037.661915,-4741.095572,-3346.592587,15550.935632,10747.232824,-13899.007606,6607.868565,16299.897885,-6074.757108,-9627.321020,5002.678037,0.005750,-0.008250,1.003000,192.000000,0.000000,0.000000,0.000000,0.000000,0.000000,0.000000,0.000000,0.000000,0.000000,1769694543.644041,0.000000
28.000000,10106.676532,13876.544103,-1542.762106,-3880.933390,-2584.845136,-17063.478179,-4757.769973,-3358.014328,15494.117498,10675.439021,-13963.782962,6543.026154,16244.957297,-6149.099010,-9693.325721,4926.771513,0.005750,-0.008250,1.003000,192.000000,0.000000,0.000000,0.000000,0.000000,0.000000,0.000000,0.000000,0.000000,0.000000,1769694543.644058,0.000000
30.000000,10173.776468,13947.175616,-1468.353149,-3810.145415,-2505.272926,-16988.398670,-4687.451385,-3289.997970,15571.052202,10747.970432,-13885.060118,6610.327257,16325.334171,-6072.678396,-9608.545555,4973.374900,0.005875,-0.009125,1.001500,192.000000,0.000000,24.000000,127.500000,88.000000,15.500000,32.000000,0.000000,0.000000,0.000000,1769694543.644075,0.000000
32.000000,10082.179020,13849.118513,-1558.676548,-3902.145195,-2582.118223,-17083.080659,-4779.875848,-3385.328160,15532.629553,10707.737292,-13924.063912,6568.305977,16288.923179,-6105.826033,-9634.540634,4953.884179,0.005875,-0.009125,1.001500,192.000000,0.000000,0.000000,0.000000,0.000000,0.000000,0.000000,0.000000,0.000000,0.000000,1769694543.644093,0.000000
34.000000,10154.285747,13923.236897,-1489.475547,-3827.155093,-2512.604298,-17006.883562,-4711.881842,-3317.267098,15510.836603,10684.290312,-13946.862691,6547.965890,16264.850350,-6133.475141,-9647.661107,4937.254481,0.005875,-0.009125,1.001500,192.000000,0.000000,0.000000,0.000000,0.000000,0.000000,0.000000,0.000000,0.000000,0.000000,1769694543.644111,0.000000
36.000000,10119.238212,13887.518810,-1528.702859,-3863.811954,-2541.706269,-17039.807682,-4751.310319,-3358.394308,15571.834513,10751.189083,-13882.869647,6605.566335,16325.133005,-6068.699785,-9570.458182,5007.729531,0.005875,-0.009125,1.001500,192.000000,0.000000,0.000000,0.000000,0.000000,0.000000,0.000000,0.000000,0.000000,0.000000,1769694543.644126,0.000000
38.000000,10095.523011,13868.050440,-1559.749432,-3884.643779,-2567.723700,-17071.435400,-4775.383148,-3384.121166,15475.520846,10655.613024,-13984.860657,6514.930012,16233.133225,-6163.471182,-9660.602768,4944.518798,0.005875,-0.009125,1.001500,192.000000,0.000000,0.000000,0.000000,0.000000,0.000000,0.000000,0.000000,0.000000,0.000000,1769694543.644140,0.000000
40.000000,10160.030146,13938.100807,-1499.042094,-3811.307706,-2511.218490,-17007.464708,-4706.450368,-3318.496444,15537.301068,10729.172615,-13916.665485,6585.382710,16286.688004,-6090.425681,-9591.111194,5012.356342,0.005938,-0.011562,1.000750,192.000000,0.000000,24.000000,127.500000,72.000000,15.500000,32.000000,0.000000,0.000000,0.000000,1769694543.644159,0.000000
42.000000,10060.721345,13835.551004,-1595.221650,-3908.962477,-2597.473871,-17102.772546,-4801.199412,-3420.040419,15494.497477,10688.738309,-13960.676069,6545.753067,16248.980611,-6131.642298,-9632.081942,4997.783005,0.005938,-0.011562,1.000750,192.000000,0.000000,0.000000,0.000000,0.000000,0.000000,0.000000,0.000000,0.000000,0.000000,1769694543.644180,0.000000
44.000000,10128.670648,13907.545973,-1529.619280,-3842.108410,-2533.056144,-17030.732874,-4733.317165,-3348.760706,15468.636509,10655.925948,-13989.420413,6521.367314,16220.169213,-6163.158257,-9663.061459,4969.843324,0.005938,-0.011562,1.000750,192.000000,0.000000,0.000000,0.000000,0.000000,0.000000,0.000000,0.000000,0.000000,0.000000,1769694543.644200,0.000000
46.000000,10097.825241,13875.851199,-1550.898141,-3872.842058,-2551.518685,-17050.245947,-4758.954615,-3373.660549,15529.321495,10724.121120,-13919.392397,6580.890010,16280.630682,-6100.506318,-9600.677741,5018.994810,0.005938,-0.011562,1.000750,192.000000,0.000000,0.000000,0.000000,0.000000,0.000000,0.000000,0.000000,0.000000,0.000000,1769694543.644219,0.000000
48.000000,10094.159555,13867.536350,-1562.230475,-3892.064559,-2559.006519,-17059.231348,-4773.527953,-3382.869468,15466.021355,10642.805474,-13991.499125,6508.291544,16209.663893,-6176.792822,-9672.471544,4948.273891,0.005938,-0.011562,1.000750,192.000000,0.000000,0.000000,0.000000,0.000000,0.000000,0.000000,0.000000,0.000000,0.000000,1769694543.644234,0.000000
50.000000,10175.274035,13950.215453,-1490.727245,-3823.556462,-2480.440137,-16981.067298,-4705.735112,-3304.705418,15547.471112,10730.804292,-13909.490575,6589.338969,16288.833772,-6094.426643,-9602.510584,4986.249505,0.007969,-0.013781,1.001375,192.000000,0.000000,40.000000,127.500000,64.000000,15.500000,40.000000,0.000000,0.000000,0.000000,1769694543.644251,0.000000
52.000000,10103.234363,13872.386679,-1563.415118,-3903.374541,-2543.695574,-17061.935909,-4782.602761,-3380.410776,15532.607202,10709.078396,-13929.338924,6565.288492,16276.920292,-6110.721065,-9627.902165,4962.199028,0.007969,-0.013781,1.001375,192.000000,0.000000,0.000000,0.000000,0.000000,0.000000,0.000000,0.000000,0.000000,0.000000,1769694543.644266,0.000000
54.000000,10186.584018,13960.407848,-1487.754463,-3827.423314,-2475.209829,-16989.136277,-4709.624315,-3301.978505,15527.443949,10701.299989,-13940.291278,6560.013480,16275.378022,-6123.394504,-9636.507587,4943.423562,0.007969,-0.013781,1.001375,192.000000,0.000000,0.000000,0.000000,0.000000,0.000000,0.000000,0.000000,0.000000,0.000000,1769694543.644284,0.000000
56.000000,10148.384887,13920.889964,-1520.253899,-3863.342567,-2513.699533,-17029.168252,-4742.280214,-3339.216511,15585.290263,10764.086040,-13878.108725,6618.686809,16332.687894,-6058.708556,-9575.397918,4994.989037,0.007969,-0.013781,1.001375,192.000000,0.000000,0.000000,0.000000,0.000000,0.000000,0.000000,0.000000,0.000000,0.000000,1769694543.644299,0.000000
58.000000,10131.263451,13902.002740,-1535.386030,-3877.223000,-2533.726696,-17058.292575,-4757.747621,-3356.695575,15508.489669,10675.260207,-13960.787828,6538.756971,16263.442190,-6151.244778,-9655.528922,4936.315708,0.007969,-0.013781,1.001375,192.000000,0.000000,0.000000,0.000000,0.000000,0.000000,0.000000,0.000000,0.000000,0.000000,1769694543.644317,0.000000
60.000000,10174.581131,13949.231976,-1488.559125,-3828.429142,-2489.067911,-17014.840783,-4707.724417,-3311.254479,15567.386516,10742.114275,-13898.158240,6599.039626,16318.427481,-6091.118585,-9589.859496,4988.037644,0.006984,-0.013891,1.003687,192.000000,0.000000,24.000000,127.500000,72.000000,15.500000,56.000000,0.000000,0.000000,0.000000,1769694543.644331,0.000000
62.000000,10093.824279,13863.222464,-1565.918513,-3908.828367,-2567.366072,-17094.010662,-4783.005093,-3394.939410,15524.627629,10694.125079,-13946.214491,6549.485809,16279.557798,-6141.119437,-9627.633944,4964.031871,0.006984,-0.013891,1.003687,192.000000,0.000000,0.000000,0.000000,0.000000,0.000000,0.000000,0.000000,0.000000,0.000000,1769694543.644349,0.000000
64.000000,10143.892186,13918.855955,-1515.738847,-3850.110334,-2518.192234,-17039.785330,-4730.478493,-3342.479866,15504.533411,10675.282559,-13969.616767,6531.604413,16258.055420,-6162.800629,-9640.285032,4959.829743,0.006984,-0.013891,1.003687,192.000000,0.000000,0.000000,0.000000,0.000000,0.000000,0.000000,0.000000,0.000000,0.000000,1769694543.644369,0.000000
66.000000,10123.194471,13893.799650,-1540.146952,-3871.322140,-2534.330193,-17051.140016,-4753.545493,-3366.619750,15554.087228,10728.300897,-13914.720883,6580.688844,16308.078624,-6100.260448,-9580.695281,5025.946203,0.006984,-0.013891,1.003687,192.000000,0.000000,0.000000,0.000000,0.000000,0.000000,0.000000,0.000000,0.000000,0.000000,1769694543.644387,0.000000
68.000000,10102.630866,13873.392507,-1563.191600,-3889.851736,-2550.021118,-17059.365458,-4776.299569,-3387.786852,15483.276902,10648.706335,-13994.583666,6509.140910,16234.809605,-6180.503211,-9657.451172,4982.270894,0.006984,-0.013891,1.003687,192.000000,0.000000,0.000000,0.000000,0.000000,0.000000,0.000000,0.000000,0.000000,0.000000,1769694543.644404,0.000000
70.000000,10168.881436,13940.850072,-1499.377370,-3823.534110,-2485.357521,-16985.671757,-4709.646667,-3321.469226,15552.030868,10729.351429,-13920.577040,6578.297207,16309.822060,-6101.690960,-9586.730252,5034.261052,0.006984,-0.013891,1.003687,192.000000,0.000000,0.000000,0.000000,0.000000,0.000000,0.000000,0.000000,0.000000,0.000000,1769694543.644422,0.000000
72.000000,10082.760165,13853.790027,-1586.415063,-3916.852643,-2569.936522,-17073.871741,-4798.986590,-3411.077370,15513.161184,10686.704300,-13964.967604,6536.700611,16267.197283,-6143.354612,-9632.551328,4992.776214,0.004000,-0.016000,1.004000,192.000000,0.000000,16.000000,127.500000,64.000000,15.500000,48.000000,0.000000,0.000000,0.000000,1769694543.644437,0.000000
74.000000,10175.810477,13951.511854,-1503.043056,-3834.173540,-2499.617934,-16991.125583,-4717.559185,-3317.557671,15507.707358,10686.301969,-13970.957872,6535.717134,16256.691963,-6149.188417,-9650.522131,4959.069784,0.004000,-0.016000,1.004000,192.000000,0.000000,0.000000,0.000000,0.000000,0.000000,0.000000,0.000000,0.000000,0.000000,1769694544.122666,0.000000
76.000000,10151.335317,13923.683932,-1525.417152,-3864.013119,-2516.426446,-17025.189641,-4744.671851,-3341.071706,15580.015252,10766.276511,-13890.223371,6609.991981,16324.864784,-6070.040890,-9581.075261,4999.995828,0.004000,-0.016000,1.004000,192.000000,0.000000,0.000000,0.000000,0.000000,0.000000,0.000000,0.000000,0.000000,0.000000,1769694544.122726,0.000000
78.000000,10136.940794,13910.474051,-1542.113905,-3879.748747,-2535.224263,-17042.355781,-4763.290854,-3356.337947,15509.271980,10682.815097,-13969.192084,6528.810445,16257.317812,-6151.557702,-9665.296634,4928.537301,0.004000,-0.016000,1.004000,192.000000,0.000000,0.000000,0.000000,0.000000,0.000000,0.000000,0.000000,0.000000,0.000000,1769694544.122770,0.000000
80.000000,10211.886193,13990.292131,-1471.974131,-3801.674104,-2470.851239,-16966.136332,-4691.429995,-3283.203040,15577.936539,10763.817819,-13895.565438,6601.945353,16320.930877,-6074.198314,-9594.061624,4987.590610,0.004000,-0.016000,1.004000,192.000000,0.000000,0.000000,0.000000,0.000000,0.000000,0.000000,0.000000,0.000000,0.000000,1769694544.122786,0.000000
82.000000,10113.627924,13890.871571,-1567.036100,-3893.472718,-2566.293188,-17064.640470,-4783.273313,-3381.416605,15555.674202,10736.503987,-13922.856918,6575.838515,16297.796821,-6101.892126,-9618.469729,4985.646008,0.004000,-0.016000,1.004000,192.000000,0.000000,0.000000,127.500000,72.000000,15.500000,24.000000,0.000000,0.000000,0.000000,1769694544.122826,0.000000
84.000000,10175.139925,13959.692593,-1503.311277,-3819.175520,-2518.527510,-16989.046870,-4713.491167,-3315.434255,15516.871574,10706.530298,-13958.798523,6547.742372,16259.888263,-6127.708391,-9654.724259,4963.875409,0.004000,-0.016000,1.004000,192.000000,0.000000,0.000000,0.000000,0.000000,0.000000,0.000000,0.000000,0.000000,0.000000,1769694544.122872,0.000000
86.000000,10132.693962,13915.302028,-1544.013803,-3854.692442,-2561.867542,-17027.491871,-4750.729174,-3359.936578,15573.645004,10766.455324,-13898.560571,6604.426396,16311.431385,-6066.218742,-9591.625284,5033.501093,0.004000,-0.016000,1.004000,192.000000,0.000000,0.000000,0.000000,0.000000,0.000000,0.000000,0.000000,0.000000,0.000000,1769694544.122921,0.000000
88.000000,10107.883526,13885.976539,-1574.926266,-3877.647683,-2596.646857,-17054.805703,-4774.310264,-3388.792680,15476.683137,10663.547893,-14002.540887,6505.788148,16211.943771,-6172.076603,-9690.352939,4971.877333,0.004000,-0.016000,1.004000,192.000000,0.000000,0.000000,0.000000,0.000000,0.000000,0.000000,0.000000,0.000000,0.000000,1769694544.122970,0.000000
90.000000,10168.188532,13952.249462,-1511.313201,-3809.966601,-2536.073629,-16982.117830,-4705.377484,-3325.313726,15542.889004,10740.504949,-13927.528432,6577.313730,16280.518923,-6091.319751,-9614.379360,5041.011279,0.004000,-0.016000,1.004000,192.000000,0.000000,0.000000,0.000000,0.000000,0.000000,0.000000,0.000000,0.000000,0.000000,1769694544.122992,0.000000
92.000000,10076.501677,13857.545120,-1601.480138,-3909.901251,-2621.881976,-17067.076810,-4796.840822,-3423.504939,15500.666559,10698.461318,-13972.366032,6534.867768,16239.861100,-6134.838597,-9653.941948,5018.525424,0.004000,-0.016000,1.004000,192.000000,0.000000,0.000000,127.500000,72.000000,15.500000,24.000000,0.000000,0.000000,0.000000,1769694544.123008,0.000000
94.000000,10154.263396,13936.938517,-1527.562920,-3837.459247,-2549.283510,-16990.030347,-4728.042153,-3351.018232,15481.399355,10673.695585,-13998.405814,6512.583078,16217.911687,-6159.425516,-9677.880666,4994.072615,0.004000,-0.016000,1.004000,192.000000,0.000000,0.000000,0.000000,0.000000,0.000000,0.000000,0.000000,0.000000,0.000000,1769694544.123026,0.000000
96.000000,10136.247890,13916.866650,-1545.310205,-3856.748802,-2555.430240,-16999.261618,-4748.829275,-3369.748994,15560.658641,10755.257100,-13916.933705,6587.304960,16294.756984,-6076.969931,-9600.565982,5061.776049,0.004000,-0.016000,1.004000,192.000000,0.000000,0.000000,0.000000,0.000000,0.000000,0.000000,0.000000,0.000000,0.000000,1769694544.123043,0.000000
98.000000,10123.730913,13901.645112,-1564.555057,-3880.531058,-2574.339816,-17012.247981,-4771.717462,-3385.350512,15487.881361,10670.991024,-13996.148288,6510.504366,16220.437434,-6161.526580,-9686.150811,4993.379711,0.004000,-0.016000,1.004000,192.000000,0.000000,0.000000,0.000000,0.000000,0.000000,0.000000,0.000000,0.000000,0.000000,1769694544.123061,0.000000
100.000000,10201.716149,13983.497200,-1482.434748,-3802.076435,-2500.400245,-16939.046018,-4691.117071,-3299.944496,15567.386516,10762.275548,-13903.634417,6595.776271,16303.585923,-6070.398518,-9603.158784,5047.180360,0.004000,-0.016000,1.004000,192.000000,0.000000,0.000000,0.000000,0.000000,0.000000,0.000000,0.000000,0.000000,0.000000,1769694544.123078,0.000000
102.000000,10102.720273,13877.415821,-1573.428699,-3902.972210,-2593.338799,-17049.731857,-4783.809755,-3393.933582,15538.999801,10722.623554,-13934.301011,6561.488695,16272.204074,-6115.683152,-9638.966279,5011.976363,0.004000,-0.010000,1.004000,192.000000,0.000000,16.000000,127.500000,88.000000,15.500000,48.000000,0.000000,0.000000,0.000000,1769694544.123096,0.000000
104.000000,10182.605408,13961.637194,-1497.008085,-3826.909223,-2526.574138,-16976.485190,-4708.216156,-3313.891985,15507.081509,10688.783012,-13966.532226,6533.459608,16246.030181,-6143.421667,-9671.666881,4972.570237,0.004000,-0.010000,1.004000,192.000000,0.000000,0.000000,0.000000,0.000000,0.000000,0.000000,0.000000,0.000000,0.000000,1769694544.123114,0.000000
106.000000,10152.385849,13929.338924,-1520.432713,-3853.194875,-2558.403022,-17014.281990,-4733.898310,-3341.071706,15587.391327,10776.334796,-13880.075679,6614.529385,16321.780243,-6056.518085,-9586.573790,5042.732363,0.004000,-0.010000,1.004000,192.000000,0.000000,0.000000,0.000000,0.000000,0.000000,0.000000,0.000000,0.000000,0.000000,1769694544.123131,0.000000
108.000000,10130.056456,13908.395339,-1544.863170,-3874.093756,-2590.634238,-17049.955374,-4757.747621,-3362.372918,15502.454698,10681.451640,-13974.981186,6526.329401,16230.898050,-6161.772449,-9682.999215,4965.730603,0.004000,-0.010000,1.004000,192.000000,0.000000,0.000000,0.000000,0.000000,0.000000,0.000000,0.000000,0.000000,0.000000,1769694544.123147,0.000000
110.000000,10186.673425,13967.471000,-1489.900230,-3811.620630,-2538.867597,-16990.946769,-4697.442615,-3303.610182,15572.035679,10758.162827,-13897.510040,6601.230097,16295.092260,-6086.402367,-9609.663142,5021.140578,0.004000,-0.010000,1.004000,192.000000,0.000000,0.000000,0.000000,0.000000,0.000000,0.000000,0.000000,0.000000,0.000000,1769694544.123169,0.000000
112.000000,10085.062395,13863.535388,-1591.220688,-3909.342457,-2631.426171,-17085.673462,-4793.800985,-3407.098759,15517.117443,10702.417577,-13954.037601,6544.099038,16246.276050,-6141.119437,-9661.049802,4988.775252,0.004000,-0.016000,1.006000,192.000000,0.000000,16.000000,127.500000,64.000000,15.500000,56.000000,0.000000,0.000000,0.000000,1769694544.123185,0.000000
114.000000,10164.500495,13947.175616,-1519.136312,-3828.116218,-2556.100792,-17011.510374,-4717.447426,-3328.241805,15496.911466,10689.006530,-13977.439878,6532.766704,16227.321771,-6156.005699,-9676.405451,4974.894819,0.004000,-0.016000,1.006000,192.000000,0.000000,0.000000,0.000000,0.000000,0.000000,0.000000,0.000000,0.000000,0.000000,1769694544.123215,0.000000
116.000000,10130.436436,13911.658694,-1551.680452,-3859.922750,-2579.301903,-17042.333429,-4750.215083,-3362.797602,15555.405981,10752.083153,-13913.066854,6594.479870,16285.056327,-6087.631713,-9608.009113,5036.004488,0.004000,-0.016000,1.006000,192.000000,0.000000,0.000000,0.000000,0.000000,0.000000,0.000000,0.000000,0.000000,0.000000,1769694544.123232,0.000000
118.000000,10109.090520,13888.994025,-1572.400519,-3877.960608,-2603.620601,-17054.068095,-4767.962368,-3383.674131,15478.605387,10670.633396,-13995.254218,6516.695799,16215.676512,-6169.930836,-9690.867030,4979.655740,0.004000,-0.016000,1.006000,192.000000,0.000000,0.000000,0.000000,0.000000,0.000000,0.000000,0.000000,0.000000,0.000000,1769694544.123249,0.000000
120.000000,10185.533486,13967.582758,-1499.734998,-3805.853880,-2532.564406,-16977.423963,-4698.694312,-3308.326400,15547.180539,10739.812045,-13923.013380,6580.890010,16273.478123,-6100.998056,-9627.499834,5035.333936,0.004000,-0.016000,1.006000,192.000000,0.000000,0.000000,0.000000,0.000000,0.000000,0.000000,0.000000,0.000000,0.000000,1769694544.123265,0.000000
122.000000,10106.944753,13883.808420,-1576.580295,-3893.830346,-2605.185223,-17058.091409,-4782.938037,-3389.306770,15530.506138,10718.555536,-13942.615860,6558.739431,16261.408181,-6122.343972,-9654.411334,5015.597345,0.002000,-0.014000,1.010000,192.000000,0.000000,8.000000,127.500000,72.000000,15.500000,72.000000,0.000000,0.000000,0.000000,1769694544.123282,0.000000
124.000000,10184.080623,13965.906378,-1506.596983,-3820.136645,-2544.321423,-16983.771859,-4709.311391,-3309.376932,15514.479937,10706.910277,-13957.457418,6550.357527,16241.515129,-6134.749190,-9669.387003,4980.661569,0.002000,-0.014000,1.010000,192.000000,0.000000,0.000000,0.000000,0.000000,0.000000,0.000000,0.000000,0.000000,0.000000,1769694544.123299,0.000000
126.000000,10149.658936,13930.724732,-1538.157646,-3853.798372,-2566.092022,-17016.137185,-4741.654365,-3343.955081,15581.535170,10780.782793,-13886.512981,6615.579917,16304.412938,-6062.396593,-9603.404653,5019.419494,0.002000,-0.014000,1.010000,192.000000,0.000000,0.000000,0.000000,0.000000,0.000000,0.000000,0.000000,0.000000,0.000000,1769694544.123314,0.000000
128.000000,10128.201262,13906.003702,-1561.112888,-3877.804146,-2595.439863,-17056.549139,-4762.195618,-3364.786907,15495.905637,10683.843277,-13980.278549,6524.585965,16220.079806,-6153.725821,-9695.270323,4938.863807,0.002000,-0.014000,1.010000,192.000000,0.000000,0.000000,0.000000,0.000000,0.000000,0.000000,0.000000,0.000000,0.000000,1769694544.123331,0.000000
130.000000,10197.938704,13977.261064,-1489.341437,-3811.061837,-2532.005612,-17002.323807,-4692.793452,-3294.423615,15570.761629,10759.056897,-13899.320531,6598.860812,16295.226371,-6086.558829,-9618.626191,4992.798566,0.002000,-0.014000,1.010000,192.000000,0.000000,0.000000,0.000000,0.000000,0.000000,0.000000,0.000000,0.000000,0.000000,1769694544.123348,0.000000
132.000000,10103.927267,13879.360423,-1574.814507,-3896.736073,-2615.668191,-17093.787145,-4774.690244,-3382.891820,15535.177652,10712.788786,-13937.698476,6559.722908,16261.363478,-6134.883301,-9655.819494,4968.815144,0.004000,-0.008000,1.010000,192.000000,0.000000,16.000000,127.500000,96.000000,15.500000,72.000000,0.000000,0.000000,0.000000,1769694544.123365,0.000000
134.000000,10165.819247,13948.762590,-1514.084818,-3827.400962,-2558.850057,-17025.346103,-4708.104397,-3318.228223,15510.344864,10693.320417,-13961.883064,6546.669489,16239.034085,-6155.089278,-9680.495820,4953.839475,0.004000,-0.008000,1.010000,192.000000,0.000000,0.000000,0.000000,0.000000,0.000000,0.000000,0.000000,0.000000,0.000000,1769694544.123380,0.000000
136.000000,10129.609421,13912.999798,-1551.501638,-3863.007291,-2586.700331,-17057.353801,-4745.409458,-3358.975453,15563.363202,10747.009307,-13906.942476,6595.955085,16287.962054,-6101.020408,-9621.017828,5007.975400,0.004000,-0.008000,1.010000,192.000000,0.000000,0.000000,0.000000,0.000000,0.000000,0.000000,0.000000,0.000000,0.000000,1769694544.123397,0.000000
138.000000,10115.885450,13895.051348,-1571.573504,-3879.525230,-2607.710970,-17068.820246,-4767.872962,-3374.129936,15485.757945,10666.967710,-13990.269779,6521.054390,16212.904896,-6179.340920,-9698.243105,4952.073688,0.004000,-0.008000,1.010000,192.000000,0.000000,0.000000,0.000000,0.000000,0.000000,0.000000,0.000000,0.000000,0.000000,1769694544.123418,0.000000
140.000000,10202.610219,13985.218285,-1490.436672,-3791.660522,-2527.602318,-16975.836989,-4687.764309,-3286.175822,15562.491484,10750.272661,-13906.562496,6599.978399,16285.458658,-6092.191469,-9623.655334,5015.910270,0.004000,-0.008000,1.010000,192.000000,0.000000,0.000000,0.000000,0.000000,0.000000,0.000000,0.000000,0.000000,0.000000,1769694544.123431,0.000000
142.000000,10120.266392,13896.124231,-1574.501583,-3883.570896,-2601.296020,-17060.818322,-4775.271389,-3374.576971,15548.387533,10729.440836,-13924.108615,6579.504201,16271.913501,-6112.911536,-9646.543520,5011.976363,0.006000,-0.006000,1.009000,192.000000,0.000000,32.000000,127.500000,112.000000,15.500000,64.000000,0.000000,0.000000,0.000000,1769694544.123448,0.000000
144.000000,10179.789088,13960.988994,-1511.424960,-3827.043334,-2549.417621,-17005.855382,-4711.457159,-3311.567403,15518.726768,10700.092995,-13955.937500,6552.570349,16246.074885,-6146.908539,-9676.740727,4976.660606,0.006000,-0.006000,1.009000,192.000000,0.000000,0.000000,0.000000,0.000000,0.000000,0.000000,0.000000,0.000000,0.000000,1769694544.123482,0.000000
146.000000,10149.793047,13930.858842,-1530.535702,-3854.938311,-2568.148383,-17042.087560,-4734.300641,-3335.930805,15583.412717,10765.762420,-13887.697624,6613.881184,16313.219525,-6083.675454,-9609.171404,5017.676058,0.006000,-0.006000,1.009000,192.000000,0.000000,0.000000,0.000000,0.000000,0.000000,0.000000,0.000000,0.000000,0.000000,1769694544.123504,0.000000
148.000000,10131.777541,13912.284543,-1548.730022,-3874.496087,-2583.571086,-17054.582185,-4753.947825,-3353.476924,15511.283637,10686.525486,-13965.593453,6544.456666,16246.007829,-6157.749135,-9681.747518,4947.715097,0.006000,-0.006000,1.009000,192.000000,0.000000,0.000000,0.000000,0.000000,0.000000,0.000000,0.000000,0.000000,0.000000,1769694544.123521,0.000000
150.000000,10193.714225,13976.165828,-1483.105300,-3807.999648,-2521.723809,-16986.543475,-4688.256048,-3286.622856,15567.565330,10756.017060,-13899.365234,6609.656705,16305.530525,-6092.772614,-9612.837090,4987.903534,0.006000,-0.006000,1.009000,192.000000,0.000000,0.000000,0.000000,0.000000,0.000000,0.000000,0.000000,0.000000,0.000000,1769694544.123538,0.000000
152.000000,10106.810642,13884.970711,-1570.142993,-3891.885745,-2604.559374,-17075.034031,-4776.254866,-3376.231000,15537.323420,10725.171652,-13933.272831,6577.269027,16276.383850,-6119.170024,-9645.180064,4965.708252,0.008000,-0.007000,1.007500,192.000000,0.000000,40.000000,127.500000,96.000000,15.500000,56.000000,0.000000,0.000000,0.000000,1769694544.123554,0.000000
154.000000,10191.791975,13975.785849,-1496.516347,-3808.826662,-2541.639214,-16992.399632,-4700.102472,-3293.976580,15524.784091,10711.134757,-13951.400095,6566.137858,16256.870777,-6133.810417,-9669.387003,4949.525589,0.008000,-0.007000,1.007500,192.000000,0.000000,0.000000,0.000000,0.000000,0.000000,0.000000,0.000000,0.000000,0.000000,1769694544.123570,0.000000
156.000000,10159.627814,13936.402075,-1533.620242,-3843.002479,-2574.853906,-17031.828109,-4735.395877,-3330.991069,15593.873333,10789.365863,-13874.264225,6637.708144,16321.601429,-6059.244997,-9601.750624,5016.223194,0.008000,-0.007000,1.007500,192.000000,0.000000,0.000000,0.000000,0.000000,0.000000,0.000000,0.000000,0.000000,0.000000,1769694544.123587,0.000000
158.000000,10131.241099,13910.183479,-1559.235341,-3865.488334,-2598.479700,-17063.075848,-4756.786496,-3359.757764,15501.739443,10690.146469,-13973.327157,6544.479018,16232.149748,-6153.569359,-9698.287809,4945.837551,0.008000,-0.007000,1.007500,192.000000,0.000000,0.000000,0.000000,0.000000,0.000000,0.000000,0.000000,0.000000,0.000000,1769694544.123602,0.000000
160.000000,10173.128268,13956.920976,-1512.229623,-3812.849976,-2556.503124,-17010.079862,-4705.891574,-3314.204909,15553.506083,10754.072458,-13913.782109,6604.873431,16284.072850,-6095.767748,-9626.695171,5002.208650,0.008000,-0.007000,1.007500,192.000000,0.000000,0.000000,0.000000,0.000000,0.000000,0.000000,0.000000,0.000000,0.000000,1769694544.123620,0.000000
162.000000,10090.918552,13871.850237,-1589.097272,-3890.946971,-2623.424247,-17089.585017,-4785.195563,-3396.705198,15514.010550,10715.314533,-13957.189197,6563.455649,16244.666725,-6126.702562,-9660.178084,4982.986150,0.007000,-0.008500,1.009750,192.000000,0.000000,24.000000,127.500000,88.000000,15.500000,80.000000,0.000000,0.000000,0.000000,1769694544.123634,0.000000
164.000000,10162.533541,13950.573081,-1512.475492,-3816.538014,-2548.098868,-17005.676568,-4712.418284,-3318.496444,15502.164126,10699.824774,-13972.120163,6552.168018,16234.429626,-6141.924100,-9674.684367,4974.000749,0.007000,-0.008500,1.009750,192.000000,0.000000,0.000000,0.000000,0.000000,0.000000,0.000000,0.000000,0.000000,0.000000,1769694544.123651,0.000000
166.000000,10126.793102,13911.099900,-1538.872902,-3852.770192,-2566.919037,-17029.570583,-4744.202464,-3351.957005,15571.163961,10771.305653,-13899.879324,6614.931716,16308.592714,-6075.897047,-9607.450319,5030.684773,0.007000,-0.008500,1.009750,192.000000,0.000000,0.000000,0.000000,0.000000,0.000000,0.000000,0.000000,0.000000,0.000000,1769694544.123667,0.000000
168.000000,10106.028331,13889.686929,-1552.708632,-3874.563143,-2577.156136,-17054.381019,-4760.675700,-3369.726642,15499.437213,10688.514792,-13980.055032,6536.611204,16244.979649,-6150.529522,-9684.027396,4966.892894,0.007000,-0.008500,1.009750,192.000000,0.000000,0.000000,0.000000,0.000000,0.000000,0.000000,0.000000,0.000000,0.000000,1769694544.123685,0.000000
170.000000,10164.791067,13951.601261,-1490.593134,-3815.420427,-2518.594565,-17001.385033,-4698.895478,-3306.270040,15559.652812,10753.983051,-13912.463357,6597.787928,16303.965903,-6091.073882,-9620.749607,4993.402063,0.007000,-0.008500,1.009750,192.000000,0.000000,0.000000,0.000000,0.000000,0.000000,0.000000,0.000000,0.000000,0.000000,1769694544.123702,0.000000
172.000000,10090.024482,13870.799705,-1566.320844,-3892.288076,-2591.796528,-17091.999005,-4773.125621,-3380.433128,15541.413789,10727.049199,-13935.530357,6570.943483,16284.452830,-6118.387713,-9645.895320,4963.517781,0.005500,-0.011250,1.006875,192.000000,0.000000,16.000000,127.500000,72.000000,15.500000,48.000000,0.000000,0.000000,0.000000,1769694544.123717,0.000000
174.000000,10146.842616,13933.675162,-1508.161605,-3826.953927,-2549.372917,-17028.721217,-4708.618487,-3314.629592,15500.331283,10699.802422,-13966.800447,6546.825951,16247.907728,-6145.366269,-9677.567742,4928.202024,0.005500,-0.011250,1.006875,192.000000,0.000000,0.000000,0.000000,0.000000,0.000000,0.000000,0.000000,0.000000,0.000000,1769694544.123734,0.000000
176.000000,10109.671665,13895.520734,-1539.454048,-3858.067555,-2581.559429,-17052.369362,-4738.681583,-3352.851075,15566.648908,10772.244426,-13895.140755,6617.189243,16308.950342,-6070.309111,-9604.365778,4990.205764,0.005500,-0.011250,1.006875,192.000000,0.000000,0.000000,0.000000,0.000000,0.000000,0.000000,0.000000,0.000000,0.000000,1769694544.123752,0.000000
178.000000,10076.479325,13861.188455,-1568.064281,-3882.252143,-2607.465101,-17080.107877,-4768.297645,-3384.143518,15472.481009,10671.035727,-13994.740128,6523.378971,16222.426739,-6164.275845,-9695.650303,4921.876481,0.005500,-0.011250,1.006875,192.000000,0.000000,0.000000,0.000000,0.000000,0.000000,0.000000,0.000000,0.000000,0.000000,1769694544.123771,0.000000
180.000000,10153.548140,13942.347639,-1493.856489,-3801.741159,-2533.950214,-16993.561923,-4695.810937,-3306.851185,15537.792806,10751.993746,-13920.398226,6595.910382,16285.168086,-6085.843573,-9620.302572,4990.719854,0.005500,-0.011250,1.006875,192.000000,0.000000,0.000000,0.000000,0.000000,0.000000,0.000000,0.000000,0.000000,0.000000,1769694544.123788,0.000000
182.000000,10061.973043,13843.441170,-1579.798946,-3888.197707,-2610.571994,-17081.739555,-4782.513354,-3395.207631,15514.926972,10727.384475,-13948.270851,6567.993053,16267.063173,-6110.430492,-9648.219901,4986.428319,0.006750,-0.012625,1.004437,192.000000,0.000000,32.000000,127.500000,72.000000,15.500000,40.000000,0.000000,0.000000,0.000000,1769694544.123804,0.000000
184.000000,10129.117683,13915.972580,-1513.190748,-3813.945212,-2548.411792,-17011.108042,-4709.356095,-3321.715095,15489.133059,10693.231010,-13976.657567,6545.194274,16238.050608,-6138.347821,-9675.421974,4968.502220,0.006750,-0.012625,1.004437,192.000000,0.000000,0.000000,0.000000,0.000000,0.000000,0.000000,0.000000,0.000000,0.000000,1769694544.123819,0.000000
186.000000,10098.004055,13883.584903,-1540.638690,-3842.622500,-2573.311636,-17032.453958,-4735.753505,-3348.939520,15555.920071,10768.511685,-13903.008569,6614.998772,16305.262304,-6065.905817,-9602.801156,5033.814017,0.006750,-0.012625,1.004437,192.000000,0.000000,0.000000,0.000000,0.000000,0.000000,0.000000,0.000000,0.000000,0.000000,1769694544.123837,0.000000
188.000000,10055.938072,13842.055362,-1578.256676,-3880.039320,-2599.217307,-17064.193435,-4772.320959,-3386.848079,15461.193378,10669.426402,-14004.440785,6521.099093,16216.101195,-6162.688871,-9701.484108,4964.478906,0.006750,-0.012625,1.004437,192.000000,0.000000,0.000000,0.000000,0.000000,0.000000,0.000000,0.000000,0.000000,0.000000,1769694544.123853,0.000000
190.000000,10131.688134,13921.113482,-1501.232565,-3811.598278,-2528.384629,-16988.756298,-4700.169528,-3314.026095,15527.913335,10743.410676,-13930.680028,6591.015350,16285.928045,-6088.436376,-9629.422084,5016.223194,0.006750,-0.012625,1.004437,192.000000,0.000000,0.000000,0.000000,0.000000,0.000000,0.000000,0.000000,0.000000,0.000000,1769694544.123869,0.000000
192.000000,10043.443447,13829.761902,-1574.702749,-3896.646666,-2596.289229,-17076.196322,-4776.120755,-3393.598305,15507.506193,10708.072568,-13958.440895,6556.034870,16268.583091,-6121.762827,-9650.052744,4985.400139,0.006750,-0.012625,1.004437,192.000000,0.000000,0.000000,127.500000,72.000000,15.500000,48.000000,0.000000,0.000000,0.000000,1769694544.123886,0.000000
194.000000,10110.297514,13901.823926,-1514.911832,-3835.134665,-2539.471095,-17023.736778,-4715.368714,-3327.079514,15475.632605,10685.586713,-13983.296035,6538.891082,16242.520957,-6148.182589,-9674.907884,4943.267100,0.006750,-0.012625,1.004437,192.000000,0.000000,0.000000,0.000000,0.000000,0.000000,0.000000,0.000000,0.000000,0.000000,1769694544.604373,0.000000
196.000000,10087.588142,13879.762754,-1530.647460,-3847.383421,-2556.011385,-17044.278031,-4729.092685,-3342.815142,15544.118350,10765.449496,-13905.780185,6612.361266,16309.084452,-6075.829992,-9605.304552,4993.692636,0.006750,-0.012625,1.004437,192.000000,0.000000,0.000000,0.000000,0.000000,0.000000,0.000000,0.000000,0.000000,0.000000,1769694544.604439,0.000000
198.000000,10057.659156,13848.984402,-1560.017653,-3873.110279,-2590.209554,-17079.169104,-4757.412345,-3374.398157,15461.372192,10684.849105,-13989.889799,6533.660773,16231.501547,-6156.005699,-9684.876762,4937.053315,0.006750,-0.012625,1.004437,192.000000,0.000000,0.000000,0.000000,0.000000,0.000000,0.000000,0.000000,0.000000,0.000000,1769694544.604492,0.000000
200.000000,10109.872831,13906.584848,-1506.820501,-3814.034619,-2537.280624,-17015.019597,-4705.243374,-3319.904604,15514.681103,10739.767342,-13936.111502,6583.393405,16274.685118,-6094.292533,-9631.277279,4976.481793,0.006750,-0.012625,1.004437,192.000000,0.000000,0.000000,0.000000,0.000000,0.000000,0.000000,0.000000,0.000000,0.000000,1769694544.604546,0.000000
202.000000,10023.595097,13814.182736,-1584.157537,-3891.908096,-2610.616697,-17090.054404,-4782.826279,-3402.673114,15485.400317,10713.012303,-13966.643985,6553.553826,16248.690039,-6115.683152,-9659.328718,4962.824877,0.004375,-0.014313,1.003219,192.000000,0.000000,8.000000,127.500000,64.000000,15.500000,40.000000,0.000000,0.000000,0.000000,1769694544.604600,0.000000
204.000000,10091.790270,13876.588807,-1517.035248,-3821.902433,-2541.929786,-17020.965161,-4715.838100,-3331.862787,15469.374117,10682.748041,-13986.782907,6535.560672,16236.106007,-6142.527597,-9674.349090,4940.987222,0.004375,-0.014313,1.003219,192.000000,0.000000,0.000000,0.000000,0.000000,0.000000,0.000000,0.000000,0.000000,0.000000,1769694544.604652,0.000000
206.000000,10069.237360,13851.353687,-1536.637728,-3843.315404,-2553.083307,-17036.723141,-4736.938147,-3354.482753,15539.849167,10750.742048,-13914.452662,6600.894821,16305.686987,-6071.493753,-9603.024674,4995.413720,0.004375,-0.014313,1.003219,192.000000,0.000000,0.000000,0.000000,0.000000,0.000000,0.000000,0.000000,0.000000,0.000000,1769694544.604670,0.000000
208.000000,10028.959516,13808.013655,-1572.579333,-3878.273532,-2581.827650,-17063.768752,-4771.091613,-3393.531250,15460.589881,10660.396297,-14003.010273,6517.902794,16232.641486,-6154.955167,-9682.373367,4946.373993,0.004375,-0.014313,1.003219,192.000000,0.000000,0.000000,0.000000,0.000000,0.000000,0.000000,0.000000,0.000000,0.000000,1769694544.604686,0.000000
210.000000,10089.845668,13872.096106,-1506.686390,-3810.011305,-2517.432275,-16987.325786,-4703.701103,-3327.638308,15509.540201,10725.618687,-13941.095941,6575.257370,16284.408126,-6090.984475,-9615.161671,5007.058979,0.004375,-0.014313,1.003219,192.000000,0.000000,0.000000,0.000000,0.000000,0.000000,0.000000,0.000000,0.000000,0.000000,1769694544.604713,0.000000
212.000000,9986.893533,13765.321823,-1603.782368,-3909.074236,-2597.540927,-17071.033069,-4800.238287,-3429.070524,15469.061192,10681.473992,-13983.743070,6528.765741,16243.102103,-6127.596632,-9650.030392,4993.849098,0.004375,-0.014313,1.003219,192.000000,0.000000,0.000000,0.000000,0.000000,0.000000,0.000000,0.000000,0.000000,0.000000,1769694544.604730,0.000000
214.000000,10069.550284,13850.593728,-1524.098399,-3832.966546,-2526.797655,-16997.227609,-4723.482397,-3347.710174,15442.663782,10652.930814,-14015.191974,6502.703607,16229.042855,-6151.870626,-9679.914675,4959.025080,0.006000,-0.012000,1.006000,192.000000,0.000000,24.000000,127.500000,80.000000,15.500000,56.000000,0.000000,0.000000,0.000000,1769694544.604742,0.000000
216.000000,10053.859359,13830.924193,-1538.850551,-3853.530151,-2540.856903,-17020.898106,-4741.184979,-3362.037642,15536.027019,10745.914071,-13919.593563,6585.963856,16311.744310,-6066.911646,-9595.782709,5010.814072,0.006000,-0.012000,1.006000,192.000000,0.000000,0.000000,0.000000,0.000000,0.000000,0.000000,0.000000,0.000000,0.000000,1769694544.604759,0.000000
218.000000,10033.452217,13807.298399,-1559.704728,-3875.792489,-2566.986092,-17048.703676,-4761.927397,-3380.746052,15464.434381,10669.381698,-13993.197858,6517.433407,16243.012696,-6145.142751,-9674.460849,4938.841455,0.006000,-0.012000,1.006000,192.000000,0.000000,0.000000,0.000000,0.000000,0.000000,0.000000,0.000000,0.000000,0.000000,1769694544.604775,0.000000
220.000000,10100.775671,13881.729708,-1493.342399,-3807.910241,-2519.622745,-16986.722289,-4693.262839,-3308.907546,15518.078568,10730.580775,-13928.020171,6581.247637,16296.098089,-6073.505410,-9616.838052,4972.927865,0.006000,-0.012000,1.006000,192.000000,0.000000,0.000000,0.000000,0.000000,0.000000,0.000000,0.000000,0.000000,0.000000,1769694544.604793,0.000000
222.000000,10015.727283,13790.579294,-1573.249885,-3891.483413,-2597.920906,-17074.184665,-4777.305398,-3393.195974,15497.112631,10705.144489,-13951.847130,6554.067916,16270.415934,-6114.587917,-9649.002212,4951.090211,0.006000,-0.012000,1.006000,192.000000,0.000000,0.000000,0.000000,0.000000,0.000000,0.000000,0.000000,0.000000,0.000000,1769694544.604810,0.000000
224.000000,10084.369491,13860.070868,-1508.496882,-3820.203700,-2527.579966,-16997.674644,-4714.631106,-3326.654831,15477.532503,10680.132887,-13975.338814,6532.207910,16258.681269,-6129.764751,-9665.877779,4939.243786,0.004000,-0.010000,1.010000,192.000000,0.000000,16.000000,127.500000,88.000000,15.500000,72.000000,0.000000,0.000000,0.000000,1769694544.604827,0.000000
226.000000,10063.180037,13840.088408,-1530.558053,-3839.202683,-2533.592586,-16998.836934,-4736.692278,-3352.471096,15546.219414,10760.196836,-13905.064929,6597.452652,16324.618915,-6050.818390,-9585.612665,5012.043418,0.004000,-0.010000,1.010000,192.000000,0.000000,0.000000,0.000000,0.000000,0.000000,0.000000,0.000000,0.000000,0.000000,1769694544.604844,0.000000
228.000000,10020.175281,13798.894143,-1569.204219,-3874.049052,-2572.931656,-17039.472406,-4772.030386,-3393.687712,15462.869759,10674.656710,-13997.645855,6516.718151,16255.462617,-6132.692830,-9665.453096,4959.293301,0.004000,-0.010000,1.010000,192.000000,0.000000,0.000000,0.000000,0.000000,0.000000,0.000000,0.000000,0.000000,0.000000,1769694544.604860,0.000000
230.000000,10092.617284,13874.398336,-1502.484262,-3805.250383,-2517.074647,-16975.367603,-4703.298772,-3324.687877,15503.460527,10723.718789,-13949.701363,6565.623768,16277.434382,-6087.028216,-9616.905107,4999.772310,0.004000,-0.010000,1.010000,192.000000,0.000000,0.000000,0.000000,0.000000,0.000000,0.000000,0.000000,0.000000,0.000000,1769694544.604876,0.000000
232.000000,10020.599964,13793.440317,-1577.720234,-3884.129689,-2596.848023,-17061.041839,-4777.931247,-3399.454462,15500.733614,10706.172670,-13952.763552,6556.951291,16246.723085,-6102.205050,-9630.025581,5007.126034,0.004000,-0.010000,1.010000,192.000000,0.000000,0.000000,0.000000,0.000000,0.000000,0.000000,0.000000,0.000000,0.000000,1769694544.604891,0.000000
234.000000,10087.610494,13867.715164,-1522.757295,-3821.053066,-2551.541037,-16989.560960,-4717.402723,-3334.120313,15461.148675,10664.911349,-13993.711948,6520.517948,16201.505506,-6143.399315,-9679.512343,4971.430298,0.008000,-0.012000,1.014000,192.000000,0.000000,32.000000,127.500000,80.000000,15.500000,88.000000,0.000000,0.000000,0.000000,1769694544.604906,0.000000
236.000000,10074.087688,13852.605385,-1543.589120,-3845.215302,-2566.404947,-17014.371397,-4738.301604,-3355.734450,15529.969696,10739.879100,-13917.157223,6594.010484,16264.895053,-6068.476268,-9604.052854,5040.161912,0.008000,-0.012000,1.014000,192.000000,0.000000,0.000000,0.000000,0.000000,0.000000,0.000000,0.000000,0.000000,0.000000,1769694544.604922,0.000000
238.000000,10046.483284,13821.245887,-1580.536554,-3886.633085,-2603.374732,-17046.557909,-4777.372453,-3394.827651,15454.934890,10648.169893,-14004.664302,6506.950439,16191.670739,-6164.901693,-9690.710567,4975.274798,0.008000,-0.012000,1.014000,192.000000,0.000000,0.000000,0.000000,0.000000,0.000000,0.000000,0.000000,0.000000,0.000000,1769694544.604937,0.000000
240.000000,10137.968974,13912.016322,-1499.287963,-3811.173595,-2521.701458,-16958.670850,-4699.208403,-3318.697610,15522.258344,10716.432120,-13935.776226,6566.249617,16251.528710,-6101.400387,-9624.683514,5019.710066,0.008000,-0.012000,1.014000,192.000000,0.000000,0.000000,0.000000,0.000000,0.000000,0.000000,0.000000,0.000000,0.000000,1769694544.604951,0.000000
242.000000,10071.427831,13840.133111,-1580.223630,-3896.423149,-2590.522479,-17039.047723,-4786.290799,-3402.471948,15508.534373,10690.057062,-13955.870444,6540.075724,16237.983553,-6123.863891,-9642.006116,5005.270839,0.008000,-0.012000,1.014000,192.000000,0.000000,0.000000,0.000000,0.000000,0.000000,0.000000,0.000000,0.000000,0.000000,1769694544.604972,0.000000
244.000000,10150.932986,13922.164014,-1518.063428,-3831.960718,-2526.551786,-16967.879768,-4727.215138,-3332.533340,15498.230219,10671.795687,-13978.512761,6524.295393,16220.929172,-6149.657804,-9667.911788,4976.034758,0.004000,-0.010000,1.016000,192.000000,0.000000,16.000000,127.500000,88.000000,15.500000,96.000000,0.000000,0.000000,0.000000,1769694544.604989,0.000000
246.000000,10150.396544,13920.331171,-1523.450199,-3839.001517,-2531.379763,-16981.939016,-4733.294813,-3339.238863,15576.751897,10755.033583,-13894.358444,6601.386559,16292.007720,-6066.598721,-9589.881848,5038.418476,0.004000,-0.010000,1.016000,192.000000,0.000000,0.000000,0.000000,0.000000,0.000000,0.000000,0.000000,0.000000,0.000000,1769694544.605006,0.000000
248.000000,10130.503491,13900.773394,-1553.312129,-3871.031567,-2564.706214,-17023.177984,-4766.129525,-3365.658625,15509.070815,10680.132887,-13971.293148,6531.269137,16225.980666,-6146.796780,-9666.257759,4973.441955,0.004000,-0.010000,1.016000,192.000000,0.000000,0.000000,0.000000,0.000000,0.000000,0.000000,0.000000,0.000000,0.000000,1769694544.605023,0.000000
250.000000,10204.778338,13980.569122,-1480.914829,-3800.712979,-2502.322495,-16963.096495,-4694.559240,-3293.261325,15573.108563,10754.653603,-13901.041615,6599.061978,16278.328452,-6084.815393,-9600.945962,5012.624563,0.004000,-0.010000,1.016000,192.000000,0.000000,0.000000,0.000000,0.000000,0.000000,0.000000,0.000000,0.000000,0.000000,1769694544.605039,0.000000
252.000000,10120.579317,13893.419670,-1564.353891,-3889.024721,-2581.045339,-17058.918424,-4775.941941,-3380.030797,15549.572176,10728.189138,-13924.578002,6574.162134,16252.355725,-6110.497547,-9618.067398,4997.760653,0.004000,-0.010000,1.016000,192.000000,0.000000,0.000000,0.000000,0.000000,0.000000,0.000000,0.000000,0.000000,0.000000,1769694544.605056,0.000000
254.000000,10180.169067,13954.417581,-1514.956536,-3833.480636,-2539.158170,-17005.922437,-4722.230699,-3323.145607,15507.014454,10682.055137,-13968.745049,6537.125294,16204.634750,-6156.408031,-9661.519189,4957.236941,0.004000,-0.016000,1.006000,192.000000,0.000000,16.000000,127.500000,64.000000,15.500000,56.000000,0.000000,0.000000,0.000000,1769694544.605073,0.000000
0.000000,10160.320718,13932.222299,-1537.218873,-3850.378555,-2560.504086,-17028.274182,-4740.983813,-3343.753915,15576.394269,10757.961662,-13894.224333,6606.885088,16266.012641,-6085.128317,-9593.189906,5023.509863,0.004000,-0.016000,1.006000,192.000000,0.000000,0.000000,0.000000,0.000000,0.000000,0.000000,0.000000,0.000000,0.000000,1769694544.605090,0.000000
2.000000,10139.466541,13910.451700,-1567.036100,-3872.618541,-2587.080310,-17052.302307,-4768.342348,-3367.580875,15502.767623,10677.853009,-13975.160000,6533.772532,16190.642558,-6165.102859,-9678.908846,4966.490563,0.004000,-0.016000,1.006000,192.000000,0.000000,0.000000,0.000000,0.000000,0.000000,0.000000,0.000000,0.000000,0.000000,1769694544.605107,0.000000
4.000000,10209.025169,13986.134706,-1500.114977,-3798.433101,-2526.775304,-16977.848646,-4699.566030,-3297.821080,15560.166903,10745.914071,-13909.892906,6598.369074,16255.574376,-6101.512146,-9618.693247,5016.781988,0.004000,-0.016000,1.006000,192.000000,0.000000,0.000000,0.000000,0.000000,0.000000,0.000000,0.000000,0.000000,0.000000,1769694544.605125,0.000000
6.000000,10141.858177,13912.932743,-1572.512278,-3872.439727,-2592.802357,-17048.748380,-4773.639712,-3374.375805,15541.346734,10724.992839,-13929.853014,6575.614998,16221.487966,-6116.465463,-9642.184930,5016.804340,0.004000,-0.016000,1.006000,192.000000,0.000000,0.000000,0.000000,0.000000,0.000000,0.000000,0.000000,0.000000,0.000000,1769694544.605142,0.000000
8.000000,10194.608294,13967.605110,-1525.864187,-3827.780941,-2542.287414,-16998.613417,-4725.806978,-3327.213624,15517.944457,10695.287370,-13962.844189,6547.138875,16198.644483,-6145.768600,-9671.845695,4992.530345,0.004000,-0.010000,1.010000,192.000000,0.000000,16.000000,127.500000,88.000000,15.500000,72.000000,0.000000,0.000000,0.000000,1769694544.605159,0.000000
10.000000,10176.369271,13948.293203,-1541.689222,-3849.596244,-2553.284473,-17023.826185,-4743.084877,-3344.469171,15580.194066,10757.335813,-13896.884191,6607.846213,16261.542292,-6088.592838,-9605.192793,5033.903424,0.004000,-0.010000,1.010000,192.000000,0.000000,0.000000,0.000000,0.000000,0.000000,0.000000,0.000000,0.000000,0.000000,1769694544.605176,0.000000
12.000000,10159.560759,13925.047389,-1559.727080,-3881.134555,-2565.399118,-17056.996174,-4768.431755,-3365.859791,15516.290428,10683.820925,-13968.588587,6539.539282,16202.533686,-6167.718013,-9676.584265,4961.707289,0.004000,-0.010000,1.010000,192.000000,0.000000,0.000000,0.000000,0.000000,0.000000,0.000000,0.000000,0.000000,0.000000,1769694544.605193,0.000000
14.000000,10231.779245,14000.819802,-1491.174280,-3814.459302,-2499.148548,-16990.879713,-4701.667094,-3297.128176,15584.284435,10752.574891,-13899.409938,6603.420568,16273.746344,-6094.493698,-9609.640790,4990.853964,0.004000,-0.010000,1.010000,192.000000,0.000000,0.000000,0.000000,0.000000,0.000000,0.000000,0.000000,0.000000,0.000000,1769694544.605210,0.000000
16.000000,10158.465524,13925.248554,-1565.605589,-3888.756500,-2579.033682,-17066.674479,-4774.734947,-3370.866581,15557.819969,10726.892737,-13926.164976,6579.481850,16244.353800,-6118.320658,-9635.077075,4967.183467,0.004000,-0.010000,1.010000,192.000000,0.000000,0.000000,0.000000,0.000000,0.000000,0.000000,0.000000,0.000000,0.000000,1769694544.605227,0.000000
18.000000,10222.659734,13991.566180,-1503.825367,-3820.203700,-2524.808350,-17008.247019,-4712.217118,-3305.264211,15541.346734,10714.018132,-13942.995839,6569.356509,16229.936925,-6137.341993,-9655.975956,4953.280682,0.004000,-0.010000,1.010000,192.000000,0.000000,0.000000,127.500000,96.000000,15.500000,64.000000,0.000000,0.000000,0.000000,1769694544.605246,0.000000
20.000000,10206.924106,13975.629386,-1525.595966,-3839.582663,-2539.180522,-17028.229478,-4733.227758,-3324.687877,15604.333950,10784.292017,-13872.945472,6633.304850,16281.077716,-6068.923303,-9584.763299,5014.099778,0.004000,-0.010000,1.010000,192.000000,0.000000,0.000000,0.000000,0.000000,0.000000,0.000000,0.000000,0.000000,0.000000,1769694544.605264,0.000000
22.000000,10179.856143,13947.421485,-1558.385975,-3868.841096,-2563.588627,-17061.086543,-4764.073165,-3353.678090,15528.628591,10701.210582,-13957.278604,6552.168018,16203.830088,-6152.228254,-9672.046861,4950.732583,0.004000,-0.010000,1.010000,192.000000,0.000000,0.000000,0.000000,0.000000,0.000000,0.000000,0.000000,0.000000,0.000000,1769694544.605296,0.000000
24.000000,10242.418676,14017.605962,-1494.907021,-3801.852918,-2508.960963,-16989.963292,-4699.186051,-3292.344903,15583.166848,10764.980109,-13896.683025,6612.137748,16252.512187,-6092.862021,-9613.619401,5005.181432,0.004000,-0.010000,1.010000,192.000000,0.000000,0.000000,0.000000,0.000000,0.000000,0.000000,0.000000,0.000000,0.000000,1769694544.605314,0.000000
26.000000,10165.171047,13936.491482,-1564.532705,-3875.948951,-2583.749900,-17060.192473,-4771.538648,-3370.106622,15564.793714,10735.945193,-13919.437101,6588.623713,16237.692980,-6111.369265,-9632.931308,5006.209613,0.004000,-0.010000,1.010000,192.000000,0.000000,0.000000,0.000000,0.000000,0.000000,0.000000,0.000000,0.000000,0.000000,1769694544.605331,0.000000
28.000000,10212.601449,13983.363090,-1521.662059,-3829.502026,-2546.914225,-17007.576467,-4726.254013,-3322.832682,15527.600411,10699.020111,-13959.938462,6554.716117,16205.662931,-6155.022222,-9667.665919,4981.667397,0.004000,-0.009000,1.011000,192.000000,0.000000,16.000000,127.500000,96.000000,15.500000,80.000000,0.000000,0.000000,0.000000,1769694544.605350,0.000000
30.000000,10199.793899,13966.979261,-1535.184864,-3846.779924,-2549.574083,-17009.051682,-4741.877883,-3340.870540,15594.409775,10765.471848,-13890.201019,6611.958934,16271.913501,-6078.378091,-9596.453261,5042.888825,0.004000,-0.009000,1.011000,192.000000,0.000000,0.000000,0.000000,0.000000,0.000000,0.000000,0.000000,0.000000,0.000000,1769694544.605368,0.000000
32.000000,10173.240027,13938.346677,-1561.515219,-3880.285189,-2572.484621,-17051.385886,-4772.835049,-3369.547828,15520.492556,10681.764565,-13973.751840,6527.759913,16201.907838,-6163.314720,-9674.796125,4973.486659,0.004000,-0.009000,1.011000,192.000000,0.000000,0.000000,0.000000,0.000000,0.000000,0.000000,0.000000,0.000000,0.000000,1769694544.605384,0.000000
34.000000,10258.221359,14026.457253,-1479.909000,-3809.050180,-2489.917277,-16980.732021,-4695.498013,-3283.918295,15592.085194,10756.017060,-13898.001778,6596.491527,16276.160333,-6099.276972,-9605.528069,5008.444787,0.004000,-0.009000,1.011000,192.000000,0.000000,0.000000,0.000000,0.000000,0.000000,0.000000,0.000000,0.000000,0.000000,1769694544.605398,0.000000
36.000000,10173.552951,13937.094979,-1564.979740,-3890.969323,-2567.857810,-17076.375136,-4779.160592,-3368.631407,15581.177542,10745.131760,-13909.334112,6585.874449,16273.634586,-6099.545193,-9620.570793,4984.908400,0.004000,-0.009000,1.011000,192.000000,0.000000,0.000000,0.000000,0.000000,0.000000,0.000000,0.000000,0.000000,0.000000,1769694544.605414,0.000000
38.000000,10250.733525,14019.505861,-1494.839966,-3816.917994,-2503.685952,-17008.716405,-4710.384275,-3292.411958,15553.036696,10717.549708,-13943.174653,6563.254483,16234.876661,-6140.918272,-9658.881683,4941.769533,0.004000,-0.009500,1.009500,192.000000,0.000000,16.000000,127.500000,88.000000,15.500000,64.000000,0.000000,0.000000,0.000000,1769694544.605429,0.000000
40.000000,10239.267080,14007.324160,-1508.675695,-3831.960718,-2518.460455,-17024.653199,-4725.292888,-3305.465377,15629.993752,10800.407624,-13858.796818,6643.072563,16308.927990,-6058.082707,-9584.919761,5001.739264,0.004000,-0.009500,1.009500,192.000000,0.000000,0.000000,0.000000,0.000000,0.000000,0.000000,0.000000,0.000000,0.000000,1769694544.605446,0.000000
42.000000,10205.158318,13974.578854,-1539.498751,-3865.443631,-2547.540074,-17054.783351,-4755.780668,-3338.031869,15563.050278,10725.015190,-13935.373895,6571.748146,16240.241079,-6120.958164,-9660.066326,4944.228225,0.004000,-0.009500,1.009500,192.000000,0.000000,0.000000,0.000000,0.000000,0.000000,0.000000,0.000000,0.000000,0.000000,1769694544.605463,0.000000
44.000000,10271.878275,14046.931451,-1475.349245,-3789.782976,-2487.436233,-16993.003129,-4688.568972,-3271.110746,15616.694464,10785.521362,-13878.958092,6628.521577,16294.846391,-6087.050568,-9604.164613,4990.429281,0.004000,-0.009500,1.009500,192.000000,0.000000,0.000000,0.000000,0.000000,0.000000,0.000000,0.000000,0.000000,0.000000,1769694544.605480,0.000000
46.000000,10194.451832,13967.471000,-1555.815525,-3866.538866,-2563.141592,-17065.243967,-4764.855476,-3349.811238,15596.041452,10766.052993,-13897.711205,6612.048341,16270.214769,-6100.886297,-9624.996439,4988.551735,0.004000,-0.009500,1.009500,192.000000,0.000000,0.000000,0.000000,0.000000,0.000000,0.000000,0.000000,0.000000,0.000000,1769694544.605497,0.000000
48.000000,10248.073667,14027.843061,-1503.087759,-3801.987028,-2516.851129,-17001.362682,-4705.064560,-3290.333246,15558.512873,10736.951022,-13938.749008,6584.354530,16230.272201,-6130.480007,-9667.285939,4964.098926,0.004000,-0.009500,1.009500,192.000000,0.000000,0.000000,127.500000,88.000000,15.500000,64.000000,0.000000,0.000000,0.000000,1769694544.605514,0.000000
50.000000,10218.032923,13998.562276,-1527.629975,-3826.708058,-2539.962833,-17018.685284,-4729.673830,-3319.457569,15621.120110,10801.994598,-13868.542179,6646.872359,16290.286635,-6055.802829,-9595.000398,5032.249395,0.004000,-0.009500,1.009500,192.000000,0.000000,0.000000,0.000000,0.000000,0.000000,0.000000,0.000000,0.000000,0.000000,1769694544.605534,0.000000
52.000000,10182.985387,13961.391325,-1558.542437,-3855.564160,-2569.757708,-17043.875700,-4762.352081,-3358.841343,15537.234013,10716.029789,-13957.368011,6560.728736,16207.048739,-6137.520806,-9671.868047,4981.354473,0.004000,-0.009500,1.009500,192.000000,0.000000,0.000000,0.000000,0.000000,0.000000,0.000000,0.000000,0.000000,0.000000,1769694544.605551,0.000000
54.000000,10245.346754,14025.563183,-1491.174280,-3789.760624,-2499.908507,-16966.449257,-4696.257972,-3295.697665,15582.540999,10773.160848,-13906.674255,6606.236888,16258.904786,-6081.082652,-9612.099482,5031.042401,0.004000,-0.009500,1.009500,192.000000,0.000000,0.000000,0.000000,0.000000,0.000000,0.000000,0.000000,0.000000,0.000000,1769694544.605568,0.000000
56.000000,10172.882399,13947.935575,-1561.001129,-3872.775003,-2565.063842,-17042.378133,-4770.264598,-3370.374843,15567.520626,10750.384420,-13920.130005,6583.192239,16236.061303,-6094.069015,-9622.470691,5027.399066,0.004000,-0.009500,1.009500,192.000000,0.000000,0.000000,0.000000,0.000000,0.000000,0.000000,0.000000,0.000000,0.000000,1769694544.605585,0.000000
58.000000,10235.132007,14011.682750,-1505.255879,-3822.461226,-2520.114484,-16984.911798,-4713.155891,-3305.912412,15540.095036,10724.255231,-13947.645002,6564.729698,16213.217820,-6124.377981,-9655.819494,4976.861772,0.003000,-0.009750,1.004750,192.000000,0.000000,8.000000,127.500000,88.000000,15.500000,32.000000,0.000000,0.000000,0.000000,1769694545.085331,0.000000
60.000000,10220.446911,13993.823706,-1518.219890,-3832.295994,-2533.570234,-17015.198411,-4724.801150,-3319.010534,15611.888839,10801.324046,-13868.944510,6635.428266,16284.721051,-6059.490867,-9587.601970,5016.379656,0.003000,-0.009750,1.004750,192.000000,0.000000,0.000000,0.000000,0.000000,0.000000,0.000000,0.000000,0.000000,0.000000,1769694545.085397,0.000000
62.000000,10183.365367,13955.490465,-1554.407365,-3866.225942,-2575.077423,-17058.873720,-4762.977929,-3354.572160,15542.352562,10711.760606,-13950.461322,6554.470248,16213.620152,-6132.692830,-9669.521114,4948.899740,0.003000,-0.009750,1.004750,192.000000,0.000000,0.000000,0.000000,0.000000,0.000000,0.000000,0.000000,0.000000,0.000000,1769694545.085444,0.000000
64.000000,10269.173714,14045.769160,-1470.610675,-3783.144508,-2493.962943,-16976.261673,-4681.215248,-3265.768679,15595.750880,10776.647720,-13889.888095,6611.690713,16262.346955,-6075.628826,-9613.462938,4986.405967,0.003000,-0.009750,1.004750,192.000000,0.000000,0.000000,0.000000,0.000000,0.000000,0.000000,0.000000,0.000000,0.000000,1769694545.085488,0.000000
66.000000,10192.104899,13966.576930,-1550.115830,-3863.744898,-2561.062880,-17061.645336,-4759.714575,-3342.166941,15594.655644,10772.669109,-13889.083432,6612.674190,16268.493684,-6082.803736,-9613.462938,4992.955028,0.003000,-0.009750,1.004750,192.000000,0.000000,0.000000,0.000000,0.000000,0.000000,0.000000,0.000000,0.000000,0.000000,1769694545.085538,0.000000
68.000000,10249.682993,14027.016047,-1498.595059,-3811.531223,-2513.945402,-17003.463746,-4710.227813,-3289.081548,15562.245615,10737.263946,-13926.366142,6584.823917,16235.658972,-6113.760902,-9649.382192,4964.613016,0.006500,-0.004875,1.004375,192.000000,0.000000,40.000000,0.000000,0.000000,15.500000,48.000000,0.000000,0.000000,0.000000,1769694545.085590,0.000000
70.000000,10237.635402,14012.554468,-1509.793283,-3818.214395,-2526.596490,-17011.644484,-4720.151987,-3300.749159,15626.261011,10805.079139,-13858.573301,6648.481685,16292.097126,-6053.746468,-9590.239476,5019.978287,0.006500,-0.004875,1.004375,192.000000,0.000000,0.000000,0.000000,0.000000,0.000000,0.000000,0.000000,0.000000,0.000000,1769694545.085629,0.000000
72.000000,10199.637437,13974.914131,-1546.092516,-3855.497105,-2566.449650,-17055.096275,-4756.071240,-3337.786000,15559.071667,10731.184272,-13932.669334,6576.911399,16233.580260,-6137.207882,-9669.051727,4972.860810,0.006500,-0.004875,1.004375,192.000000,0.000000,0.000000,0.000000,0.000000,0.000000,0.000000,0.000000,0.000000,0.000000,1769694545.085645,0.000000
74.000000,10270.157191,14047.132617,-1475.103375,-3782.920990,-2498.477995,-16975.322899,-4683.338664,-3262.840600,15607.485546,10782.280360,-13877.237007,6624.319449,16274.528655,-6086.134146,-9619.050875,5014.189185,0.006500,-0.004875,1.004375,192.000000,0.000000,0.000000,0.000000,0.000000,0.000000,0.000000,0.000000,0.000000,0.000000,1769694545.085660,0.000000
76.000000,10190.137945,13962.084229,-1548.417097,-3862.336738,-2568.774232,-17050.044781,-4759.848685,-3344.804447,15595.169734,10767.818781,-13890.245723,6606.885088,16260.447056,-6095.968914,-9624.996439,5018.033685,0.006500,-0.004875,1.004375,192.000000,0.000000,0.000000,0.000000,0.000000,0.000000,0.000000,0.000000,0.000000,0.000000,1769694545.085676,0.000000
78.000000,10234.953193,14009.514631,-1504.428864,-3815.867462,-2524.450722,-16996.534705,-4717.402723,-3300.816214,15554.355449,10727.138606,-13935.955040,6565.400251,16224.907783,-6137.744324,-9658.367593,4988.596438,0.007250,-0.003438,1.005187,192.000000,0.000000,32.000000,127.500000,120.000000,15.500000,56.000000,0.000000,0.000000,0.000000,1769694545.085688,0.000000
80.000000,10217.988219,13990.292131,-1513.101341,-3829.032639,-2523.735466,-16986.834048,-4730.232624,-3317.557671,15620.360150,10796.496069,-13865.748211,6625.995830,16290.420746,-6052.315957,-9580.538819,5055.919892,0.007250,-0.003438,1.005187,192.000000,0.000000,0.000000,0.000000,0.000000,0.000000,0.000000,0.000000,0.000000,0.000000,1769694545.085700,0.000000
82.000000,10190.272056,13959.513779,-1542.762106,-3860.705061,-2552.748031,-17015.645446,-4762.106211,-3347.933691,15545.817083,10720.120158,-13949.120217,6548.792904,16223.834899,-6128.960088,-9655.193645,4996.441900,0.007250,-0.003438,1.005187,192.000000,0.000000,0.000000,0.000000,0.000000,0.000000,0.000000,0.000000,0.000000,0.000000,1769694545.085720,0.000000
84.000000,10257.997842,14029.430035,-1475.013968,-3795.639133,-2491.548954,-16957.575614,-4694.313371,-3276.743385,15605.205668,10788.985883,-13883.763717,6612.942411,16280.116591,-6073.505410,-9596.877944,5032.249395,0.007250,-0.003438,1.005187,192.000000,0.000000,0.000000,0.000000,0.000000,0.000000,0.000000,0.000000,0.000000,0.000000,1769694545.085731,0.000000
86.000000,10179.051480,13951.265985,-1546.964234,-3867.432936,-2563.163944,-17045.328563,-4762.910874,-3349.028927,15585.714946,10764.913054,-13903.209734,6592.334103,16264.179798,-6086.424719,-9615.005209,5006.835461,0.007250,-0.003438,1.005187,192.000000,0.000000,0.000000,0.000000,0.000000,0.000000,0.000000,0.000000,0.000000,0.000000,1769694545.085743,0.000000
88.000000,10232.807426,14007.346512,-1497.790396,-3807.574964,-2522.617879,-16994.858324,-4707.970286,-3293.060159,15552.455551,10735.006420,-13937.162034,6564.886160,16231.121568,-6110.922231,-9652.220863,4966.915246,0.007250,-0.003438,1.005187,192.000000,0.000000,0.000000,0.000000,0.000000,0.000000,0.000000,0.000000,0.000000,0.000000,1769694545.085754,0.000000
90.000000,10219.038751,13995.097756,-1506.976963,-3812.090017,-2532.385592,-17012.605609,-4714.988734,-3300.436235,15624.316409,10817.685523,-13854.997022,6641.820865,16300.322568,-6033.048753,-9578.549514,5025.722686,0.010000,-0.004000,1.014000,192.000000,0.000000,40.000000,127.500000,112.000000,15.500000,88.000000,0.000000,0.000000,0.000000,1769694545.085766,0.000000
92.000000,10173.061213,13946.840340,-1552.999205,-3855.117125,-2581.850002,-17057.242043,-4759.356947,-3345.072668,15541.749065,10732.212452,-13944.627517,6562.002785,16212.569620,-6119.773521,-9671.421012,4955.001766,0.010000,-0.004000,1.014000,192.000000,0.000000,0.000000,0.000000,0.000000,0.000000,0.000000,0.000000,0.000000,0.000000,1769694545.085777,0.000000
94.000000,10244.787961,14025.272611,-1476.757404,-3773.890886,-2505.183519,-16977.669832,-4683.428071,-3270.171973,15591.884028,10787.600075,-13891.273903,6613.992943,16261.788161,-6061.658986,-9619.229689,4996.128976,0.010000,-0.004000,1.014000,192.000000,0.000000,0.000000,0.000000,0.000000,0.000000,0.000000,0.000000,0.000000,0.000000,1769694545.085789,0.000000
96.000000,10159.806628,13930.791787,-1549.959368,-3852.837247,-2572.685787,-17045.194452,-4758.753450,-3353.007537,15588.263045,10774.434897,-13898.493516,6603.420568,16261.430533,-6074.891219,-9619.430854,5009.562374,0.010000,-0.004000,1.014000,192.000000,0.000000,0.000000,0.000000,0.000000,0.000000,0.000000,0.000000,0.000000,0.000000,1769694545.085801,0.000000
98.000000,10190.205001,13960.184331,-1512.497844,-3819.734313,-2541.080420,-17006.145955,-4722.118941,-3317.870595,15536.719923,10714.867498,-13951.288337,6551.206893,16216.615285,-6130.658821,-9663.374384,4971.832630,0.010000,-0.004000,1.014000,192.000000,0.000000,0.000000,0.000000,0.000000,0.000000,0.000000,0.000000,0.000000,0.000000,1769694545.085813,0.000000
100.000000,10166.601559,13935.060970,-1522.913757,-3830.038468,-2549.149400,-17013.142051,-4731.372563,-3335.126142,15592.196952,10770.612749,-13886.915313,6603.778196,16274.975690,-6065.101154,-9593.011092,5035.155122,0.010000,-0.014000,1.006000,192.000000,0.000000,40.000000,127.500000,72.000000,15.500000,56.000000,0.000000,0.000000,0.000000,1769694545.085824,0.000000
102.000000,10131.129340,13896.459508,-1560.710557,-3866.628273,-2569.087156,-17039.852386,-4769.459935,-3377.214477,15518.860879,10686.212562,-13972.723660,6518.752160,16204.254771,-6145.925062,-9668.023547,4985.087214,0.010000,-0.014000,1.006000,192.000000,0.000000,0.000000,0.000000,0.000000,0.000000,0.000000,0.000000,0.000000,0.000000,1769694545.085836,0.000000
104.000000,10212.936725,13980.256197,-1486.636875,-3788.866554,-2492.800652,-16954.446370,-4695.453309,-3295.518851,15581.222246,10749.088019,-13911.010493,6581.784079,16268.516036,-6081.775556,-9608.836127,5037.122075,0.010000,-0.014000,1.006000,192.000000,0.000000,0.000000,0.000000,0.000000,0.000000,0.000000,0.000000,0.000000,0.000000,1769694545.085848,0.000000
106.000000,10140.137093,13904.170859,-1554.340309,-3862.068517,-2555.854923,-17027.961257,-4764.766069,-3363.356395,15583.502124,10748.775095,-13908.887077,6581.113527,16276.205036,-6082.423756,-9615.519299,5042.061811,0.010000,-0.014000,1.006000,192.000000,0.000000,0.000000,0.000000,0.000000,0.000000,0.000000,0.000000,0.000000,0.000000,1769694545.085859,0.000000
108.000000,10184.259437,13953.232938,-1502.797187,-3809.050180,-2515.241804,-16972.841856,-4716.039266,-3314.137854,15537.971620,10707.267905,-13953.054124,6538.891082,16236.843614,-6123.841539,-9660.781581,4996.196031,0.010000,-0.014000,1.006000,192.000000,0.000000,0.000000,0.000000,0.000000,0.000000,0.000000,0.000000,0.000000,0.000000,1769694545.085871,0.000000
110.000000,10160.723050,13924.756816,-1513.682486,-3820.360162,-2526.127103,-16983.436582,-4727.550415,-3331.415752,15603.216362,10777.564141,-13880.880342,6604.649914,16300.188458,-6046.839779,-9579.197714,5057.171590,0.002000,-0.010000,1.016000,192.000000,0.000000,8.000000,127.500000,88.000000,15.500000,96.000000,0.000000,0.000000,0.000000,1769694545.085883,0.000000
112.000000,10120.713427,13887.183534,-1549.579388,-3852.770192,-2559.565313,-17030.509356,-4759.714575,-3362.864657,15528.919164,10699.936533,-13956.764514,6534.420733,16221.577373,-6119.058266,-9643.526035,5004.957915,0.002000,-0.010000,1.016000,192.000000,0.000000,0.000000,0.000000,0.000000,0.000000,0.000000,0.000000,0.000000,0.000000,1769694545.085895,0.000000
114.000000,10181.085489,13953.657622,-1488.223849,-3790.587639,-2502.121330,-16962.940033,-4695.453309,-3297.329342,15566.537150,10749.915034,-13911.815156,6582.633446,16262.682231,-6069.906780,-9593.994569,5034.350459,0.002000,-0.010000,1.016000,192.000000,0.000000,0.000000,0.000000,0.000000,0.000000,0.000000,0.000000,0.000000,0.000000,1769694545.085908,0.000000
116.000000,10110.029293,13876.834676,-1558.922417,-3865.890666,-2586.074482,-17050.916499,-4761.949749,-3363.557561,15548.633402,10732.435969,-13926.477900,6565.891989,16239.838748,-6092.504393,-9617.955639,5016.402008,0.002000,-0.010000,1.016000,192.000000,0.000000,0.000000,0.000000,0.000000,0.000000,0.000000,0.000000,0.000000,0.000000,1769694545.085919,0.000000
118.000000,10165.528675,13935.530357,-1509.927393,-3816.068627,-2543.472057,-17015.064301,-4710.831310,-3306.851185,15524.605277,10702.775205,-13951.400095,6545.976585,16215.050663,-6130.234138,-9667.375346,4970.849153,0.002000,-0.010000,1.016000,192.000000,0.000000,0.000000,0.000000,0.000000,0.000000,0.000000,0.000000,0.000000,0.000000,1769694545.085931,0.000000
120.000000,10150.843579,13917.939534,-1513.660135,-3821.991840,-2548.009461,-17022.909763,-4716.620411,-3319.479921,15602.143479,10775.284264,-13872.163161,6616.965725,16291.672443,-6057.322747,-9596.386206,5028.650764,0.002000,-0.008000,1.010000,192.000000,0.000000,8.000000,127.500000,96.000000,15.500000,72.000000,0.000000,0.000000,0.000000,1769694545.085943,0.000000
122.000000,10123.932078,13888.614045,-1539.454048,-3845.639985,-2568.148383,-17042.400484,-4745.297700,-3348.805410,15534.484748,10698.550725,-13953.210587,6541.327422,16229.735759,-6125.383809,-9670.571646,4976.839420,0.002000,-0.008000,1.010000,192.000000,0.000000,0.000000,0.000000,0.000000,0.000000,0.000000,0.000000,0.000000,0.000000,1769694545.085954,0.000000
124.000000,10181.890152,13944.761627,-1483.798204,-3791.012322,-2504.691780,-16966.896292,-4694.715702,-3294.960057,15585.916112,10746.182292,-13901.063967,6584.980379,16280.563626,-6075.382957,-9609.596087,5024.694505,0.002000,-0.008000,1.010000,192.000000,0.000000,0.000000,0.000000,0.000000,0.000000,0.000000,0.000000,0.000000,0.000000,1769694545.085966,0.000000
126.000000,10096.662950,13857.299251,-1558.564789,-3868.438765,-2563.454516,-17033.504490,-4769.929322,-3381.662474,15563.072629,10722.735312,-13927.237860,6554.984338,16264.313908,-6094.985437,-9616.882755,5028.404895,0.002000,-0.008000,1.010000,192.000000,0.000000,0.000000,0.000000,0.000000,0.000000,0.000000,0.000000,0.000000,0.000000,1769694545.085977,0.000000
128.000000,10146.172064,13906.495441,-1511.313201,-3823.534110,-2514.370086,-16984.643577,-4721.314278,-3333.047430,15517.832699,10674.880227,-13975.003538,6513.410093,16222.873774,-6138.548987,-9649.069267,4996.352493,0.002000,-0.008000,1.010000,192.000000,0.000000,0.000000,0.000000,0.000000,0.000000,0.000000,0.000000,0.000000,0.000000,1769694545.085989,0.000000
130.000000,10134.124474,13895.654845,-1516.722324,-3833.279471,-2522.126141,-17006.302417,-4722.320106,-3338.523607,15596.533191,10755.190045,-13889.686929,6590.322446,16302.870667,-6063.871809,-9570.324072,5054.154104,0.002000,-0.008000,1.010000,192.000000,0.000000,0.000000,127.500000,104.000000,15.500000,80.000000,0.000000,0.000000,0.000000,1769694545.086000,0.000000
132.000000,10095.075976,13854.371173,-1561.202295,-3880.508707,-2570.562371,-17073.871741,-4765.324863,-3379.449651,15518.167975,10664.553721,-13973.796543,6510.683180,16226.897088,-6149.143714,-9658.322890,4971.475002,0.002000,-0.008000,1.010000,192.000000,0.000000,0.000000,0.000000,0.000000,0.000000,0.000000,0.000000,0.000000,0.000000,1769694545.086012,0.000000
134.000000,10160.767753,13926.388493,-1494.325876,-3807.083226,-2506.502271,-17009.901048,-4696.839118,-3306.784130,15561.910339,10717.482652,-13925.628534,6561.153419,16264.157446,-6105.535460,-9619.676723,4983.500240,0.002000,-0.008000,1.010000,192.000000,0.000000,0.000000,0.000000,0.000000,0.000000,0.000000,0.000000,0.000000,0.000000,1769694545.086024,0.000000
136.000000,10096.975875,13861.210807,-1551.635748,-3867.879971,-2552.949196,-17063.187607,-4761.659177,-3369.793698,15558.110542,10719.270792,-13930.389456,6559.231169,16268.314870,-6110.028161,-9618.894412,4987.747072,0.002000,-0.008000,1.010000,192.000000,0.000000,0.000000,0.000000,0.000000,0.000000,0.000000,0.000000,0.000000,0.000000,1769694545.086035,0.000000
138.000000,10151.134151,13915.011455,-1501.389027,-3815.621592,-2515.331211,-17005.721272,-4713.960554,-3318.496444,15536.652867,10693.052196,-13957.636232,6536.678259,16247.058361,-6125.450864,-9643.079000,4965.462382,0.002000,-0.008000,1.010000,192.000000,0.000000,0.000000,0.000000,0.000000,0.000000,0.000000,0.000000,0.000000,0.000000,1769694545.086047,0.000000
140.000000,10139.891224,13906.227220,-1510.150911,-3813.609935,-2517.499330,-16996.445298,-4714.966382,-3324.799636,15596.689653,10761.023851,-13889.418708,6600.313675,16303.295350,-6052.673585,-9572.805115,5032.137636,0.004000,-0.004000,1.010000,192.000000,0.000000,16.000000,127.500000,112.000000,15.500000,72.000000,0.000000,0.000000,0.000000,1769694545.086059,0.000000
142.000000,10085.107098,13853.655917,-1567.505487,-3864.527209,-2575.949141,-17039.740627,-4767.068299,-3376.678035,15518.324437,10688.917123,-13973.349508,6529.279832,16218.179908,-6120.578184,-9654.344279,4983.299075,0.004000,-0.004000,1.010000,192.000000,0.000000,0.000000,0.000000,0.000000,0.000000,0.000000,0.000000,0.000000,0.000000,1769694545.086182,0.000000
144.000000,10160.186608,13929.987124,-1495.130538,-3789.850031,-2513.386609,-16968.058582,-4691.921734,-3302.917278,15552.030868,10730.469016,-13931.618802,6568.820068,16245.717257,-6084.368358,-9617.061569,5012.065770,0.004000,-0.004000,1.010000,192.000000,0.000000,0.000000,0.000000,0.000000,0.000000,0.000000,0.000000,0.000000,0.000000,1769694545.086199,0.000000
146.000000,10090.739738,13856.047554,-1556.284911,-3862.940235,-2576.083252,-17045.082694,-4755.825371,-3369.793698,15547.404056,10723.696437,-13934.882156,6561.108716,16243.727951,-6088.369320,-9623.029485,5012.512805,0.004000,-0.004000,1.010000,192.000000,0.000000,0.000000,0.000000,0.000000,0.000000,0.000000,0.000000,0.000000,0.000000,1769694545.086220,0.000000
148.000000,10147.334355,13916.196098,-1504.697085,-3811.933555,-2526.596490,-16997.361719,-4704.952801,-3314.182557,15518.212678,10694.661521,-13962.888892,6535.359506,16225.153652,-6120.935812,-9651.595015,4982.047377,0.004000,-0.004000,1.010000,192.000000,0.000000,0.000000,0.000000,0.000000,0.000000,0.000000,0.000000,0.000000,0.000000,1769694545.086237,0.000000
150.000000,10126.010791,13893.039691,-1522.958460,-3828.339735,-2545.617824,-17010.281028,-4726.969269,-3337.070744,15582.161019,10761.537941,-13895.811307,6599.553716,16276.585016,-6065.056451,-9585.925589,5039.290194,0.010000,-0.010000,1.012000,192.000000,0.000000,40.000000,127.500000,88.000000,15.500000,80.000000,0.000000,0.000000,0.000000,1769694545.086250,0.000000
152.000000,10082.380185,13846.659821,-1562.677510,-3866.538866,-2578.407833,-17054.224557,-4764.274331,-3376.879201,15501.113594,10674.902579,-13981.664357,6519.288602,16200.566733,-6136.559681,-9666.414221,4985.869525,0.010000,-0.010000,1.012000,192.000000,0.000000,0.000000,0.000000,0.000000,0.000000,0.000000,0.000000,0.000000,0.000000,1769694545.086263,0.000000
154.000000,10137.767808,13904.081452,-1500.003219,-3806.949116,-2511.531414,-16986.029385,-4700.303638,-3319.591680,15537.144606,10713.369931,-13939.263098,6555.051393,16239.324658,-6100.372207,-9619.900241,5017.810168,0.010000,-0.010000,1.012000,192.000000,0.000000,0.000000,0.000000,0.000000,0.000000,0.000000,0.000000,0.000000,0.000000,1769694545.086280,0.000000
156.000000,10071.561941,13829.426626,-1562.051661,-3885.582553,-2561.398156,-17055.342144,-4770.912799,-3390.938448,15542.240804,10703.646923,-13943.264060,6541.617995,16247.281879,-6103.300286,-9614.781691,5014.949145,0.010000,-0.010000,1.012000,192.000000,0.000000,0.000000,0.000000,0.000000,0.000000,0.000000,0.000000,0.000000,0.000000,1769694545.086294,0.000000
158.000000,10133.029238,13892.100917,-1503.087759,-3835.805218,-2501.830757,-16995.975911,-4719.347324,-3330.789903,15515.329303,10666.095992,-13978.602168,6505.676389,16218.202259,-6149.747211,-9652.220863,4958.578045,0.010000,-0.010000,1.012000,192.000000,0.000000,0.000000,0.000000,0.000000,0.000000,0.000000,0.000000,0.000000,0.000000,1769694545.086310,0.000000
160.000000,10127.821282,13886.982368,-1503.758312,-3838.152151,-2502.635420,-17006.883562,-4719.973173,-3331.013421,15601.987016,10755.011231,-13885.864781,6589.696597,16308.346845,-6067.872771,-9565.429040,5018.234851,0.009000,-0.011000,1.008000,192.000000,0.000000,32.000000,127.500000,80.000000,15.500000,48.000000,0.000000,0.000000,0.000000,1769694545.086323,0.000000
162.000000,10083.296607,13845.698696,-1546.137219,-3876.239523,-2551.809257,-17056.996174,-4760.228665,-3373.079404,15532.271925,10679.015300,-13961.681898,6519.534471,16232.686190,-6136.939661,-9644.353049,4956.521685,0.009000,-0.011000,1.008000,192.000000,0.000000,0.000000,0.000000,0.000000,0.000000,0.000000,0.000000,0.000000,0.000000,1769694545.086340,0.000000
164.000000,10144.383925,13915.011455,-1488.693236,-3808.200813,-2508.357466,-16990.656196,-4697.710836,-3311.187424,15564.547844,10725.261059,-13922.208717,6565.556713,16263.017507,-6094.381940,-9604.790462,4991.368054,0.009000,-0.011000,1.008000,192.000000,0.000000,0.000000,0.000000,0.000000,0.000000,0.000000,0.000000,0.000000,0.000000,1769694545.086358,0.000000
166.000000,10073.640653,13844.715219,-1556.128449,-3868.550523,-2568.573066,-17048.837787,-4759.826334,-3378.555581,15543.224280,10719.159033,-13939.218395,6552.972681,16244.264393,-6089.978646,-9620.414331,4995.279610,0.009000,-0.011000,1.008000,192.000000,0.000000,0.000000,0.000000,0.000000,0.000000,0.000000,0.000000,0.000000,0.000000,1769694545.086370,0.000000
168.000000,10122.859195,13901.265133,-1511.290850,-3811.352409,-2530.552749,-16983.525989,-4709.825481,-3327.146569,15516.938629,10701.255286,-13967.359241,6532.610241,16225.958315,-6115.549042,-9651.952642,4987.121223,0.009000,-0.011000,1.008000,192.000000,0.000000,0.000000,0.000000,0.000000,0.000000,0.000000,0.000000,0.000000,0.000000,1769694545.086383,0.000000
170.000000,10111.571564,13885.529504,-1518.666925,-3818.124988,-2532.720868,-16982.363699,-4721.023705,-3338.769476,15575.723717,10761.314423,-13904.550839,6591.015350,16276.272091,-6049.589044,-9591.893505,5047.403878,0.007500,-0.011500,1.008000,192.000000,0.000000,24.000000,127.500000,80.000000,15.500000,64.000000,0.000000,0.000000,0.000000,1769694545.086399,0.000000
172.000000,10069.952615,13839.395504,-1564.555057,-3865.086003,-2566.695519,-17019.177022,-4768.744680,-3381.818936,15505.382777,10679.864666,-13982.223151,6516.762855,16204.522992,-6130.189434,-9668.962320,4995.972514,0.007500,-0.011500,1.008000,192.000000,0.000000,0.000000,0.000000,0.000000,0.000000,0.000000,0.000000,0.000000,0.000000,1769694545.086417,0.000000
174.000000,10133.140997,13906.540144,-1494.415283,-3792.174613,-2495.236992,-16954.245204,-4693.285190,-3311.902679,15549.952155,10733.017115,-13931.641153,6568.484791,16252.176911,-6068.900951,-9605.930401,5044.922834,0.007500,-0.011500,1.008000,192.000000,0.000000,0.000000,0.000000,0.000000,0.000000,0.000000,0.000000,0.000000,0.000000,1769694545.086429,0.000000
176.000000,10052.138275,13814.562716,-1571.081766,-3879.413471,-2565.332063,-17035.314981,-4773.080918,-3398.627448,15534.372989,10710.307742,-13948.807293,6546.244806,16238.765864,-6093.063187,-9612.591220,5045.995718,0.007500,-0.011500,1.008000,192.000000,0.000000,0.000000,0.000000,0.000000,0.000000,0.000000,0.000000,0.000000,0.000000,1769694545.086445,0.000000
178.000000,10088.392805,13853.566510,-1531.496827,-3841.214340,-2526.775304,-16987.057565,-4734.233586,-3360.338910,15489.222466,10661.536236,-14000.305712,6498.747349,16195.828163,-6146.327394,-9655.171294,5005.360246,0.007500,-0.011500,1.008000,192.000000,0.000000,0.000000,0.000000,0.000000,0.000000,0.000000,0.000000,0.000000,0.000000,1769694545.564783,0.000000
180.000000,10076.367566,13843.575280,-1536.414210,-3851.674956,-2532.363240,-16991.282045,-4740.425019,-3365.837439,15545.995897,10728.435007,-13933.786921,6556.191332,16256.826074,-6083.697806,-9586.126755,5056.232817,0.006750,-0.009750,1.008000,192.000000,0.000000,24.000000,127.500000,96.000000,15.500000,64.000000,0.000000,0.000000,0.000000,1769694545.564848,0.000000
182.000000,10050.238377,13813.154556,-1563.482173,-3886.789547,-2569.891819,-17040.701752,-4770.801040,-3390.960800,15484.394489,10656.171817,-13999.143422,6491.863011,16198.219800,-6146.729725,-9659.440477,4995.570182,0.006750,-0.009750,1.008000,192.000000,0.000000,0.000000,0.000000,0.000000,0.000000,0.000000,0.000000,0.000000,0.000000,1769694545.564896,0.000000
184.000000,10131.106988,13895.744252,-1479.551372,-3805.473900,-2494.320571,-16974.495885,-4686.199687,-3304.437197,15546.375876,10711.894716,-13930.210642,6552.346832,16254.233271,-6102.160347,-9603.047026,5021.297040,0.006750,-0.009750,1.008000,192.000000,0.000000,0.000000,0.000000,0.000000,0.000000,0.000000,0.000000,0.000000,0.000000,1769694545.564939,0.000000
186.000000,10055.423982,13817.177870,-1561.984606,-3882.922695,-2573.915133,-17066.182740,-4766.867133,-3384.165869,15539.089208,10705.144489,-13934.636287,6549.530512,16243.236213,-6106.027199,-9608.456148,5012.401046,0.006750,-0.009750,1.008000,192.000000,0.000000,0.000000,0.000000,0.000000,0.000000,0.000000,0.000000,0.000000,0.000000,1769694545.564992,0.000000
188.000000,10102.630866,13871.023222,-1522.757295,-3836.453418,-2542.510932,-17021.702769,-4726.052848,-3338.076572,15498.051405,10665.894826,-13982.334910,6511.756064,16200.432622,-6147.981423,-9661.541541,4959.919150,0.006750,-0.009750,1.008000,192.000000,0.000000,0.000000,0.000000,0.000000,0.000000,0.000000,0.000000,0.000000,0.000000,1769694545.565035,0.000000
190.000000,10101.535630,13872.900769,-1524.299565,-3839.694421,-2545.282548,-17021.479252,-4729.964403,-3340.691726,15561.731525,10741.734295,-13913.357426,6577.514896,16258.256585,-6080.546210,-9598.219049,5009.070636,0.005375,-0.006875,1.007000,192.000000,0.000000,16.000000,127.500000,112.000000,15.500000,56.000000,0.000000,0.000000,0.000000,1769694545.565078,0.000000
192.000000,10069.282063,13839.149635,-1559.257693,-3871.344491,-2575.837383,-17051.609403,-4763.335557,-3373.861715,15508.243800,10681.496344,-13976.143477,6518.506291,16203.673625,-6139.353650,-9662.413259,4966.959949,0.005375,-0.006875,1.007000,192.000000,0.000000,0.000000,0.000000,0.000000,0.000000,0.000000,0.000000,0.000000,0.000000,1769694545.565094,0.000000
194.000000,10141.388791,13915.503194,-1492.962419,-3795.013284,-2502.166033,-16967.589196,-4694.581591,-3299.966848,15550.354487,10728.435007,-13930.389456,6564.550884,16242.967992,-6081.306169,-9619.363799,5001.314581,0.005375,-0.006875,1.007000,192.000000,0.000000,0.000000,0.000000,0.000000,0.000000,0.000000,0.000000,0.000000,0.000000,1769694545.565109,0.000000
196.000000,10072.992453,13841.429513,-1560.732908,-3858.805163,-2555.765516,-17028.900031,-4763.536723,-3367.625578,15553.774304,10729.172615,-13926.433197,6569.624730,16252.825111,-6080.859134,-9615.295782,5021.364095,0.005375,-0.006875,1.007000,192.000000,0.000000,0.000000,0.000000,0.000000,0.000000,0.000000,0.000000,0.000000,0.000000,1769694545.565126,0.000000
198.000000,10116.779520,13890.469240,-1513.883652,-3811.017133,-2511.017324,-16982.006071,-4715.525176,-3320.284584,15512.848260,10690.615856,-13965.101715,6537.326460,16209.596838,-6117.270126,-9645.291823,5001.694560,0.005375,-0.006875,1.007000,192.000000,0.000000,0.000000,0.000000,0.000000,0.000000,0.000000,0.000000,0.000000,0.000000,1769694545.565137,0.000000
200.000000,10094.248962,13866.418763,-1532.010917,-3830.530206,-2527.378801,-16992.779612,-4732.110170,-3341.183465,15570.538112,10754.407734,-13901.622760,6593.697559,16264.738591,-6059.088535,-9572.201618,5069.621512,0.003688,-0.007437,1.007500,192.000000,0.000000,8.000000,127.500000,96.000000,15.500000,64.000000,0.000000,0.000000,0.000000,1769694545.565149,0.000000
202.000000,10043.085819,13820.463576,-1576.379129,-3872.104451,-2567.231961,-17036.991362,-4772.969159,-3386.021064,15480.840561,10668.152352,-13990.560352,6512.918355,16184.652291,-6142.259376,-9654.254872,5017.877223,0.003688,-0.007437,1.007500,192.000000,0.000000,0.000000,0.000000,0.000000,0.000000,0.000000,0.000000,0.000000,0.000000,1769694545.565161,0.000000
204.000000,10120.691075,13901.108670,-1496.985733,-3798.567211,-2494.141757,-16964.571710,-4694.805109,-3309.913374,15526.058141,10716.812100,-13941.900604,6559.901721,16230.875698,-6092.482041,-9609.037293,5044.744020,0.003688,-0.007437,1.007500,192.000000,0.000000,0.000000,0.000000,0.000000,0.000000,0.000000,0.000000,0.000000,0.000000,1769694545.565172,0.000000
206.000000,10050.528950,13825.000980,-1564.599760,-3876.843021,-2562.493391,-17045.730894,-4765.771898,-3381.573067,15531.266097,10711.134757,-13939.620726,6556.347794,16232.395617,-6102.428568,-9614.759340,5030.863587,0.003688,-0.007437,1.007500,192.000000,0.000000,0.000000,0.000000,0.000000,0.000000,0.000000,0.000000,0.000000,0.000000,1769694545.565190,0.000000
208.000000,10108.934058,13887.272941,-1514.598908,-3824.182311,-2526.372972,-17002.390862,-4714.966382,-3320.441046,15498.252570,10679.305873,-13971.449610,6528.542224,16199.471497,-6135.062115,-9661.742707,4983.544944,0.003688,-0.007437,1.007500,192.000000,0.000000,0.000000,0.000000,0.000000,0.000000,0.000000,0.000000,0.000000,0.000000,1769694545.565230,0.000000
210.000000,10113.516165,13885.015414,-1517.348172,-3824.070552,-2526.551786,-17006.190658,-4718.386199,-3318.608203,15573.868522,10754.027755,-13890.469240,6599.576068,16265.118571,-6060.608454,-9596.609723,5027.555529,0.002844,-0.008719,1.004750,192.000000,0.000000,8.000000,127.500000,88.000000,15.500000,40.000000,0.000000,0.000000,0.000000,1769694545.565261,0.000000
212.000000,10080.301473,13851.353687,-1552.149838,-3854.938311,-2568.394252,-17038.868909,-4750.438601,-3351.465267,15519.062045,10686.436079,-13953.344697,6536.924128,16206.512297,-6126.322583,-9668.180009,4972.614941,0.002844,-0.008719,1.004750,192.000000,0.000000,0.000000,0.000000,0.000000,0.000000,0.000000,0.000000,0.000000,0.000000,1769694545.565276,0.000000
214.000000,10149.480122,13928.958944,-1479.126689,-3776.528391,-2504.557670,-16962.470646,-4677.907190,-3281.973694,15563.206740,10746.182292,-13901.220429,6593.272876,16252.400428,-6072.276064,-9615.519299,5014.770331,0.002844,-0.008719,1.004750,192.000000,0.000000,0.000000,0.000000,0.000000,0.000000,0.000000,0.000000,0.000000,0.000000,1769694545.565291,0.000000
216.000000,10060.006089,13833.628754,-1557.804830,-3854.714794,-2578.385482,-17044.702714,-4756.585331,-3369.592532,15549.013382,10732.257155,-13917.984237,6575.972626,16237.961201,-6075.673530,-9623.208299,5019.084217,0.002844,-0.008719,1.004750,192.000000,0.000000,0.000000,0.000000,0.000000,0.000000,0.000000,0.000000,0.000000,0.000000,1769694545.565306,0.000000
218.000000,10103.323770,13880.410955,-1521.036210,-3818.169691,-2545.081382,-17004.737795,-4716.016914,-3326.096037,15502.432347,10680.758736,-13964.721735,6537.102942,16191.290759,-6124.690905,-9658.367593,4990.608095,0.002844,-0.008719,1.004750,192.000000,0.000000,0.000000,0.000000,0.000000,0.000000,0.000000,0.000000,0.000000,0.000000,1769694545.565323,0.000000
220.000000,10080.145011,13858.215673,-1534.871940,-3833.704154,-2552.435106,-17004.760147,-4729.673830,-3343.128066,15552.634365,10745.042353,-13903.880287,6594.636332,16241.470425,-6068.565675,-9592.742871,5044.632261,0.004422,-0.010359,1.007375,192.000000,0.000000,24.000000,127.500000,80.000000,15.500000,72.000000,0.000000,0.000000,0.000000,1769694545.565340,0.000000
222.000000,10030.971173,13806.538440,-1581.877659,-3879.257009,-2581.067691,-17054.649240,-4775.606665,-3394.939410,15465.954300,10652.036745,-13998.785794,6504.290581,16163.529892,-6149.277824,-9667.710622,4986.741243,0.004422,-0.010359,1.007375,192.000000,0.000000,0.000000,0.000000,0.000000,0.000000,0.000000,0.000000,0.000000,0.000000,1769694545.565356,0.000000
224.000000,10105.916572,13882.668481,-1508.943916,-3804.177499,-2498.098016,-16964.035268,-4702.851737,-3317.870595,15516.402187,10701.478803,-13945.096903,6552.413887,16216.324713,-6100.863946,-9606.735063,5032.785837,0.004422,-0.010359,1.007375,192.000000,0.000000,0.000000,0.000000,0.000000,0.000000,0.000000,0.000000,0.000000,0.000000,1769694545.565371,0.000000
226.000000,10031.038228,13801.799870,-1577.988455,-3881.693349,-2541.169827,-17027.357760,-4780.412290,-3396.012294,15511.037768,10694.348597,-13951.489502,6541.327422,16218.828108,-6103.702617,-9601.951790,5041.570072,0.004422,-0.010359,1.007375,192.000000,0.000000,0.000000,0.000000,0.000000,0.000000,0.000000,0.000000,0.000000,0.000000,1769694545.565387,0.000000
228.000000,10088.258694,13861.456676,-1527.249995,-3824.674049,-2480.775414,-16962.470646,-4732.713667,-3346.547883,15490.675329,10659.412820,-13985.866485,6510.258497,16201.661968,-6138.459580,-9630.249099,5017.854871,0.004422,-0.010359,1.007375,192.000000,0.000000,0.000000,0.000000,0.000000,0.000000,0.000000,0.000000,0.000000,0.000000,1769694545.565403,0.000000
230.000000,10095.031273,13864.585920,-1523.897233,-3829.591433,-2482.183574,-16958.670850,-4733.808903,-3345.363241,15567.431220,10746.249347,-13909.579982,6585.069786,16277.657900,-6053.366489,-9556.220121,5077.019939,0.004422,-0.010359,1.007375,192.000000,0.000000,0.000000,0.000000,0.000000,0.000000,0.000000,0.000000,0.000000,0.000000,1769694545.565418,0.000000
232.000000,10082.938979,13847.330373,-1549.758202,-3861.330910,-2517.208757,-16989.672719,-4756.764145,-3360.383613,15516.826870,10677.830658,-13969.236787,6525.994125,16217.732873,-6115.727856,-9638.072209,5015.351476,0.004000,-0.010000,1.008000,192.000000,0.000000,16.000000,127.500000,88.000000,15.500000,64.000000,0.000000,0.000000,0.000000,1769694545.565439,0.000000
234.000000,10135.934965,13908.909429,-1493.677675,-3796.086168,-2484.530507,-16936.922602,-4690.357112,-3295.138871,15559.116371,10731.519548,-13912.843336,6582.007597,16257.809551,-6065.659948,-9605.997456,5041.972404,0.004000,-0.010000,1.008000,192.000000,0.000000,0.000000,0.000000,0.000000,0.000000,0.000000,0.000000,0.000000,0.000000,1769694545.565456,0.000000
236.000000,10066.041060,13832.935850,-1558.073051,-3867.030605,-2566.539057,-17024.340275,-4755.154819,-3363.579913,15551.405019,10721.953001,-13917.805423,6570.116469,16247.974783,-6080.300341,-9622.403636,5038.865511,0.004000,-0.010000,1.008000,192.000000,0.000000,0.000000,0.000000,0.000000,0.000000,0.000000,0.000000,0.000000,0.000000,1769694545.565470,0.000000
238.000000,10099.143994,13869.771525,-1511.268498,-3827.199796,-2541.080420,-16986.208199,-4717.000391,-3329.091171,15507.126213,10672.622701,-13961.301918,6526.530567,16201.773727,-6129.720048,-9664.290805,4996.039569,0.004000,-0.010000,1.008000,192.000000,0.000000,0.000000,0.000000,0.000000,0.000000,0.000000,0.000000,0.000000,0.000000,1769694545.565485,0.000000
240.000000,10088.415156,13857.232196,-1511.201443,-3829.300860,-2543.807333,-16993.517219,-4722.074237,-3341.161113,15561.552711,10737.040429,-13901.309836,6579.660664,16256.602556,-6063.782402,-9594.776880,5040.854817,0.004000,-0.010000,1.008000,192.000000,0.000000,0.000000,0.000000,0.000000,0.000000,0.000000,0.000000,0.000000,0.000000,1769694545.565500,0.000000
242.000000,10039.040153,13805.666722,-1559.995301,-3871.523305,-2586.700331,-17038.399522,-4768.096479,-3391.318427,15494.743347,10658.742268,-13977.752802,6512.560727,16191.603683,-6136.380868,-9660.334547,4991.166889,0.008000,-0.008000,1.014000,192.000000,0.000000,32.000000,127.500000,96.000000,15.500000,88.000000,0.000000,0.000000,0.000000,1769694545.565525,0.000000
244.000000,10113.426758,13884.724842,-1493.722378,-3795.974409,-2513.028981,-16960.838969,-4690.714740,-3313.556709,15536.764626,10706.284428,-13935.552709,6559.387631,16228.685227,-6090.805661,-9614.871098,5023.353401,0.008000,-0.008000,1.014000,192.000000,0.000000,0.000000,0.000000,0.000000,0.000000,0.000000,0.000000,0.000000,0.000000,1769694545.565541,0.000000
246.000000,10031.708781,13803.006864,-1577.720234,-3878.765271,-2577.558467,-17048.435455,-4768.163534,-3390.446709,15526.080492,10700.003588,-13945.186310,6551.229245,16220.459786,-6094.158422,-9618.939116,5024.806264,0.008000,-0.008000,1.014000,192.000000,0.000000,0.000000,0.000000,0.000000,0.000000,0.000000,0.000000,0.000000,0.000000,1769694545.565557,0.000000
248.000000,10072.433659,13848.336202,-1544.617301,-3840.677898,-2535.380725,-17003.307283,-4732.624260,-3349.475962,15474.291500,10650.539178,-13997.399985,6509.878517,16170.749506,-6146.752077,-9662.145038,4988.708197,0.008000,-0.008000,1.014000,192.000000,0.000000,0.000000,0.000000,0.000000,0.000000,0.000000,0.000000,0.000000,0.000000,1769694545.565578,0.000000
250.000000,10070.287892,13843.128245,-1540.817504,-3841.974299,-2516.985240,-16991.103231,-4734.434752,-3352.582854,15545.548862,10729.418484,-13922.074607,6580.085347,16238.765864,-6073.818335,-9574.727365,5062.670119,0.008000,-0.008000,1.014000,192.000000,0.000000,0.000000,0.000000,0.000000,0.000000,0.000000,0.000000,0.000000,0.000000,1769694545.565602,0.000000
252.000000,10025.584403,13796.323692,-1579.776595,-3887.325989,-2545.237845,-17029.347066,-4777.283046,-3395.989942,15473.084506,10644.548910,-14001.333893,6500.088453,16184.764050,-6152.183551,-9642.497855,5016.781988,0.006000,-0.012000,1.016000,192.000000,0.000000,24.000000,127.500000,80.000000,15.500000,96.000000,0.000000,0.000000,0.000000,1769694545.565619,0.000000
254.000000,10100.798023,13874.800667,-1511.804940,-3817.923822,-2485.089300,-16959.453161,-4705.891574,-3321.536281,15516.156318,10690.839373,-13953.747029,6545.730715,16225.444225,-6102.607382,-9604.835165,5044.833427,0.006000,-0.012000,1.016000,192.000000,0.000000,0.000000,0.000000,0.000000,0.000000,0.000000,0.000000,0.000000,0.000000,1769694545.565636,0.000000
0.000000,10034.011010,13799.430585,-1579.910705,-3889.471756,-2558.358319,-17046.423798,-4768.901142,-3387.920962,15523.353579,10685.318492,-13949.433142,6543.026154,16239.950507,-6118.387713,-9620.369628,5036.183302,0.006000,-0.012000,1.016000,192.000000,0.000000,0.000000,0.000000,0.000000,0.000000,0.000000,0.000000,0.000000,0.000000,1769694545.565653,0.000000
2.000000,10085.040043,13856.740458,-1529.731039,-3837.727468,-2526.037696,-17008.202315,-4716.374542,-3332.443933,15490.675329,10653.556663,-13981.239674,6515.019419,16194.263541,-6145.992118,-9661.876817,4993.603229,0.006000,-0.012000,1.016000,192.000000,0.000000,0.000000,0.000000,0.000000,0.000000,0.000000,0.000000,0.000000,0.000000,1769694545.565669,0.000000
4.000000,10087.699901,13859.690888,-1526.087704,-3838.330965,-2543.427353,-17020.473423,-4715.391066,-3332.935671,15559.116371,10729.865519,-13905.757833,6586.857925,16261.631699,-6071.359643,-9595.738005,5033.635203,0.006000,-0.012000,1.016000,192.000000,0.000000,0.000000,0.000000,0.000000,0.000000,0.000000,0.000000,0.000000,0.000000,1769694545.565691,0.000000
6.000000,10042.683487,13809.511222,-1565.247961,-3882.632122,-2586.297999,-17071.547159,-4758.507581,-3381.371901,15488.618969,10653.422553,-13983.966587,6512.940706,16183.445297,-6152.429420,-9673.611483,4963.227208,0.006000,-0.014000,1.010000,192.000000,0.000000,24.000000,127.500000,72.000000,15.500000,72.000000,0.000000,0.000000,0.000000,1769694545.565711,0.000000
8.000000,10114.991381,13884.009586,-1492.493033,-3807.619668,-2517.141702,-16994.031309,-4692.324065,-3313.556709,15536.183481,10701.277638,-13935.999743,6554.403192,16235.368399,-6102.853251,-9617.352142,4999.951124,0.006000,-0.014000,1.010000,192.000000,0.000000,0.000000,0.000000,0.000000,0.000000,0.000000,0.000000,0.000000,0.000000,1769694545.565728,0.000000
10.000000,10037.162606,13803.208030,-1568.265446,-3883.682654,-2582.699368,-17064.618118,-4769.974025,-3388.166832,15531.959001,10693.812155,-13943.420523,6545.775419,16227.500585,-6107.435358,-9617.665066,5007.796586,0.006000,-0.014000,1.010000,192.000000,0.000000,0.000000,0.000000,0.000000,0.000000,0.000000,0.000000,0.000000,0.000000,1769694545.565745,0.000000
12.000000,10086.671720,13854.281766,-1529.641632,-3839.582663,-2543.181484,-17009.945751,-4726.566938,-3336.266081,15492.664634,10648.102838,-13982.312558,6511.264326,16188.094460,-6150.149542,-9658.233483,4975.990054,0.006000,-0.014000,1.010000,192.000000,0.000000,0.000000,0.000000,0.000000,0.000000,0.000000,0.000000,0.000000,0.000000,1769694545.565760,0.000000
14.000000,10082.313130,13855.287594,-1531.697992,-3836.028735,-2540.074592,-17009.476365,-4721.649554,-3334.612052,15555.204815,10723.227051,-13906.897772,6581.895838,16245.918422,-6078.154573,-9588.272522,5034.618680,0.006000,-0.014000,1.010000,192.000000,0.000000,0.000000,0.000000,0.000000,0.000000,0.000000,0.000000,0.000000,0.000000,1769694545.565775,0.000000
16.000000,10033.005182,13805.420852,-1583.196412,-3882.162736,-2576.083252,-17044.121569,-4772.365662,-3389.642047,15482.293425,10647.365230,-13988.325177,6512.896003,16178.237340,-6153.010565,-9655.707736,4986.830650,0.004000,-0.010000,1.008000,192.000000,0.000000,16.000000,127.500000,88.000000,15.500000,64.000000,0.000000,0.000000,0.000000,1769694545.565791,0.000000
18.000000,10109.895183,13886.848257,-1508.608640,-3801.674104,-2497.293353,-16959.162588,-4699.096644,-3315.300145,15524.091187,10706.776167,-13945.834511,6561.801620,16218.850460,-6093.644332,-9604.432834,5027.443770,0.004000,-0.010000,1.008000,192.000000,0.000000,0.000000,0.000000,0.000000,0.000000,0.000000,0.000000,0.000000,0.000000,1769694545.565812,0.000000
20.000000,10040.425961,13811.701693,-1577.831993,-3876.731262,-2559.341795,-17035.136167,-4769.638749,-3389.552640,15528.494481,10703.266943,-13946.214491,6552.838570,16223.164347,-6101.042760,-9604.566944,5040.988927,0.004000,-0.010000,1.008000,192.000000,0.000000,0.000000,0.000000,0.000000,0.000000,0.000000,0.000000,0.000000,0.000000,1769694545.565828,0.000000
22.000000,10080.793212,13852.828902,-1536.660080,-3837.213378,-2522.796693,-16996.802926,-4726.723400,-3342.189293,15483.992157,10652.550835,-13992.102622,6508.045674,16200.343216,-6145.768600,-9658.792276,5002.700389,0.004000,-0.010000,1.008000,192.000000,0.000000,0.000000,0.000000,0.000000,0.000000,0.000000,0.000000,0.000000,0.000000,1769694545.565844,0.000000
24.000000,10077.194581,13849.565548,-1541.018670,-3849.059802,-2530.217472,-17005.341292,-4727.818635,-3346.503180,15553.282565,10724.456397,-13912.373950,6579.548905,16246.678382,-6076.366434,-9582.282255,5057.506866,0.004000,-0.010000,1.008000,192.000000,0.000000,0.000000,0.000000,0.000000,0.000000,0.000000,0.000000,0.000000,0.000000,1769694545.565859,0.000000
26.000000,10044.941013,13814.316847,-1575.418004,-3891.684579,-2575.993845,-17065.825113,-4764.363738,-3384.009407,15482.539294,10645.264166,-13991.946160,6504.022360,16179.131410,-6166.712185,-9666.995366,4971.475002,0.006000,-0.008000,1.000000,192.000000,0.000000,24.000000,127.500000,96.000000,15.500000,32.000000,0.000000,0.000000,0.000000,1769694545.565875,0.000000
28.000000,10134.236233,13908.842374,-1492.604791,-3805.518604,-2507.329286,-16994.880676,-4681.572876,-3293.887173,15546.062952,10713.772263,-13928.534261,6565.176733,16237.871794,-6101.690960,-9619.721427,4984.908400,0.006000,-0.008000,1.000000,192.000000,0.000000,0.000000,0.000000,0.000000,0.000000,0.000000,0.000000,0.000000,0.000000,1769694545.565890,0.000000
30.000000,10069.907912,13843.038838,-1553.625054,-3868.706986,-2572.529325,-17064.193435,-4748.404592,-3358.103735,15547.046429,10724.478748,-13915.950229,6574.810335,16245.381981,-6089.866887,-9613.909973,4990.183412,0.006000,-0.008000,1.000000,192.000000,0.000000,0.000000,0.000000,0.000000,0.000000,0.000000,0.000000,0.000000,0.000000,1769694545.565905,0.000000
32.000000,10113.806738,13887.876438,-1511.380257,-3821.231880,-2539.269929,-17016.517164,-4707.746769,-3316.060104,15510.858954,10682.859800,-13958.060915,6536.074762,16204.902971,-6135.553853,-9661.608596,4949.972624,0.006000,-0.008000,1.000000,192.000000,0.000000,0.000000,0.000000,0.000000,0.000000,0.000000,0.000000,0.000000,0.000000,1769694545.565922,0.000000
34.000000,10102.072072,13873.437211,-1517.638745,-3825.635174,-2542.667394,-17017.008903,-4711.837138,-3326.163092,15580.819914,10753.044278,-13883.383737,6602.526498,16270.550045,-6054.752297,-9585.366796,5019.374790,0.006000,-0.008000,1.000000,192.000000,0.000000,0.000000,0.000000,0.000000,0.000000,0.000000,0.000000,0.000000,0.000000,1769694545.565938,0.000000
36.000000,10053.032345,13826.923231,-1567.058452,-3875.591323,-2592.668246,-17066.428610,-4762.329729,-3375.672206,15492.485820,10670.611044,-13973.170694,6523.781302,16187.870942,-6138.660745,-9663.977881,4962.199028,0.004000,-0.008000,0.998000,192.000000,0.000000,16.000000,127.500000,96.000000,15.500000,24.000000,0.000000,0.000000,0.000000,1769694545.565953,0.000000
38.000000,10119.081750,13895.207810,-1498.729169,-3805.987991,-2519.063952,-16990.119754,-4692.704045,-3305.957115,15530.372027,10719.091978,-13930.300049,6568.484791,16223.454919,-6096.885335,-9613.462938,5001.940429,0.004000,-0.008000,0.998000,192.000000,0.000000,0.000000,0.000000,0.000000,0.000000,0.000000,0.000000,0.000000,0.000000,1769694545.565969,0.000000
40.000000,10043.309336,13817.088463,-1574.121603,-3873.311445,-2580.374787,-17052.659935,-4764.140220,-3381.640122,15520.693722,10708.273734,-13939.531319,6556.660719,16210.960294,-6100.506318,-9615.809872,5013.540985,0.004000,-0.008000,0.998000,192.000000,0.000000,0.000000,0.000000,0.000000,0.000000,0.000000,0.000000,0.000000,0.000000,1769694545.565985,0.000000
42.000000,10082.536648,13861.411972,-1543.678527,-3831.513683,-2544.187313,-16998.255789,-4729.763237,-3344.089191,15483.142791,10671.415707,-13987.296997,6520.428541,16174.057564,-6140.895920,-9662.815590,4985.243676,0.004000,-0.008000,0.998000,192.000000,0.000000,0.000000,0.000000,0.000000,0.000000,0.000000,0.000000,0.000000,0.000000,1769694546.046442,0.000000
44.000000,10082.044909,13857.992155,-1541.845684,-3836.408715,-2532.452647,-16989.717423,-4729.204444,-3345.631462,15549.013382,10740.840225,-13917.425444,6579.928884,16237.156539,-6067.313977,-9588.049005,5047.292119,0.004000,-0.008000,0.998000,192.000000,0.000000,0.000000,0.000000,0.000000,0.000000,0.000000,0.000000,0.000000,0.000000,1769694546.046518,0.000000
46.000000,10045.812731,13818.429568,-1577.541420,-3877.535925,-2566.092022,-17018.282952,-4765.414270,-3382.467137,15484.975634,10669.515809,-13987.118183,6511.554898,16178.103230,-6142.214673,-9649.337488,5002.901554,0.003000,-0.010000,0.999000,192.000000,0.000000,8.000000,127.500000,80.000000,15.500000,32.000000,0.000000,0.000000,0.000000,1769694546.046582,0.000000
48.000000,10112.800910,13889.306949,-1514.330687,-3810.167767,-2515.286507,-16959.073181,-4696.906173,-3316.417732,15523.331228,10708.497251,-13945.812159,6553.576178,16220.906820,-6093.219649,-9610.758377,5035.758619,0.003000,-0.010000,0.999000,192.000000,0.000000,0.000000,0.000000,0.000000,0.000000,0.000000,0.000000,0.000000,0.000000,1769694546.046635,0.000000
50.000000,10032.982830,13802.626884,-1587.376188,-3885.739015,-2596.289229,-17046.222633,-4768.029424,-3393.844175,15524.493518,10711.492385,-13946.929747,6555.431373,16224.304286,-6094.650161,-9615.429892,5040.497189,0.003000,-0.010000,0.999000,192.000000,0.000000,0.000000,0.000000,0.000000,0.000000,0.000000,0.000000,0.000000,0.000000,1769694546.046704,0.000000
52.000000,10083.743642,13851.912481,-1542.471533,-3839.761476,-2568.953045,-17009.297551,-4721.694257,-3345.922034,15475.140867,10653.042573,-13999.210477,6506.436349,16153.739828,-6160.207827,-9680.764041,4981.667397,0.003000,-0.010000,0.999000,192.000000,0.000000,0.000000,0.000000,0.000000,0.000000,0.000000,0.000000,0.000000,0.000000,1769694546.046752,0.000000
54.000000,10080.502639,13851.420742,-1538.269405,-3835.536997,-2569.087156,-17013.857307,-4715.771045,-3341.965776,15548.007554,10726.222184,-13918.811252,6575.704405,16229.422835,-6087.721120,-9608.791424,5034.350459,0.003000,-0.010000,0.999000,192.000000,0.000000,0.000000,0.000000,0.000000,0.000000,0.000000,0.000000,0.000000,0.000000,1769694546.046770,0.000000
56.000000,10038.838987,13811.411120,-1580.782423,-3881.134555,-2609.476758,-17074.318775,-4759.759278,-3380.142555,15480.572341,10660.619814,-13983.832477,6515.578212,16164.312203,-6149.903673,-9677.411279,4973.888990,0.002500,-0.012000,0.999500,192.000000,0.000000,8.000000,127.500000,72.000000,15.500000,32.000000,0.000000,0.000000,0.000000,1769694546.046785,0.000000
58.000000,10116.399540,13892.190324,-1505.837024,-3802.769339,-2529.748086,-17001.407385,-4687.093757,-3302.514947,15522.057178,10709.748949,-13940.671258,6561.935730,16205.148841,-6110.206975,-9636.239366,4985.646008,0.002500,-0.012000,0.999500,192.000000,0.000000,0.000000,0.000000,0.000000,0.000000,0.000000,0.000000,0.000000,0.000000,1769694546.046807,0.000000
60.000000,10041.543548,13811.455823,-1579.038987,-3874.876067,-2599.306714,-17083.840619,-4762.888522,-3379.226134,15531.042580,10715.716865,-13933.518700,6566.495486,16218.872812,-6095.968914,-9625.108197,4996.844232,0.002500,-0.012000,0.999500,192.000000,0.000000,0.000000,0.000000,0.000000,0.000000,0.000000,0.000000,0.000000,0.000000,1769694546.046824,0.000000
62.000000,10092.393767,13868.653937,-1531.519178,-3823.109427,-2547.920054,-17026.396635,-4715.838100,-3327.258328,15482.293425,10674.969634,-13984.994767,6524.027172,16173.834047,-6142.818170,-9674.974939,4960.477943,0.002500,-0.012000,0.999500,192.000000,0.000000,0.000000,0.000000,0.000000,0.000000,0.000000,0.000000,0.000000,0.000000,1769694546.046839,0.000000
64.000000,10091.075014,13864.764734,-1530.423943,-3823.556462,-2533.994917,-17019.266429,-4714.653458,-3330.812255,15551.047391,10747.948080,-13910.675217,6591.015350,16241.850405,-6065.235265,-9594.888639,5026.259127,0.002500,-0.012000,0.999500,192.000000,0.000000,0.000000,0.000000,0.000000,0.000000,0.000000,0.000000,0.000000,0.000000,1769694546.046852,0.000000
66.000000,10043.957537,13812.931038,-1582.615266,-3879.100547,-2573.892781,-17065.109857,-4769.683453,-3387.116300,15499.683082,10681.004605,-13978.758631,6527.089361,16190.016710,-6135.285632,-9652.153808,4982.896743,0.002250,-0.011000,1.001750,192.000000,0.000000,8.000000,127.500000,88.000000,15.500000,48.000000,0.000000,0.000000,0.000000,1769694546.046868,0.000000
68.000000,10112.733854,13890.759813,-1508.630992,-3802.098787,-2492.264210,-16975.188789,-4697.017932,-3313.243784,15525.991085,10714.420463,-13948.986107,6558.270044,16217.330541,-6096.907687,-9616.011037,5008.310677,0.002250,-0.011000,1.001750,192.000000,0.000000,0.000000,0.000000,0.000000,0.000000,0.000000,0.000000,0.000000,0.000000,1769694546.046883,0.000000
70.000000,10040.202444,13813.646294,-1582.168231,-3881.961570,-2555.586702,-17040.925269,-4776.567790,-3394.313561,15526.058141,10716.901507,-13951.422447,6552.190370,16225.399521,-6094.851326,-9614.066436,5023.666325,0.002250,-0.011000,1.001750,192.000000,0.000000,0.000000,0.000000,0.000000,0.000000,0.000000,0.000000,0.000000,0.000000,1769694546.046900,0.000000
72.000000,10092.527877,13867.022260,-1531.206254,-3832.005421,-2511.285545,-16987.169324,-4725.158778,-3344.826799,15497.336149,10680.311701,-13988.280474,6517.679276,16198.331559,-6131.441132,-9653.003174,4998.721778,0.002250,-0.011000,1.001750,192.000000,0.000000,0.000000,0.000000,0.000000,0.000000,0.000000,0.000000,0.000000,0.000000,1769694546.046924,0.000000
74.000000,10075.987586,13849.476141,-1540.571635,-3841.616671,-2513.610126,-16998.233437,-4731.551377,-3357.164962,15557.238824,10745.668202,-13920.509985,6576.039681,16259.083600,-6060.720213,-9586.126755,5057.059831,0.002250,-0.011000,1.001750,192.000000,0.000000,0.000000,0.000000,0.000000,0.000000,0.000000,0.000000,0.000000,0.000000,1769694546.046942,0.000000
76.000000,10047.243243,13816.283800,-1575.797984,-3875.636026,-2550.691670,-17029.235307,-4765.995415,-3389.418529,15493.603408,10675.975463,-13989.308654,6511.420788,16198.175096,-6132.335202,-9655.707736,5010.411741,0.004125,-0.008500,1.002875,192.000000,0.000000,24.000000,127.500000,104.000000,15.500000,48.000000,0.000000,0.000000,0.000000,1769694546.046957,0.000000
78.000000,10114.901974,13886.133002,-1506.664038,-3806.323267,-2499.372065,-16957.732076,-4695.810937,-3314.964868,15536.228184,10717.974391,-13943.040543,6554.157323,16237.067132,-6091.006826,-9620.481386,5032.584671,0.004125,-0.008500,1.002875,192.000000,0.000000,0.000000,0.000000,0.000000,0.000000,0.000000,0.000000,0.000000,0.000000,1769694546.046970,0.000000
80.000000,10038.369601,13807.454861,-1575.552115,-3881.425128,-2577.178487,-17032.453958,-4764.274331,-3386.758672,15529.366199,10714.755740,-13942.079418,6551.072782,16232.037989,-6097.421777,-9625.331715,5028.717819,0.004125,-0.008500,1.002875,192.000000,0.000000,0.000000,0.000000,0.000000,0.000000,0.000000,0.000000,0.000000,0.000000,1769694546.046982,0.000000
82.000000,10079.139182,13848.023277,-1533.732001,-3837.123971,-2545.349603,-16998.926341,-4718.341496,-3343.396287,15489.334224,10669.694623,-13986.157058,6512.918355,16195.381128,-6141.521769,-9666.481276,4981.980322,0.004125,-0.008500,1.002875,192.000000,0.000000,0.000000,0.000000,0.000000,0.000000,0.000000,0.000000,0.000000,0.000000,1769694546.047003,0.000000
84.000000,10088.884543,13855.645222,-1528.255824,-3826.730409,-2537.861769,-16998.099327,-4710.585440,-3335.662584,15558.065839,10743.365972,-13907.836545,6587.774347,16256.490798,-6058.395631,-9588.853668,5036.205654,0.004125,-0.008500,1.002875,192.000000,0.000000,0.000000,0.000000,0.000000,0.000000,0.000000,0.000000,0.000000,0.000000,1769694546.047020,0.000000
86.000000,10039.286022,13804.146803,-1577.496717,-3879.301712,-2578.206668,-17054.403371,-4763.871999,-3384.814070,15495.391547,10676.489553,-13980.658529,6520.741465,16203.047777,-6132.648126,-9662.167390,4975.498316,0.004063,-0.009250,1.007437,192.000000,0.000000,16.000000,127.500000,88.000000,15.500000,80.000000,0.000000,0.000000,0.000000,1769694546.047036,0.000000
88.000000,10114.142014,13884.389566,-1496.806919,-3795.885002,-2497.740388,-16968.326803,-4683.964513,-3304.772473,15532.517795,10720.880118,-13937.363200,6562.673338,16239.257603,-6091.163288,-9614.021732,5005.606116,0.004063,-0.009250,1.007437,192.000000,0.000000,0.000000,0.000000,0.000000,0.000000,0.000000,0.000000,0.000000,0.000000,1769694546.047052,0.000000
90.000000,10038.391952,13804.683245,-1573.004016,-3868.036433,-2558.492429,-17037.863080,-4759.066374,-3379.807279,15538.955097,10723.294106,-13932.311706,6567.188390,16246.924251,-6081.082652,-9605.572773,5024.560395,0.004063,-0.009250,1.007437,192.000000,0.000000,0.000000,0.000000,0.000000,0.000000,0.000000,0.000000,0.000000,0.000000,1769694546.047068,0.000000
