Sample_index,EXG Channel 0,EXG Channel 1,EXG Channel 2,EXG Channel 3,EXG Channel 4,EXG Channel 5,EXG Channel 6,EXG Channel 7,EXG Channel 8,EXG Channel 9,EXG Channel 10,EXG Channel 11,EXG Channel 12,EXG Channel 13,EXG Channel 14,EXG Channel 15,Accel Channel 0,Accel Channel 1,Accel Channel 2,Not Used,Digital Channel 0 (D11),Digital Channel 1 (D12),Digital Channel 2 (D13),Digital Channel 3 (D17),Not Used,Digital Channel 4 (D18),Analog Channel 0,Analog Channel 1,Analog Channel 2,Timestamp,Marker Channel
90.000000,8092.337321,11683.770917,-2369.553133,-4239.388316,-342.853408,-15667.611738,-4741.140275,251.993567,13787.427698,8634.300069,-14783.622597,8223.586765,12042.896395,-5404.741216,-12000.495136,4267.752679,0.004000,-0.018000,1.004000,192.000000,0.000000,0.000000,0.000000,0.000000,0.000000,0.000000,0.000000,0.000000,0.000000,1769696051.856123,101.000000
92.000000,8339.257042,11934.311621,-2123.505130,-3995.553135,-114.060952,-15419.082692,-4495.606362,499.002695,13802.135146,8651.086229,-14764.310689,8238.785951,12059.347279,-5410.150338,-11975.930569,4262.947054,0.004000,-0.018000,1.004000,192.000000,0.000000,0.000000,0.000000,0.000000,0.000000,0.000000,0.000000,0.000000,0.000000,1769696051.856184,0.000000
94.000000,8163.594683,11751.899034,-2297.446406,-4167.639216,-287.644599,-15597.986054,-4662.126858,329.062382,13923.058083,8769.729289,-14637.375133,8354.679746,12185.008786,-5269.982549,-11854.538245,4392.698931,0.006000,-0.016000,1.004000,192.000000,0.000000,24.000000,127.500000,64.000000,15.500000,48.000000,0.000000,0.000000,0.000000,1769696051.856236,0.000000
96.000000,8202.240849,11792.735671,-2270.289036,-4143.812256,-253.848762,-15562.849112,-4640.780943,364.355786,13685.481392,8532.197300,-14873.945996,8129.240051,11946.694487,-5501.971305,-12102.866125,4162.431259,0.006000,-0.016000,1.004000,192.000000,0.000000,0.000000,0.000000,0.000000,0.000000,0.000000,0.000000,0.000000,0.000000,1769696051.856280,0.000000
98.000000,8350.656432,11944.995754,-2118.252470,-3987.037121,-110.283507,-15429.677418,-4491.515993,519.588652,13955.758686,8811.705865,-14594.504487,8397.796261,12226.359514,-5230.129389,-11831.314782,4377.902076,0.006000,-0.016000,1.004000,192.000000,0.000000,0.000000,0.000000,0.000000,0.000000,0.000000,0.000000,0.000000,0.000000,1769696051.856323,0.000000
100.000000,8101.099205,11690.789365,-2365.172191,-4239.410667,-361.114783,-15673.959634,-4740.022688,268.712672,13791.182791,8640.513854,-14765.405925,8238.227157,12058.207340,-5414.039542,-12001.500964,4263.036461,0.006000,-0.016000,1.004000,192.000000,0.000000,0.000000,0.000000,0.000000,0.000000,0.000000,0.000000,0.000000,0.000000,1769696051.856367,0.000000
102.000000,8362.100525,11952.528292,-2111.278726,-3982.164440,-105.321420,-15397.423851,-4489.169060,518.873396,13807.343102,8649.678069,-14753.492445,8245.647937,12055.793352,-5407.468129,-11987.553476,4241.623490,0.006000,-0.016000,1.004000,192.000000,0.000000,0.000000,0.000000,0.000000,0.000000,0.000000,0.000000,0.000000,0.000000,1769696051.856403,0.000000
104.000000,8202.464366,11795.753157,-2272.859487,-4134.782152,-256.374509,-15561.977394,-4642.278509,357.784373,13952.584738,8798.630094,-14611.268295,8387.939142,12212.590839,-5229.771761,-11835.181634,4409.641553,0.004000,-0.012000,1.008000,192.000000,0.000000,16.000000,127.500000,80.000000,15.500000,64.000000,0.000000,0.000000,0.000000,1769696051.856418,0.000000
106.000000,8216.791834,11811.153509,-2267.763289,-4126.176730,-244.259863,-15552.880234,-4639.484541,370.211943,13712.951686,8562.908597,-14855.662269,8160.331328,11980.646787,-5493.567049,-12078.189800,4199.669266,0.004000,-0.012000,1.008000,192.000000,0.000000,0.000000,0.000000,0.000000,0.000000,0.000000,0.000000,0.000000,0.000000,1769696051.856435,0.000000
108.000000,8349.002403,11941.307717,-2141.610043,-3999.643505,-117.078437,-15411.684264,-4514.024200,493.235945,13951.869482,8800.999379,-14617.683246,8384.340511,12204.991246,-5254.470438,-11846.469265,4391.134309,0.004000,-0.012000,1.008000,192.000000,0.000000,0.000000,0.000000,0.000000,0.000000,0.000000,0.000000,0.000000,0.000000,1769696051.856449,0.000000
110.000000,8125.104979,11716.739740,-2367.362662,-4219.227042,-334.627966,-15645.729380,-4733.875958,266.432794,13810.472347,8650.058049,-14769.652756,8240.305870,12092.249047,-5398.348617,-11994.884848,4306.220032,0.004000,-0.012000,1.008000,192.000000,0.000000,0.000000,0.000000,0.000000,0.000000,0.000000,0.000000,0.000000,0.000000,1769696051.856461,0.000000
112.000000,8357.406659,11952.327127,-2140.067773,-3989.249943,-125.102714,-15409.225572,-4510.224403,492.520689,13811.277009,8659.512837,-14765.562387,8243.390410,12058.296747,-5380.623684,-11994.169592,4279.420290,0.004000,-0.012000,1.008000,192.000000,0.000000,0.000000,0.000000,0.000000,0.000000,0.000000,0.000000,0.000000,0.000000,1769696051.856473,0.000000
114.000000,8199.245715,11790.053462,-2302.676714,-4152.082402,-286.303495,-15572.549769,-4663.691481,332.884530,13936.558537,8787.186001,-14639.990287,8367.152019,12187.221609,-5251.162380,-11870.184466,4415.944745,0.004000,-0.012000,1.008000,192.000000,0.000000,16.000000,127.500000,80.000000,15.500000,64.000000,0.000000,0.000000,0.000000,1769696051.856485,0.000000
116.000000,8227.140692,11819.490709,-2278.581533,-4138.514893,-270.009073,-15555.629498,-4642.926710,358.969016,13712.102319,8560.025222,-14862.412496,8152.798790,11969.783839,-5501.613677,-12097.300541,4206.955934,0.004000,-0.012000,1.008000,192.000000,0.000000,0.000000,0.000000,0.000000,0.000000,0.000000,0.000000,0.000000,0.000000,1769696051.856497,0.000000
118.000000,8395.471680,11987.195848,-2117.850139,-3987.707673,-110.127045,-15408.935000,-4483.335255,526.070658,13964.475866,8815.975048,-14603.087557,8396.477508,12208.053435,-5240.433543,-11854.694707,4384.004102,0.004000,-0.012000,1.008000,192.000000,0.000000,0.000000,0.000000,0.000000,0.000000,0.000000,0.000000,0.000000,0.000000,1769696051.856509,0.000000
120.000000,8144.863921,11736.565737,-2376.817450,-4250.497133,-368.580266,-15689.404689,-4743.800133,272.266599,13823.793986,8664.117296,-14748.329192,8259.908350,12080.156753,-5401.477862,-12012.207450,4264.131697,0.004000,-0.012000,1.008000,192.000000,0.000000,0.000000,0.000000,0.000000,0.000000,0.000000,0.000000,0.000000,0.000000,1769696051.856521,0.000000
122.000000,8419.946840,12013.861479,-2105.824900,-3977.761147,-109.389437,-15420.535555,-4481.323598,544.555550,13820.284762,8675.024948,-14744.976431,8262.925835,12046.830302,-5404.338885,-12018.756511,4205.883051,0.004000,-0.012000,1.008000,192.000000,0.000000,0.000000,0.000000,0.000000,0.000000,0.000000,0.000000,0.000000,0.000000,1769696051.856533,0.000000
124.000000,8261.964710,11852.951271,-2257.727356,-4133.373992,-242.292910,-15570.426353,-4635.148303,381.343112,13989.822744,8838.818531,-14577.070126,8426.741770,12245.492607,-5240.344136,-11837.506215,4378.147945,0.005000,-0.012000,1.009000,192.000000,0.000000,24.000000,127.500000,80.000000,15.500000,72.000000,0.000000,0.000000,0.000000,1769696051.856544,0.000000
126.000000,8265.563341,11857.600434,-2254.620463,-4131.071762,-243.566959,-15567.677089,-4637.472884,378.325627,13738.723247,8586.467336,-14833.690504,8183.241866,11991.465031,-5475.149211,-12076.155791,4158.117373,0.005000,-0.012000,1.009000,192.000000,0.000000,0.000000,0.000000,0.000000,0.000000,0.000000,0.000000,0.000000,0.000000,1769696051.856557,0.000000
128.000000,8405.105281,11998.639941,-2111.099912,-3979.750452,-97.498309,-15418.769767,-4487.984417,518.761637,13979.876218,8831.867138,-14589.073013,8413.464834,12219.296362,-5241.104095,-11822.552898,4366.681500,0.005000,-0.012000,1.009000,192.000000,0.000000,0.000000,0.000000,0.000000,0.000000,0.000000,0.000000,0.000000,0.000000,1769696051.856569,0.000000
130.000000,8141.712325,11736.722200,-2374.224648,-4233.174531,-347.413164,-15671.925625,-4740.760295,257.805021,13799.497640,8657.076497,-14774.547788,8247.413724,12055.033392,-5405.434120,-11989.453374,4267.462107,0.005000,-0.012000,1.009000,192.000000,0.000000,0.000000,0.000000,0.000000,0.000000,0.000000,0.000000,0.000000,0.000000,1769696051.856581,0.000000
132.000000,8366.727336,11964.419420,-2154.462296,-4008.763016,-133.954005,-15434.997134,-4521.288517,482.976494,13800.682283,8662.530322,-14767.194065,8251.995832,12054.362840,-5397.052216,-11977.182266,4257.917912,0.005000,-0.012000,1.009000,192.000000,0.000000,0.000000,0.000000,0.000000,0.000000,0.000000,0.000000,0.000000,0.000000,1769696051.856592,0.000000
134.000000,8210.063959,11805.900849,-2306.811787,-4163.101812,-283.308361,-15597.091984,-4672.185143,328.592995,13920.599392,8782.134507,-14645.310002,8363.821609,12174.838743,-5278.252694,-11858.740373,4400.946725,0.006500,-0.012000,1.007500,192.000000,0.000000,32.000000,127.500000,80.000000,15.500000,56.000000,0.000000,0.000000,0.000000,1769696051.856604,0.000000
136.000000,8250.095934,11845.575195,-2272.792431,-4136.726753,-253.669948,-15544.654792,-4642.814951,365.406318,13686.330758,8536.958222,-14882.774935,8133.799807,11933.864586,-5510.040284,-12099.803936,4196.540021,0.006500,-0.012000,1.007500,192.000000,0.000000,0.000000,0.000000,0.000000,0.000000,0.000000,0.000000,0.000000,0.000000,1769696051.856616,0.000000
138.000000,8384.541677,11978.456316,-2138.346689,-4004.583240,-124.096885,-15421.608439,-4508.972705,496.186375,13968.141552,8818.746664,-14596.739661,8402.065444,12217.865851,-5257.398517,-11826.486805,4418.135216,0.006500,-0.012000,1.007500,192.000000,0.000000,0.000000,0.000000,0.000000,0.000000,0.000000,0.000000,0.000000,0.000000,1769696051.856628,0.000000
140.000000,8152.284700,11743.248909,-2376.459822,-4247.010260,-358.767850,-15671.880921,-4742.056697,262.163611,13795.004939,8637.295203,-14775.531265,8228.906480,12034.626250,-5425.371876,-12011.559249,4288.428043,0.006500,-0.012000,1.007500,192.000000,0.000000,0.000000,0.000000,0.000000,0.000000,0.000000,0.000000,0.000000,0.000000,1769696051.856640,0.000000
142.000000,8402.959514,11995.309531,-2134.949223,-4007.779540,-136.233882,-15432.292573,-4505.128205,512.547852,13806.381977,8647.442895,-14760.980280,8236.550777,12038.135474,-5419.694533,-12018.644752,4237.801342,0.006500,-0.012000,1.007500,192.000000,0.000000,0.000000,0.000000,0.000000,0.000000,0.000000,0.000000,0.000000,0.000000,1769696051.856651,0.000000
144.000000,8253.001660,11843.496483,-2285.354112,-4165.426393,-295.713579,-15609.251333,-4649.319309,365.383967,13963.693555,8798.674798,-14602.126432,8385.301636,12188.518010,-5271.770689,-11879.326329,4370.190724,0.006250,-0.011000,1.007750,192.000000,0.000000,24.000000,127.500000,88.000000,15.500000,64.000000,0.000000,0.000000,0.000000,1769696051.856663,0.000000
146.000000,8301.527298,11896.403062,-2237.297861,-4115.582003,-262.521239,-15574.472019,-4601.084244,417.932918,13742.724209,8580.030034,-14822.984019,8181.610189,11972.019013,-5501.323104,-12106.285942,4155.926902,0.006250,-0.011000,1.007750,192.000000,0.000000,0.000000,0.000000,0.000000,0.000000,0.000000,0.000000,0.000000,0.000000,1769696051.856675,0.000000
148.000000,8402.758348,11998.036444,-2131.663517,-4013.948621,-155.970473,-15456.812436,-4500.054359,519.141617,13995.321273,8839.958470,-14562.429734,8431.748561,12217.888202,-5249.955386,-11843.742352,4358.232541,0.006250,-0.011000,1.007750,192.000000,0.000000,0.000000,0.000000,0.000000,0.000000,0.000000,0.000000,0.000000,0.000000,1769696051.856691,0.000000
150.000000,8161.270101,11753.821284,-2377.823279,-4256.420345,-385.254667,-15698.613608,-4745.700031,270.120832,13788.724099,8629.002706,-14775.151286,8228.772369,12011.000456,-5446.673089,-12041.018849,4211.158062,0.006250,-0.011000,1.007750,192.000000,0.000000,0.000000,0.000000,0.000000,0.000000,0.000000,0.000000,0.000000,0.000000,1769696051.856703,0.000000
152.000000,8415.700008,12009.413482,-2120.889976,-3994.882583,-115.245594,-15434.751264,-4495.047569,522.069695,13818.429568,8658.931692,-14748.195082,8250.185341,12057.112105,-5417.414655,-11991.800307,4214.309658,0.006250,-0.011000,1.007750,192.000000,0.000000,0.000000,0.000000,0.000000,0.000000,0.000000,0.000000,0.000000,0.000000,1769696051.856714,0.000000
154.000000,8249.291271,11841.216605,-2286.806975,-4153.535265,-262.856515,-15593.672168,-4655.667204,352.017623,13961.212511,8804.799176,-14606.283856,8385.368691,12194.508278,-5275.771651,-11830.353657,4390.821384,0.007125,-0.011500,1.005875,192.000000,0.000000,32.000000,127.500000,80.000000,15.500000,48.000000,0.000000,0.000000,0.000000,1769696051.856726,0.000000
156.000000,8255.795629,11849.933785,-2280.056748,-4148.416716,-264.287026,-15575.790772,-4651.554483,357.762022,13711.409415,8553.096182,-14862.926586,8145.020383,11956.216330,-5513.504805,-12073.361823,4181.407890,0.007125,-0.011500,1.005875,192.000000,0.000000,0.000000,0.000000,0.000000,0.000000,0.000000,0.000000,0.000000,0.000000,1769696051.856738,0.000000
158.000000,8387.313293,11982.122002,-2145.633357,-4012.339295,-128.790752,-15435.399465,-4515.074732,490.956067,13958.373840,8803.659237,-14610.865964,8387.536810,12185.299359,-5272.776517,-11819.669523,4394.062387,0.007125,-0.011500,1.005875,192.000000,0.000000,0.000000,0.000000,0.000000,0.000000,0.000000,0.000000,0.000000,0.000000,1769696051.856750,0.000000
160.000000,8152.731735,11747.629851,-2388.954447,-4248.105496,-360.533638,-15663.878997,-4752.159685,249.758393,13772.116753,8626.029924,-14803.269780,8213.886108,12003.982008,-5435.988955,-12007.223011,4272.848877,0.007125,-0.011500,1.005875,192.000000,0.000000,0.000000,0.000000,0.000000,0.000000,0.000000,0.000000,0.000000,0.000000,1769696051.856761,0.000000
162.000000,8422.629049,12019.807043,-2124.667421,-3980.644522,-97.207737,-15387.723194,-4491.739511,514.224233,13820.374169,8670.264026,-14759.952099,8250.610024,12040.996497,-5401.723731,-11974.745926,4287.153994,0.007125,-0.011500,1.005875,192.000000,0.000000,0.000000,0.000000,0.000000,0.000000,0.000000,0.000000,0.000000,0.000000,1769696051.856773,0.000000
164.000000,8242.563396,11836.679201,-2298.474586,-4160.464306,-283.218954,-15561.999746,-4660.808106,339.143019,13960.854883,8806.877888,-14617.482080,8383.625255,12194.530629,-5266.898008,-11842.468303,4445.314937,0.006563,-0.011750,1.003938,192.000000,0.000000,24.000000,127.500000,80.000000,15.500000,40.000000,0.000000,0.000000,0.000000,1769696051.856784,0.000000
166.000000,8261.763544,11858.762724,-2284.728263,-4150.741297,-287.555192,-15541.212623,-4645.273643,360.377176,13701.865220,8542.903786,-14874.773011,8135.118560,11945.755714,-5518.131616,-12111.225678,4210.442807,0.006563,-0.011750,1.003938,192.000000,0.000000,0.000000,0.000000,0.000000,0.000000,0.000000,0.000000,0.000000,0.000000,1769696051.856796,0.000000
168.000000,8420.192709,12018.376531,-2137.452619,-4003.666819,-144.749897,-15420.021465,-4500.300229,515.699448,13964.431162,8818.903127,-14607.401443,8395.046996,12185.008786,-5254.917473,-11868.642195,4388.116823,0.006563,-0.011750,1.003938,192.000000,0.000000,0.000000,0.000000,0.000000,0.000000,0.000000,0.000000,0.000000,0.000000,1769696051.856808,0.000000
170.000000,8195.647084,11790.366386,-2368.748470,-4241.444676,-373.318836,-15680.799267,-4734.121827,285.342370,13825.090387,8673.661491,-14754.766495,8264.177533,12041.443532,-5419.850996,-12024.500909,4255.727441,0.006563,-0.011750,1.003938,192.000000,0.000000,0.000000,0.000000,0.000000,0.000000,0.000000,0.000000,0.000000,0.000000,1769696051.856820,0.000000
172.000000,8458.369489,12057.089753,-2105.020238,-3985.539554,-122.219339,-15426.816395,-4476.540324,547.707146,13843.016487,8689.173602,-14737.533300,8277.566228,12078.010986,-5407.334019,-12009.279371,4204.631353,0.006563,-0.011750,1.003938,192.000000,0.000000,0.000000,0.000000,0.000000,0.000000,0.000000,0.000000,0.000000,0.000000,1769696051.856831,0.000000
174.000000,8278.594408,11872.844323,-2277.821574,-4164.957007,-295.132434,-15609.027816,-4647.173541,369.250818,13990.403889,8832.068304,-14586.793135,8416.482319,12199.537420,-5250.357717,-11852.012497,4355.192704,0.007281,-0.013875,1.003969,192.000000,0.000000,32.000000,127.500000,64.000000,15.500000,48.000000,0.000000,0.000000,0.000000,1769696051.856843,0.000000
176.000000,8293.994760,11889.541076,-2266.645702,-4148.103791,-275.574657,-15582.317481,-4636.601166,385.098205,13725.088683,8562.908597,-14850.677830,8160.845418,11942.067676,-5529.151026,-12110.197498,4123.338058,0.007281,-0.013875,1.003969,192.000000,0.000000,0.000000,0.000000,0.000000,0.000000,0.000000,0.000000,0.000000,0.000000,1769696051.856855,0.000000
178.000000,8441.069238,12038.157825,-2116.531386,-3987.931190,-99.644077,-15414.344122,-4483.692883,532.060925,13999.545753,8844.205301,-14572.756240,8426.473549,12217.955258,-5240.053563,-11820.585945,4371.375367,0.007281,-0.013875,1.003969,192.000000,0.000000,0.000000,0.000000,0.000000,0.000000,0.000000,0.000000,0.000000,0.000000,1769696051.856867,0.000000
180.000000,8182.906590,11778.452906,-2372.771784,-4238.829522,-354.230446,-15673.803171,-4743.017822,267.483326,13825.023332,8668.073555,-14760.689707,8252.934605,12060.956605,-5400.203812,-11983.507810,4269.965502,0.007281,-0.013875,1.003969,192.000000,0.000000,0.000000,0.000000,0.000000,0.000000,0.000000,0.000000,0.000000,0.000000,1769696051.856879,0.000000
182.000000,8419.343343,12016.588392,-2134.926872,-4002.303362,-127.203778,-15418.568601,-4508.928002,502.221346,13807.298399,8653.008479,-14779.040489,8232.885090,12041.398828,-5444.706135,-11996.874153,4232.906310,0.007281,-0.013875,1.003969,192.000000,0.000000,0.000000,0.000000,0.000000,0.000000,0.000000,0.000000,0.000000,0.000000,1769696051.856890,0.000000
184.000000,8269.787821,11860.841436,-2279.967341,-4147.723812,-268.958541,-15562.111504,-4645.921844,355.437440,13968.052145,8814.119853,-14611.312999,8392.409491,12194.821202,-5238.712458,-11827.045599,4419.051638,0.007281,-0.013875,1.003969,192.000000,0.000000,0.000000,0.000000,0.000000,0.000000,0.000000,0.000000,0.000000,0.000000,1769696051.856902,0.000000
186.000000,8272.380623,11862.607224,-2282.291923,-4147.455591,-276.982817,-15554.981298,-4650.392193,355.280978,13719.143119,8558.415897,-14863.507731,8149.423677,11945.599251,-5513.393046,-12082.011948,4211.336876,0.006000,-0.014000,1.010000,192.000000,0.000000,24.000000,127.500000,72.000000,15.500000,72.000000,0.000000,0.000000,0.000000,1769696051.856914,0.000000
188.000000,8387.313293,11976.288197,-2165.392299,-4037.015621,-156.864543,-15435.198299,-4533.850197,468.425509,13942.325287,8782.000396,-14633.843557,8362.636967,12176.135144,-5288.042758,-11859.612091,4391.179012,0.006000,-0.014000,1.010000,192.000000,0.000000,0.000000,0.000000,0.000000,0.000000,0.000000,0.000000,0.000000,0.000000,1769696051.856926,0.000000
190.000000,8185.946427,11770.987424,-2370.022520,-4252.084106,-348.106068,-15634.911136,-4739.910929,261.805983,13808.371283,8635.752933,-14779.509876,8220.502224,12052.328831,-5429.350487,-12005.993665,4280.582581,0.006000,-0.014000,1.010000,192.000000,0.000000,0.000000,0.000000,0.000000,0.000000,0.000000,0.000000,0.000000,0.000000,1769696051.856947,0.000000
192.000000,8450.076991,12040.102427,-2115.190281,-4003.242135,-115.066780,-15383.386956,-4494.421720,520.102742,13820.776501,8651.376802,-14764.914187,8232.885090,12045.891529,-5431.943289,-12003.870249,4229.866472,0.006000,-0.014000,1.010000,192.000000,0.000000,0.000000,0.000000,0.000000,0.000000,0.000000,0.000000,0.000000,0.000000,1769696051.856964,0.000000
194.000000,8306.623495,11892.737376,-2261.594207,-4145.287471,-261.604817,-15541.078513,-4635.125951,377.811537,14009.939314,8843.288880,-14574.678490,8420.840910,12243.100970,-5212.672676,-11820.295372,4412.547280,0.006000,-0.014000,1.010000,192.000000,0.000000,0.000000,0.000000,0.000000,0.000000,0.000000,0.000000,0.000000,0.000000,1769696051.856979,0.000000
196.000000,8282.237742,11870.832666,-2287.857507,-4167.929789,-297.658181,-15573.957929,-4662.216265,357.560856,13741.159587,8570.150563,-14844.620507,8161.493619,11958.987946,-5523.384276,-12097.412300,4165.873428,0.012000,-0.006000,1.008000,192.000000,0.000000,48.000000,127.500000,104.000000,15.500000,64.000000,0.000000,0.000000,0.000000,1769696051.856995,0.000000
198.000000,8439.772837,12028.233651,-2130.121247,-4005.432606,-136.345641,-15419.663837,-4504.010618,516.772332,13969.259139,8804.530955,-14610.754205,8384.675787,12190.194391,-5283.237133,-11868.373974,4346.363765,0.012000,-0.006000,1.008000,192.000000,0.000000,0.000000,0.000000,0.000000,0.000000,0.000000,0.000000,0.000000,0.000000,1769696051.857023,0.000000
200.000000,8211.136843,11798.413014,-2356.544418,-4232.705144,-350.318891,-15652.032572,-4727.818635,287.622248,13843.687039,8675.427279,-14741.869538,8264.736326,12054.809875,-5401.030827,-11986.100612,4276.827488,0.012000,-0.006000,1.008000,192.000000,0.000000,0.000000,0.000000,0.000000,0.000000,0.000000,0.000000,0.000000,0.000000,1769696051.857041,0.000000
202.000000,8452.423924,12043.723410,-2117.537214,-3989.518164,-112.518682,-15418.970933,-4492.052435,527.881149,13831.348876,8673.639139,-14748.195082,8258.410783,12058.922596,-5411.916126,-11987.575828,4232.548682,0.012000,-0.006000,1.008000,192.000000,0.000000,0.000000,0.000000,0.000000,0.000000,0.000000,0.000000,0.000000,0.000000,1769696051.857058,0.000000
204.000000,8287.088071,11877.895818,-2281.241391,-4150.674242,-274.233553,-15584.887932,-4649.878103,363.506420,13986.939369,8832.023601,-14591.978740,8407.228697,12211.853231,-5252.212912,-11825.726846,4405.506480,0.012000,-0.006000,1.008000,192.000000,0.000000,0.000000,0.000000,0.000000,0.000000,0.000000,0.000000,0.000000,0.000000,1769696051.857076,0.000000
206.000000,8288.205658,11880.913303,-2279.117975,-4143.901663,-279.754434,-15570.895740,-4645.273643,368.803784,13725.558069,8568.585940,-14857.182188,8154.363412,11942.380600,-5525.619450,-12094.394814,4180.044434,0.010000,-0.010000,1.012000,192.000000,0.000000,40.000000,127.500000,88.000000,15.500000,80.000000,0.000000,0.000000,0.000000,1769696051.857090,0.000000
208.000000,8433.112017,12024.076226,-2136.603252,-4002.415121,-134.311632,-15425.005904,-4504.301191,506.937564,13973.595378,8823.552289,-14604.272199,8394.488203,12197.190487,-5255.096287,-11845.217567,4394.040035,0.010000,-0.010000,1.012000,192.000000,0.000000,0.000000,0.000000,0.000000,0.000000,0.000000,0.000000,0.000000,0.000000,1769696051.857107,0.000000
210.000000,8198.105776,11786.276017,-2369.687244,-4243.657499,-362.701757,-15652.926642,-4738.994508,269.562038,13820.530632,8659.155209,-14767.261120,8236.975460,12058.564968,-5400.092053,-12002.976179,4288.159822,0.010000,-0.010000,1.012000,192.000000,0.000000,0.000000,0.000000,0.000000,0.000000,0.000000,0.000000,0.000000,0.000000,1769696052.338483,0.000000
212.000000,8439.929299,12029.708866,-2126.075581,-4014.842691,-137.217359,-15424.357703,-4502.401293,511.430265,13823.011675,8666.620692,-14759.706230,8241.781085,12048.953718,-5443.879121,-12000.025749,4240.103571,0.010000,-0.010000,1.012000,192.000000,0.000000,0.000000,0.000000,0.000000,0.000000,0.000000,0.000000,0.000000,0.000000,1769696052.338550,0.000000
214.000000,8294.642960,11882.299111,-2270.043167,-4158.385594,-279.039178,-15598.857772,-4641.116219,367.172106,13987.364052,8824.893394,-14593.900990,8396.477508,12194.620036,-5261.935921,-11841.373067,4383.177088,0.010000,-0.010000,1.012000,192.000000,0.000000,0.000000,0.000000,0.000000,0.000000,0.000000,0.000000,0.000000,0.000000,1769696052.338606,0.000000
216.000000,8303.762472,11892.670321,-2267.517420,-4158.072669,-283.934210,-15598.433089,-4642.367916,375.777528,13730.810729,8565.367289,-14851.393086,8148.730773,11938.401990,-5521.238508,-12102.150870,4138.671355,0.004000,-0.008000,1.006000,192.000000,0.000000,16.000000,127.500000,96.000000,15.500000,56.000000,0.000000,0.000000,0.000000,1769696052.338660,0.000000
218.000000,8476.541457,12066.566892,-2099.164081,-3989.182888,-112.675144,-15417.786290,-4475.668606,550.121135,13994.851887,8835.264604,-14575.483152,8410.760273,12205.751205,-5247.250825,-11835.069875,4347.861331,0.004000,-0.008000,1.006000,192.000000,0.000000,0.000000,0.000000,0.000000,0.000000,0.000000,0.000000,0.000000,0.000000,1769696052.338727,0.000000
220.000000,8227.967707,11817.479052,-2353.169305,-4238.762467,-355.280978,-15659.363944,-4728.735057,298.529899,13858.193321,8692.347549,-14719.070759,8279.242608,12067.796238,-5409.703304,-11978.970406,4256.152124,0.004000,-0.008000,1.006000,192.000000,0.000000,0.000000,0.000000,0.000000,0.000000,0.000000,0.000000,0.000000,0.000000,1769696052.338776,0.000000
222.000000,8443.974965,12036.727314,-2139.263110,-4020.430627,-139.296071,-15425.117663,-4519.299211,510.267974,13831.237117,8671.851000,-14746.049314,8251.526445,12057.402677,-5431.473903,-12006.507755,4201.189184,0.004000,-0.008000,1.006000,192.000000,0.000000,0.000000,0.000000,0.000000,0.000000,0.000000,0.000000,0.000000,0.000000,1769696052.338796,0.000000
224.000000,8306.623495,11897.543001,-2265.192838,-4141.778248,-268.131526,-15564.234920,-4636.936442,377.364502,13987.766384,8830.011944,-14589.765917,8402.356017,12189.926170,-5225.971964,-11843.161207,4379.913733,0.004000,-0.008000,1.006000,192.000000,0.000000,0.000000,0.000000,0.000000,0.000000,0.000000,0.000000,0.000000,0.000000,1769696052.338820,0.000000
226.000000,8293.033635,11886.344777,-2288.304542,-4154.965777,-295.668876,-15590.341758,-4654.571969,362.925275,13735.549299,8576.252589,-14845.067542,8160.800715,11944.593423,-5508.676828,-12096.764099,4168.779155,0.002000,-0.010000,1.010000,192.000000,0.000000,8.000000,127.500000,88.000000,15.500000,72.000000,0.000000,0.000000,0.000000,1769696052.338840,0.000000
228.000000,8441.739791,12039.565985,-2146.795648,-4007.131339,-148.192066,-15438.662820,-4508.168043,511.474968,13966.286357,8818.970182,-14605.836821,8392.185973,12190.373205,-5275.615189,-11866.719945,4358.321948,0.002000,-0.010000,1.010000,192.000000,0.000000,0.000000,0.000000,0.000000,0.000000,0.000000,0.000000,0.000000,0.000000,1769696052.338858,0.000000
230.000000,8203.961933,11801.095224,-2375.833973,-4243.635147,-373.654112,-15663.990756,-4737.608700,276.781652,13814.160384,8664.698442,-14760.175617,8250.855893,12046.003288,-5422.957888,-12013.570906,4259.013147,0.002000,-0.010000,1.010000,192.000000,0.000000,0.000000,0.000000,0.000000,0.000000,0.000000,0.000000,0.000000,0.000000,1769696052.338877,0.000000
232.000000,8453.072125,12049.780732,-2124.734476,-3998.235345,-126.332060,-15434.304230,-4493.907630,521.667364,13823.503414,8672.655663,-14752.553672,8254.409820,12044.215148,-5411.782016,-12002.573848,4222.915080,0.002000,-0.010000,1.010000,192.000000,0.000000,0.000000,0.000000,0.000000,0.000000,0.000000,0.000000,0.000000,0.000000,1769696052.338896,0.000000
234.000000,8307.517565,11899.644065,-2270.065519,-4151.277739,-272.624227,-15594.990920,-4635.215358,376.313970,13989.845096,8829.587260,-14585.362623,8410.447348,12211.048569,-5267.300340,-11832.477073,4380.718396,0.002000,-0.010000,1.010000,192.000000,0.000000,0.000000,0.000000,0.000000,0.000000,0.000000,0.000000,0.000000,0.000000,1769696052.338914,0.000000
236.000000,8307.897545,11903.130937,-2276.189897,-4159.503181,-284.202431,-15595.974397,-4644.156056,379.376159,13729.380218,8568.295368,-14847.794455,8163.907607,11955.031688,-5526.021782,-12103.559030,4125.573233,0.006000,-0.010000,1.006000,192.000000,0.000000,24.000000,127.500000,88.000000,15.500000,56.000000,0.000000,0.000000,0.000000,1769696052.338933,0.000000
238.000000,8472.741660,12067.796238,-2119.392409,-4004.560888,-138.580816,-15450.933927,-4490.107833,541.202788,13989.889799,8833.275298,-14578.120658,8420.304468,12204.544211,-5243.182807,-11854.650003,4322.715619,0.006000,-0.010000,1.006000,192.000000,0.000000,0.000000,0.000000,0.000000,0.000000,0.000000,0.000000,0.000000,0.000000,1769696052.338951,0.000000
240.000000,8238.271861,11830.845395,-2356.410307,-4235.946147,-376.604542,-15675.859532,-4725.851682,304.319001,13846.436303,8688.301884,-14728.212622,8283.087109,12056.799180,-5410.910298,-12003.333807,4228.726533,0.006000,-0.010000,1.006000,192.000000,0.000000,0.000000,0.000000,0.000000,0.000000,0.000000,0.000000,0.000000,0.000000,1769696052.338969,0.000000
242.000000,8475.423870,12073.518285,-2119.057133,-3989.987551,-145.442801,-15419.999113,-4490.644275,543.303852,13842.636507,8691.341721,-14730.984239,8282.371853,12054.541654,-5412.452568,-12006.664217,4200.205708,0.006000,-0.010000,1.006000,192.000000,0.000000,0.000000,0.000000,0.000000,0.000000,0.000000,0.000000,0.000000,0.000000,1769696052.338988,0.000000
244.000000,8320.839205,11915.692617,-2263.114126,-4134.245710,-285.208259,-15556.925900,-4632.533149,389.613258,13996.260047,8845.278185,-14578.947673,8428.015820,12212.970819,-5247.720211,-11847.408038,4372.224733,0.006000,-0.010000,1.006000,192.000000,0.000000,0.000000,0.000000,0.000000,0.000000,0.000000,0.000000,0.000000,0.000000,1769696052.339006,0.000000
246.000000,8311.451472,11910.238792,-2268.947931,-4141.286509,-291.578506,-15569.174656,-4643.954890,378.705606,13755.621166,8601.532412,-14823.386350,8193.233096,11966.878112,-5484.492240,-12087.063442,4171.349605,0.006000,-0.010000,1.018000,192.000000,0.000000,24.000000,127.500000,88.000000,15.500000,104.000000,0.000000,0.000000,0.000000,1769696052.339025,0.000000
248.000000,8479.246018,12080.402622,-2099.633467,-3966.697033,-113.412751,-15396.060395,-4471.444127,547.304815,13983.206628,8835.689287,-14589.184772,8412.503709,12193.837725,-5243.048697,-11849.330288,4365.385099,0.006000,-0.010000,1.018000,192.000000,0.000000,0.000000,0.000000,0.000000,0.000000,0.000000,0.000000,0.000000,0.000000,1769696052.339044,0.000000
250.000000,8209.996904,11808.605410,-2368.256732,-4232.414571,-360.243065,-15661.174436,-4739.329784,274.948809,13842.927080,8688.056015,-14742.853015,8270.033690,12070.456096,-5392.246591,-11986.346482,4288.293932,0.006000,-0.010000,1.018000,192.000000,0.000000,0.000000,0.000000,0.000000,0.000000,0.000000,0.000000,0.000000,0.000000,1769696052.339070,0.000000
252.000000,8446.165436,12043.857520,-2132.825808,-3996.178984,-115.424408,-15403.861154,-4507.564546,507.652820,13838.836710,8686.022006,-14750.497311,8263.127001,12067.282148,-5380.131946,-11980.400918,4263.081165,0.006000,-0.010000,1.018000,192.000000,0.000000,0.000000,0.000000,0.000000,0.000000,0.000000,0.000000,0.000000,0.000000,1769696052.339089,0.000000
254.000000,8278.393242,11868.239864,-2301.827347,-4169.449707,-275.239381,-15562.849112,-4672.922751,334.292690,13959.290261,8800.194716,-14632.457749,8373.321101,12202.197278,-5264.908703,-11853.822989,4399.583268,0.006000,-0.010000,1.018000,192.000000,0.000000,0.000000,0.000000,0.000000,0.000000,0.000000,0.000000,0.000000,0.000000,1769696052.339108,0.000000
0.000000,8320.146301,11906.237829,-2263.829382,-4145.712155,-252.753526,-15543.470149,-4641.652661,374.235257,13744.780570,8574.687967,-14850.476664,8158.967872,11974.500057,-5498.707950,-12077.876875,4201.010370,0.006000,-0.009000,1.015000,192.000000,0.000000,24.000000,127.500000,96.000000,15.500000,80.000000,0.000000,0.000000,0.000000,1769696052.339126,0.000000
2.000000,8462.124582,12049.266642,-2118.878319,-4012.115778,-116.989030,-15433.186642,-4497.282743,519.990983,13997.131765,8825.541595,-14590.168248,8397.975075,12228.617040,-5272.910627,-11840.836625,4360.355957,0.006000,-0.009000,1.015000,192.000000,0.000000,0.000000,0.000000,0.000000,0.000000,0.000000,0.000000,0.000000,0.000000,1769696052.339160,0.000000
4.000000,8220.859852,11805.990256,-2361.573560,-4259.326072,-369.876667,-15687.325977,-4733.585386,283.107195,13845.005792,8663.178523,-14744.216471,8252.644033,12074.121782,-5442.135685,-12003.713787,4224.993792,0.006000,-0.009000,1.015000,192.000000,0.000000,0.000000,0.000000,0.000000,0.000000,0.000000,0.000000,0.000000,0.000000,1769696052.339178,0.000000
6.000000,8485.169230,12073.428878,-2099.834633,-3988.914667,-105.187309,-15434.930078,-4473.969874,549.182361,13857.120437,8682.043395,-14725.195137,8270.056041,12084.291826,-5408.071626,-11992.806136,4190.460347,0.006000,-0.009000,1.015000,192.000000,0.000000,0.000000,0.000000,0.000000,0.000000,0.000000,0.000000,0.000000,0.000000,1769696052.339197,0.000000
8.000000,8323.476711,11913.524498,-2260.901303,-4141.890006,-261.381300,-15590.185295,-4630.409733,386.372255,14010.073425,8846.328717,-14570.096382,8424.551299,12237.244813,-5242.109924,-11837.349753,4354.611558,0.006000,-0.009000,1.015000,192.000000,0.000000,0.000000,0.000000,0.000000,0.000000,0.000000,0.000000,0.000000,0.000000,1769696052.339216,0.000000
10.000000,8305.125929,11896.626579,-2275.251123,-4155.278701,-290.684437,-15595.728528,-4651.509780,366.568609,13742.903023,8577.996025,-14843.212347,8168.266197,11969.560322,-5510.979058,-12101.480317,4125.349715,0.009000,-0.009500,1.012500,192.000000,0.000000,48.000000,127.500000,88.000000,15.500000,72.000000,0.000000,0.000000,0.000000,1769696052.339237,0.000000
12.000000,8462.459858,12054.787523,-2119.168892,-3992.692112,-129.662470,-15410.767843,-4495.651066,526.025954,13980.099735,8822.166481,-14599.488926,8398.690331,12194.307112,-5265.445145,-11852.459532,4334.025602,0.009000,-0.009500,1.012500,192.000000,0.000000,0.000000,0.000000,0.000000,0.000000,0.000000,0.000000,0.000000,0.000000,1769696052.339256,0.000000
14.000000,8210.846270,11802.950418,-2377.063319,-4238.047211,-378.795013,-15654.111285,-4745.968252,273.339483,13838.970821,8678.489468,-14747.323364,8261.674137,12055.994517,-5374.231085,-11997.209429,4261.270673,0.009000,-0.009500,1.012500,192.000000,0.000000,0.000000,0.000000,0.000000,0.000000,0.000000,0.000000,0.000000,0.000000,1769696052.339274,0.000000
16.000000,8472.316977,12068.109163,-2121.985212,-3974.408385,-120.520606,-15400.620151,-4493.237077,533.692602,13835.305135,8684.479735,-14748.463303,8261.338861,12052.619404,-5397.163975,-12002.283275,4236.504941,0.009000,-0.009500,1.012500,192.000000,0.000000,0.000000,0.000000,0.000000,0.000000,0.000000,0.000000,0.000000,0.000000,1769696052.339292,0.000000
18.000000,8325.689533,11918.911269,-2266.936274,-4118.666544,-259.481401,-15525.208774,-4632.376687,386.305199,14006.094814,8856.431706,-14578.433583,8427.032343,12224.504319,-5213.075008,-11821.703532,4426.070085,0.009000,-0.009500,1.012500,192.000000,0.000000,0.000000,0.000000,0.000000,0.000000,0.000000,0.000000,0.000000,0.000000,1769696052.339311,0.000000
20.000000,8299.694455,11894.972550,-2289.153908,-4147.924977,-289.611553,-15537.368123,-4659.399946,358.231408,13746.680468,8592.278790,-14842.966478,8172.580084,11974.567112,-5476.602075,-12074.524113,4208.632315,0.010500,-0.007750,1.009250,192.000000,0.000000,48.000000,127.500000,104.000000,15.500000,56.000000,0.000000,0.000000,0.000000,1769696052.339329,0.000000
22.000000,8465.052660,12058.699078,-2123.952165,-3987.707673,-123.515740,-15368.076011,-4497.372150,518.694582,13986.537038,8838.036220,-14600.360644,8398.578572,12206.421758,-5220.361676,-11836.455683,4402.824271,0.010500,-0.007750,1.009250,192.000000,0.000000,0.000000,0.000000,0.000000,0.000000,0.000000,0.000000,0.000000,0.000000,1769696052.339348,0.000000
24.000000,8220.882204,11809.588886,-2368.770822,-4238.471894,-374.056443,-15619.846060,-4743.151932,274.747643,13836.802702,8676.097831,-14758.275718,8241.557567,12078.569779,-5392.715978,-12000.696302,4298.285162,0.010500,-0.007750,1.009250,192.000000,0.000000,0.000000,0.000000,0.000000,0.000000,0.000000,0.000000,0.000000,0.000000,1769696052.339367,0.000000
26.000000,8480.318902,12069.673785,-2109.624697,-3985.360740,-117.637231,-15364.142104,-4489.191412,538.945262,13853.454751,8686.580799,-14736.348657,8257.203788,12072.847733,-5365.871533,-12003.244400,4268.177362,0.010500,-0.007750,1.009250,192.000000,0.000000,0.000000,0.000000,0.000000,0.000000,0.000000,0.000000,0.000000,0.000000,1769696052.339390,0.000000
28.000000,8328.237632,11915.044417,-2258.219094,-4139.118390,-266.477497,-15518.413844,-4632.354335,390.596734,14020.824614,8848.362726,-14565.201350,8420.237412,12230.136958,-5227.648345,-11842.356544,4428.841702,0.010500,-0.007750,1.009250,192.000000,0.000000,0.000000,0.000000,0.000000,0.000000,0.000000,0.000000,0.000000,0.000000,1769696052.339409,0.000000
30.000000,8318.894603,11907.824803,-2266.466888,-4150.271910,-276.871059,-15545.861786,-4642.859655,383.645342,13767.020555,8583.896885,-14822.335818,8172.937712,11988.849877,-5504.027665,-12092.986654,4200.719798,0.010250,-0.007875,1.006625,192.000000,0.000000,40.000000,127.500000,96.000000,15.500000,48.000000,0.000000,0.000000,0.000000,1769696052.339427,0.000000
32.000000,8455.620224,12044.684535,-2126.030877,-4006.684304,-135.764496,-15405.470479,-4499.026179,522.248509,13988.749860,8816.824414,-14591.241132,8394.488203,12203.426624,-5267.434450,-11853.353602,4383.266495,0.010250,-0.007875,1.006625,192.000000,0.000000,0.000000,0.000000,0.000000,0.000000,0.000000,0.000000,0.000000,0.000000,1769696052.339446,0.000000
34.000000,8202.173794,11790.276979,-2372.212991,-4258.789630,-381.812499,-15662.448485,-4745.789438,270.344349,13830.946545,8651.153284,-14750.899643,8242.831617,12042.941099,-5435.921900,-12001.053929,4277.766261,0.010250,-0.007875,1.006625,192.000000,0.000000,0.000000,0.000000,0.000000,0.000000,0.000000,0.000000,0.000000,0.000000,1769696052.339464,0.000000
36.000000,8434.274308,12027.272526,-2138.391392,-4022.799912,-157.065708,-15428.738645,-4519.589784,504.233003,13816.574373,8647.286433,-14762.276681,8232.281593,12034.961526,-5454.518551,-12004.250229,4235.879092,0.010250,-0.007875,1.006625,192.000000,0.000000,0.000000,0.000000,0.000000,0.000000,0.000000,0.000000,0.000000,0.000000,1769696052.339482,0.000000
38.000000,8303.851879,11895.084309,-2274.938199,-4152.395326,-277.072224,-15556.478865,-4649.654585,371.284827,13985.598264,8819.260754,-14593.677472,8396.857488,12214.602496,-5256.415040,-11824.586907,4414.268364,0.010250,-0.007875,1.006625,192.000000,0.000000,0.000000,0.000000,0.000000,0.000000,0.000000,0.000000,0.000000,0.000000,1769696052.339501,0.000000
40.000000,8298.174536,11892.312693,-2290.427958,-4156.038661,-284.403596,-15561.418600,-4663.378556,363.394661,13734.766988,8571.581074,-14850.029629,8161.381860,11941.799455,-5496.651589,-12071.149000,4197.076463,0.012125,-0.007938,1.006312,192.000000,0.000000,56.000000,127.500000,96.000000,15.500000,56.000000,0.000000,0.000000,0.000000,1769696052.339519,0.000000
42.000000,8455.866093,12052.507645,-2130.344764,-3988.758205,-122.085228,-15383.789287,-4501.887202,521.756771,13965.414639,8817.383208,-14616.565659,8391.381310,12176.112792,-5260.818334,-11836.545090,4392.207192,0.012125,-0.007938,1.006312,192.000000,0.000000,0.000000,0.000000,0.000000,0.000000,0.000000,0.000000,0.000000,0.000000,1769696052.339538,0.000000
44.000000,8204.811299,11798.927104,-2379.499659,-4241.690545,-361.874743,-15633.324162,-4748.292833,264.041157,13840.624850,8689.039491,-14750.430256,8264.892789,12044.304555,-5390.480803,-11960.932548,4324.570814,0.012125,-0.007938,1.006312,192.000000,0.000000,0.000000,0.000000,0.000000,0.000000,0.000000,0.000000,0.000000,0.000000,1769696052.339556,0.000000
46.000000,8430.161587,12026.378456,-2157.770354,-4020.140054,-136.010365,-15402.877677,-4527.189377,491.939544,13812.014617,8660.630424,-14778.638158,8229.957012,12038.068418,-5408.541013,-11993.744909,4259.840162,0.012125,-0.007938,1.006312,192.000000,0.000000,0.000000,0.000000,0.000000,0.000000,0.000000,0.000000,0.000000,0.000000,1769696052.339574,0.000000
48.000000,8315.184214,11907.489527,-2275.832269,-4141.152399,-248.707861,-15529.343847,-4643.776076,376.626894,13985.710023,8832.694153,-14605.076862,8396.052825,12205.773557,-5235.203235,-11827.872613,4417.844643,0.012125,-0.007938,1.006312,192.000000,0.000000,0.000000,0.000000,0.000000,0.000000,0.000000,0.000000,0.000000,0.000000,1769696052.339592,0.000000
50.000000,8311.473824,11904.829670,-2285.935257,-4152.015347,-264.331730,-15538.172786,-4655.019004,372.916504,13748.401552,8587.763737,-14843.860548,8169.316729,11956.886882,-5490.996598,-12079.061518,4197.367036,0.012063,-0.007969,1.004156,192.000000,0.000000,48.000000,127.500000,96.000000,15.500000,40.000000,0.000000,0.000000,0.000000,1769696052.339610,0.000000
52.000000,8476.049718,12071.506628,-2118.654802,-3987.931190,-117.212548,-15372.814581,-4487.582086,538.498227,13994.583666,8844.764095,-14586.815487,8415.565898,12203.605438,-5236.298470,-11835.427503,4390.061425,0.012063,-0.007969,1.004156,192.000000,0.000000,0.000000,0.000000,0.000000,0.000000,0.000000,0.000000,0.000000,0.000000,1769696052.339629,0.000000
54.000000,8218.602326,11809.499479,-2367.854401,-4241.534083,-377.520964,-15647.718686,-4734.702973,283.978913,13845.452827,8691.028797,-14735.029904,8274.951074,12051.323003,-5381.249533,-11982.501982,4297.994590,0.012063,-0.007969,1.004156,192.000000,0.000000,0.000000,0.000000,0.000000,0.000000,0.000000,0.000000,0.000000,0.000000,1769696052.339646,0.000000
56.000000,8447.014802,12035.766189,-2133.675174,-4007.734836,-147.365051,-15420.043817,-4504.144729,514.179529,13819.882431,8663.200875,-14754.945309,8248.888939,12026.065532,-5397.186327,-11998.975217,4250.541836,0.012063,-0.007969,1.004156,192.000000,0.000000,0.000000,0.000000,0.000000,0.000000,0.000000,0.000000,0.000000,0.000000,1769696052.339665,0.000000
58.000000,8284.696434,11869.983300,-2291.970228,-4170.723757,-305.146015,-15580.194066,-4656.628329,353.403432,13962.575968,8798.719501,-14609.591914,8378.886685,12167.261501,-5281.784270,-11848.056239,4397.906887,0.012063,-0.007969,1.004156,192.000000,0.000000,0.000000,0.000000,0.000000,0.000000,0.000000,0.000000,0.000000,0.000000,1769696052.339687,0.000000
60.000000,8281.991873,11870.162114,-2302.207327,-4178.546867,-313.013829,-15581.155191,-4667.156001,348.173123,13724.082854,8551.062173,-14850.074333,8144.998031,11936.636202,-5525.686506,-12083.844791,4189.879202,0.011031,-0.008984,1.006078,192.000000,0.000000,40.000000,127.500000,88.000000,15.500000,64.000000,0.000000,0.000000,0.000000,1769696052.339705,0.000000
62.000000,8426.898232,12017.974200,-2153.925854,-4026.443246,-159.680862,-15435.153596,-4522.651973,492.252468,13933.921031,8769.058736,-14636.212842,8350.969356,12134.404437,-5303.040779,-11863.791867,4358.903093,0.011031,-0.008984,1.006078,192.000000,0.000000,0.000000,0.000000,0.000000,0.000000,0.000000,0.000000,0.000000,0.000000,1769696052.339724,0.000000
64.000000,8177.989206,11768.752249,-2395.056474,-4265.562208,-387.892173,-15674.585482,-4765.458973,242.650538,13808.483041,8642.637270,-14768.669280,8233.265070,12026.557270,-5429.797522,-11975.349423,4293.010151,0.011031,-0.008984,1.006078,192.000000,0.000000,0.000000,0.000000,0.000000,0.000000,0.000000,0.000000,0.000000,0.000000,1769696052.339742,0.000000
66.000000,8417.085817,12008.966447,-2156.049270,-4026.420894,-151.656586,-15422.055474,-4532.330278,480.875430,13776.073012,8612.462415,-14801.951027,8200.296247,11995.622456,-5455.077345,-12001.635075,4233.085124,0.011031,-0.008984,1.006078,192.000000,0.000000,0.000000,0.000000,0.000000,0.000000,0.000000,0.000000,0.000000,0.000000,1769696052.339760,0.000000
68.000000,8281.656597,11870.653852,-2293.020760,-4165.448745,-286.415253,-15567.453571,-4659.198780,346.921426,13960.340793,8796.484327,-14616.632714,8379.132554,12176.202199,-5257.376165,-11819.669523,4412.882556,0.011031,-0.008984,1.006078,192.000000,0.000000,0.000000,0.000000,0.000000,0.000000,0.000000,0.000000,0.000000,0.000000,1769696052.339779,0.000000
70.000000,8278.415594,11868.843361,-2311.483301,-4188.314580,-306.800044,-15587.592493,-4678.913019,343.367498,13708.190764,8537.673478,-14873.901293,8132.123426,11920.610001,-5530.961517,-12102.776718,4167.460402,0.011031,-0.008984,1.006078,192.000000,0.000000,0.000000,0.000000,0.000000,0.000000,0.000000,0.000000,0.000000,0.000000,1769696052.339797,0.000000
72.000000,8485.459803,12076.088736,-2107.993020,-3984.511374,-97.945344,-15379.274235,-4478.261409,553.362137,13990.180372,8825.876871,-14584.602664,8403.697122,12187.936865,-5259.298415,-11844.614070,4375.644550,0.010000,-0.008000,1.000000,192.000000,0.000000,40.000000,127.500000,96.000000,15.500000,32.000000,0.000000,0.000000,0.000000,1769696052.339816,0.000000
74.000000,8226.179567,11815.377988,-2362.847610,-4248.105496,-358.209057,-15645.148235,-4734.412400,297.457015,13847.442132,8673.661491,-14729.620782,8265.518637,12053.066439,-5407.781054,-11997.276485,4270.211371,0.010000,-0.008000,1.000000,192.000000,0.000000,0.000000,0.000000,0.000000,0.000000,0.000000,0.000000,0.000000,0.000000,1769696052.818160,0.000000
76.000000,8453.496808,12046.003288,-2130.411819,-4016.742589,-143.028813,-15407.884468,-4505.619944,528.909329,13834.053437,8661.591549,-14735.834567,8258.164913,12039.320116,-5414.486577,-12004.652560,4221.037533,0.010000,-0.008000,1.000000,192.000000,0.000000,0.000000,0.000000,0.000000,0.000000,0.000000,0.000000,0.000000,0.000000,1769696052.818230,0.000000
78.000000,8307.942248,11897.408890,-2267.405661,-4149.869579,-280.760262,-15574.539074,-4633.181349,383.645342,13986.402927,8817.986705,-14582.635711,8409.754444,12191.803717,-5261.757107,-11843.876462,4386.909829,0.010000,-0.008000,1.000000,192.000000,0.000000,0.000000,0.000000,0.000000,0.000000,0.000000,0.000000,0.000000,0.000000,1769696052.818282,0.000000
80.000000,8281.030748,11872.732565,-2293.691313,-4174.255332,-323.250928,-15602.769327,-4657.567103,356.644435,13728.307334,8562.752135,-14848.017972,8160.957177,11951.611871,-5515.874090,-12095.780622,4167.192181,0.010000,-0.008000,1.000000,192.000000,0.000000,0.000000,0.000000,0.000000,0.000000,0.000000,0.000000,0.000000,0.000000,1769696052.818331,0.000000
82.000000,8437.694125,12031.251136,-2141.095953,-4014.663877,-165.760537,-15435.287706,-4501.864851,512.391390,13961.257215,8801.602876,-14608.496679,8387.000368,12157.225568,-5289.450918,-11854.270024,4353.605730,0.004000,-0.010000,1.006000,192.000000,0.000000,16.000000,127.500000,88.000000,15.500000,56.000000,0.000000,0.000000,0.000000,1769696052.818379,0.000000
84.000000,8173.272988,11766.271206,-2406.478215,-4275.866363,-418.938746,-15706.526125,-4763.894351,249.736041,13785.706614,8626.253441,-14789.970492,8217.864718,11995.376586,-5439.319365,-12022.690418,4235.387353,0.004000,-0.010000,1.006000,192.000000,0.000000,0.000000,0.000000,0.000000,0.000000,0.000000,0.000000,0.000000,0.000000,1769696052.818427,0.000000
86.000000,8460.627015,12059.257872,-2125.248566,-3987.417100,-133.082286,-15404.576409,-4487.202106,534.318451,13812.685169,8662.172694,-14758.990974,8249.514788,12024.903241,-5431.026868,-11989.006339,4235.677926,0.004000,-0.010000,1.006000,192.000000,0.000000,0.000000,0.000000,0.000000,0.000000,0.000000,0.000000,0.000000,0.000000,1769696052.818474,0.000000
88.000000,8297.235763,11893.720853,-2279.341493,-4142.158227,-276.513431,-15557.395286,-4635.550634,370.815441,13986.782907,8837.008040,-14587.508391,8416.392912,12199.313903,-5242.534607,-11811.667599,4412.480225,0.004000,-0.010000,1.006000,192.000000,0.000000,0.000000,0.000000,0.000000,0.000000,0.000000,0.000000,0.000000,0.000000,1769696052.818491,0.000000
90.000000,8239.814131,11834.824006,-2330.035249,-4199.445748,-334.762077,-15623.087063,-4688.658379,314.958431,13685.637854,8527.391675,-14892.117964,8123.294487,11904.963780,-5549.357003,-12102.463794,4153.602320,0.004000,-0.010000,1.006000,192.000000,0.000000,0.000000,0.000000,0.000000,0.000000,0.000000,0.000000,0.000000,0.000000,1769696052.818512,0.000000
92.000000,8430.541567,12022.042217,-2138.637261,-4025.727990,-142.157095,-15437.478177,-4503.384769,502.981305,13939.151339,8776.434812,-14632.547156,8365.207418,12164.199312,-5294.770634,-11851.610166,4349.180084,0.002000,-0.006000,1.008000,192.000000,0.000000,8.000000,127.500000,104.000000,15.500000,64.000000,0.000000,0.000000,0.000000,1769696052.818537,0.000000
94.000000,8191.109680,11779.056404,-2386.875735,-4272.960636,-386.841641,-15689.203523,-4749.321014,264.979931,13808.304227,8631.640212,-14769.920977,8228.504149,12011.894526,-5444.035583,-12002.618552,4238.985984,0.002000,-0.006000,1.008000,192.000000,0.000000,0.000000,0.000000,0.000000,0.000000,0.000000,0.000000,0.000000,0.000000,1769696052.818551,0.000000
96.000000,8431.994430,12024.255040,-2157.837410,-4045.464581,-181.362055,-15457.214768,-4525.468293,508.390428,13798.290646,8624.979392,-14771.753820,8224.279669,12007.379473,-5462.006386,-12032.122854,4180.737338,0.002000,-0.006000,1.008000,192.000000,0.000000,0.000000,0.000000,0.000000,0.000000,0.000000,0.000000,0.000000,0.000000,1769696052.818566,0.000000
98.000000,8354.031545,11942.291193,-2231.776980,-4119.538262,-257.894428,-15564.726658,-4597.060930,432.260386,14007.190050,8834.974031,-14556.528873,8428.015820,12209.327484,-5258.471401,-11832.499425,4372.850582,0.002000,-0.006000,1.008000,192.000000,0.000000,0.000000,0.000000,0.000000,0.000000,0.000000,0.000000,0.000000,0.000000,1769696052.818580,0.000000
100.000000,8293.167745,11883.729623,-2289.466833,-4179.575047,-335.030298,-15622.707084,-4656.449515,372.961208,13750.659078,8579.046557,-14813.551583,8186.393462,11955.411667,-5491.711854,-12091.645550,4146.270948,0.002000,-0.006000,1.008000,192.000000,0.000000,0.000000,0.000000,0.000000,0.000000,0.000000,0.000000,0.000000,0.000000,1769696052.818594,0.000000
102.000000,8482.799945,12070.970186,-2096.973610,-3995.754301,-135.898606,-15423.284820,-4471.108850,556.781954,13975.517628,8802.340484,-14586.189638,8397.706854,12177.833876,-5298.950410,-11863.478942,4312.746741,0.002000,-0.006000,1.010000,192.000000,0.000000,8.000000,127.500000,104.000000,15.500000,72.000000,0.000000,0.000000,0.000000,1769696052.818608,0.000000
104.000000,8226.179567,11812.427558,-2357.326729,-4251.435906,-383.399473,-15670.629224,-4727.371601,298.239326,13856.047554,8678.198895,-14713.683988,8279.711995,12070.053765,-5414.978315,-11976.846990,4252.128810,0.002000,-0.006000,1.010000,192.000000,0.000000,0.000000,0.000000,0.000000,0.000000,0.000000,0.000000,0.000000,0.000000,1769696052.818622,0.000000
106.000000,8441.180997,12031.027619,-2145.275729,-4033.640508,-166.699310,-15452.610308,-4518.628659,513.397218,13803.520954,8632.869557,-14763.707192,8233.846215,12018.667104,-5443.856769,-12024.053874,4181.519649,0.002000,-0.006000,1.010000,192.000000,0.000000,0.000000,0.000000,0.000000,0.000000,0.000000,0.000000,0.000000,0.000000,1769696052.818636,0.000000
108.000000,8317.531147,11904.092062,-2263.874085,-4151.613015,-276.960466,-15559.697516,-4633.784847,390.082644,14003.457308,8826.033333,-14567.928263,8418.806901,12234.652011,-5256.392688,-11820.027151,4391.849565,0.002000,-0.006000,1.010000,192.000000,0.000000,0.000000,0.000000,0.000000,0.000000,0.000000,0.000000,0.000000,0.000000,1769696052.818650,0.000000
110.000000,8268.200847,11858.919186,-2311.237432,-4192.114376,-326.067248,-15606.278551,-4679.315350,341.601711,13713.354017,8532.443170,-14861.250205,8136.616127,11915.133824,-5538.918738,-12106.956495,4149.020213,0.002000,-0.006000,1.010000,192.000000,0.000000,0.000000,0.000000,0.000000,0.000000,0.000000,0.000000,0.000000,0.000000,1769696052.818664,0.000000
112.000000,8461.923416,12056.061573,-2119.615927,-3996.849537,-134.870426,-15420.803776,-4482.284723,537.335937,13954.618747,8788.348292,-14613.838746,8380.406604,12169.384917,-5285.785232,-11855.186445,4352.689308,0.006000,-0.014000,1.016000,192.000000,0.000000,24.000000,127.500000,72.000000,15.500000,96.000000,0.000000,0.000000,0.000000,1769696052.818678,0.000000
114.000000,8188.718043,11784.443174,-2389.401482,-4269.138487,-408.276964,-15706.816698,-4744.738906,268.243285,13831.997077,8661.256273,-14739.366143,8263.954015,12048.171407,-5405.769397,-11980.937359,4274.122926,0.006000,-0.014000,1.016000,192.000000,0.000000,0.000000,0.000000,0.000000,0.000000,0.000000,0.000000,0.000000,0.000000,1769696052.818691,0.000000
116.000000,8418.248107,12017.929497,-2169.773241,-4049.800819,-194.437825,-15470.648166,-4525.490645,499.270916,13780.409250,8616.843357,-14785.902475,8223.452654,11986.435889,-5478.121993,-12035.050933,4180.938504,0.006000,-0.014000,1.016000,192.000000,0.000000,0.000000,0.000000,0.000000,0.000000,0.000000,0.000000,0.000000,0.000000,1769696052.818706,0.000000
118.000000,8302.309609,11896.112489,-2279.877934,-4161.783059,-295.490062,-15591.235827,-4632.354335,388.227449,13961.391325,8795.813775,-14602.327597,8398.511517,12160.421867,-5308.159328,-11865.937634,4332.729200,0.006000,-0.014000,1.016000,192.000000,0.000000,0.000000,0.000000,0.000000,0.000000,0.000000,0.000000,0.000000,0.000000,1769696052.818720,0.000000
120.000000,8292.296027,11884.914265,-2296.597039,-4185.811184,-311.963297,-15633.502976,-4655.801315,370.077833,13717.287924,8546.860045,-14849.537891,8158.789058,11920.744112,-5538.583462,-12123.630896,4107.513023,0.006000,-0.014000,1.016000,192.000000,0.000000,0.000000,0.000000,0.000000,0.000000,0.000000,0.000000,0.000000,0.000000,1769696052.818735,0.000000
122.000000,8485.929189,12077.139268,-2101.309848,-4000.023484,-128.835455,-15437.142901,-4467.621978,561.453469,13975.584683,8801.379359,-14587.731908,8400.254953,12182.371280,-5289.942657,-11873.157248,4296.161747,0.006000,-0.010000,1.008000,192.000000,0.000000,24.000000,127.500000,88.000000,15.500000,64.000000,0.000000,0.000000,0.000000,1769696052.818753,0.000000
124.000000,8228.235928,11816.093244,-2359.874828,-4262.030633,-382.795976,-15692.221009,-4728.533891,299.692190,13864.988251,8679.294131,-14705.883229,8286.194001,12072.311291,-5404.808272,-11988.648711,4226.759580,0.006000,-0.010000,1.008000,192.000000,0.000000,0.000000,0.000000,0.000000,0.000000,0.000000,0.000000,0.000000,0.000000,1769696052.818770,0.000000
126.000000,8483.112870,12074.233541,-2109.132959,-4006.796063,-133.149342,-15436.226480,-4484.944580,551.842219,13839.708428,8656.942386,-14728.994933,8259.930701,12037.464921,-5427.160016,-12016.051950,4175.059995,0.006000,-0.010000,1.008000,192.000000,0.000000,0.000000,0.000000,0.000000,0.000000,0.000000,0.000000,0.000000,0.000000,1769696052.818787,0.000000
128.000000,8330.003420,11920.207670,-2250.440687,-4142.091172,-272.668931,-15564.346679,-4624.486521,402.845490,14007.748843,8829.542557,-14559.769876,8429.848663,12226.739493,-5255.252749,-11837.953250,4362.747593,0.006000,-0.010000,1.008000,192.000000,0.000000,0.000000,0.000000,0.000000,0.000000,0.000000,0.000000,0.000000,0.000000,1769696052.818804,0.000000
130.000000,8288.160954,11881.785021,-2298.496938,-4175.462326,-319.764056,-15608.312560,-4670.352300,359.304292,13743.573575,8566.015490,-14830.382446,8178.413889,11947.633260,-5508.520366,-12093.009006,4159.704347,0.006000,-0.010000,1.008000,192.000000,0.000000,0.000000,0.000000,0.000000,0.000000,0.000000,0.000000,0.000000,0.000000,1769696052.818821,0.000000
132.000000,8475.513277,12072.713622,-2109.512938,-3980.555115,-128.880159,-15397.535610,-4479.311941,546.008414,13963.246520,8801.111138,-14603.333426,8398.042130,12169.586083,-5274.408194,-11857.086343,4357.986672,0.006000,-0.012000,1.004000,192.000000,0.000000,24.000000,127.500000,80.000000,15.500000,48.000000,0.000000,0.000000,0.000000,1769696052.818839,0.000000
134.000000,8189.701520,11785.963093,-2386.339293,-4252.911121,-393.837737,-15665.980061,-4751.287967,264.644654,13834.053437,8673.885009,-14740.617840,8272.581789,12056.106276,-5398.281562,-11970.074412,4297.189927,0.006000,-0.012000,1.004000,192.000000,0.000000,0.000000,0.000000,0.000000,0.000000,0.000000,0.000000,0.000000,0.000000,1769696052.818856,0.000000
136.000000,8428.038171,12027.876023,-2150.461334,-4014.932098,-148.370880,-15431.063227,-4512.526633,502.511919,13784.857247,8627.303973,-14785.321329,8225.419608,12000.964522,-5454.227978,-12005.568982,4235.968499,0.006000,-0.012000,1.004000,192.000000,0.000000,0.000000,0.000000,0.000000,0.000000,0.000000,0.000000,0.000000,0.000000,1769696052.818873,0.000000
138.000000,8275.018129,11873.559579,-2301.425016,-4165.359338,-293.657219,-15577.400098,-4654.169637,350.654167,13960.027869,8805.827356,-14611.089481,8392.677712,12180.761955,-5271.860095,-11827.492634,4406.981696,0.006000,-0.012000,1.004000,192.000000,0.000000,0.000000,0.000000,0.000000,0.000000,0.000000,0.000000,0.000000,0.000000,1769696052.818890,0.000000
140.000000,8266.993852,11866.429373,-2317.294755,-4186.995827,-325.530806,-15606.882048,-4674.733242,341.802876,13692.298674,8537.584071,-14884.428964,8136.616127,11902.572143,-5538.136427,-12109.191669,4150.853056,0.006000,-0.012000,1.004000,192.000000,0.000000,0.000000,0.000000,0.000000,0.000000,0.000000,0.000000,0.000000,0.000000,1769696052.818907,0.000000
142.000000,8472.205218,12070.210227,-2114.832653,-3997.877717,-142.671185,-15429.118625,-4476.428566,547.193056,13949.276680,8797.870135,-14619.292571,8387.559162,12152.732867,-5291.954314,-11876.174733,4318.446436,0.005000,-0.013000,1.004000,192.000000,0.000000,16.000000,127.500000,72.000000,15.500000,48.000000,0.000000,0.000000,0.000000,1769696052.818925,0.000000
144.000000,8215.786006,11809.164203,-2371.900066,-4265.383394,-403.225470,-15703.016901,-4731.529025,291.958486,13850.549024,8688.212477,-14719.338980,8288.675045,12063.907035,-5382.389472,-11999.958694,4231.900481,0.005000,-0.013000,1.004000,192.000000,0.000000,0.000000,0.000000,0.000000,0.000000,0.000000,0.000000,0.000000,0.000000,1769696052.818942,0.000000
146.000000,8468.785401,12062.342413,-2118.610098,-4020.072999,-153.847057,-15456.566567,-4487.850307,545.091992,13812.819280,8645.386534,-14752.844245,8248.508960,12018.756511,-5453.780944,-12044.438665,4147.634405,0.005000,-0.013000,1.004000,192.000000,0.000000,0.000000,0.000000,0.000000,0.000000,0.000000,0.000000,0.000000,0.000000,1769696052.818959,0.000000
148.000000,8335.680763,11924.767426,-2248.943120,-4152.596492,-275.485250,-15578.160057,-4622.988954,410.825063,14017.181279,8845.032316,-14548.571652,8442.477398,12229.421703,-5262.494715,-11833.617012,4344.396811,0.005000,-0.013000,1.004000,192.000000,0.000000,0.000000,0.000000,0.000000,0.000000,0.000000,0.000000,0.000000,0.000000,1769696052.818976,0.000000
150.000000,8306.511737,11897.610056,-2278.492126,-4172.623655,-312.119760,-15622.841194,-4655.577797,382.460699,13753.900081,8577.079603,-14820.659437,8184.605322,11955.411667,-5507.089854,-12096.719396,4118.264212,0.005000,-0.013000,1.004000,192.000000,0.000000,0.000000,0.000000,0.000000,0.000000,0.000000,0.000000,0.000000,0.000000,1769696052.818994,0.000000
152.000000,8477.435527,12068.891474,-2103.947354,-3993.854403,-133.864598,-15427.196375,-4479.133127,557.698376,13974.176523,8805.201507,-14591.308187,8401.864279,12185.925208,-5289.160346,-11860.729678,4309.975125,0.004500,-0.012500,1.003000,192.000000,0.000000,16.000000,127.500000,80.000000,15.500000,40.000000,0.000000,0.000000,0.000000,1769696052.819011,0.000000
154.000000,8214.266087,11805.006779,-2370.290741,-4253.067583,-390.797900,-15685.493134,-4740.849702,296.339428,13854.214710,8680.769346,-14714.309837,8290.396129,12063.035317,-5415.380647,-11973.427173,4261.136563,0.004500,-0.012500,1.003000,192.000000,0.000000,0.000000,0.000000,0.000000,0.000000,0.000000,0.000000,0.000000,0.000000,1769696052.819031,0.000000
156.000000,8459.732945,12054.385192,-2133.518712,-4002.370417,-149.332005,-15414.142956,-4506.402255,537.961786,13811.478175,8642.436104,-14755.459399,8249.939471,12029.284183,-5455.949063,-12013.548555,4212.677981,0.004500,-0.012500,1.003000,192.000000,0.000000,0.000000,0.000000,0.000000,0.000000,0.000000,0.000000,0.000000,0.000000,1769696052.819048,0.000000
158.000000,8345.560234,11935.853891,-2248.496085,-4114.911451,-252.597064,-15523.599449,-4617.803349,418.447008,14005.223096,8837.656240,-14565.760143,8433.223776,12219.430473,-5209.118749,-11817.568459,4422.180882,0.004500,-0.012500,1.003000,192.000000,0.000000,0.000000,0.000000,0.000000,0.000000,0.000000,0.000000,0.000000,0.000000,1769696052.819065,0.000000
160.000000,8301.057911,11891.731547,-2293.937182,-4160.643120,-298.239326,-15565.128990,-4665.904303,370.927199,13755.397648,8583.226333,-14825.554469,8184.761785,11966.475781,-5499.177337,-12066.030451,4211.493339,0.004500,-0.012500,1.003000,192.000000,0.000000,0.000000,0.000000,0.000000,0.000000,0.000000,0.000000,0.000000,0.000000,1769696052.819097,0.000000
162.000000,8477.323768,12071.864256,-2113.469197,-3982.410310,-110.261155,-15381.285892,-4482.351778,550.411707,13979.183314,8812.979914,-14596.024405,8400.567877,12197.503411,-5268.417927,-11831.851224,4382.394777,0.004500,-0.012500,1.003000,192.000000,0.000000,0.000000,127.500000,56.000000,15.500000,56.000000,0.000000,0.000000,0.000000,1769696052.819114,0.000000
164.000000,8186.840497,11781.649206,-2399.303305,-4272.334787,-390.037941,-15684.822581,-4760.630996,261.493058,13829.136053,8665.659567,-14747.233957,8262.299986,12056.687421,-5418.599298,-11974.142429,4279.397938,0.004500,-0.012500,1.003000,192.000000,0.000000,0.000000,0.000000,0.000000,0.000000,0.000000,0.000000,0.000000,0.000000,1769696052.819131,0.000000
166.000000,8460.515256,12057.335622,-2125.427380,-4001.699865,-130.422429,-15413.427700,-4486.844478,536.039536,13792.188620,8634.791808,-14780.180428,8229.062942,12008.362950,-5446.360164,-12009.793462,4209.302868,0.004500,-0.012500,1.003000,192.000000,0.000000,0.000000,0.000000,0.000000,0.000000,0.000000,0.000000,0.000000,0.000000,1769696052.819148,0.000000
168.000000,8313.038446,11905.924905,-2268.702062,-4151.367146,-273.518297,-15582.429240,-4623.257175,390.440272,13985.173581,8831.867138,-14577.807734,8426.272383,12185.768746,-5247.921377,-11812.114634,4399.225640,0.004500,-0.012500,1.003000,192.000000,0.000000,0.000000,0.000000,0.000000,0.000000,0.000000,0.000000,0.000000,0.000000,1769696052.819166,0.000000
170.000000,8267.709108,11860.796733,-2313.003220,-4197.031760,-334.739725,-15640.856700,-4670.173486,343.613368,13710.381235,8548.089391,-14857.964499,8154.363412,11922.822824,-5531.810883,-12089.164506,4154.585797,0.004500,-0.012500,1.003000,192.000000,0.000000,0.000000,0.000000,0.000000,0.000000,0.000000,0.000000,0.000000,0.000000,1769696052.819183,0.000000
172.000000,8462.906893,12057.089753,-2117.246642,-3998.794138,-142.961758,-15424.670628,-4474.461612,539.571111,13941.744142,8783.967350,-14623.807624,8374.841019,12157.203216,-5292.021369,-11855.275852,4333.086828,0.003250,-0.014250,1.005500,192.000000,0.000000,8.000000,127.500000,64.000000,15.500000,64.000000,0.000000,0.000000,0.000000,1769696052.819200,0.000000
174.000000,8209.751035,11802.078700,-2373.598799,-4250.407726,-402.487862,-15694.255018,-4730.366734,285.543535,13830.790082,8669.682881,-14735.476939,8268.402012,12043.298726,-5431.339792,-11968.778010,4273.698243,0.003250,-0.014250,1.005500,192.000000,0.000000,0.000000,0.000000,0.000000,0.000000,0.000000,0.000000,0.000000,0.000000,1769696052.819217,0.000000
176.000000,8420.393875,12014.666142,-2162.017186,-4036.523883,-191.107415,-15481.667576,-4526.071790,497.549832,13790.333425,8626.499310,-14774.078402,8229.264108,12007.021845,-5472.511705,-12012.654485,4209.638144,0.003250,-0.014250,1.005500,192.000000,0.000000,0.000000,0.000000,0.000000,0.000000,0.000000,0.000000,0.000000,0.000000,1769696052.819234,0.000000
178.000000,8317.039408,11909.590591,-2262.756498,-4133.463399,-279.977951,-15570.113429,-4624.307707,394.731807,13966.532226,8803.927458,-14598.080766,8397.796261,12171.262463,-5280.689035,-11830.934802,4394.084739,0.003250,-0.014250,1.005500,192.000000,0.000000,0.000000,0.000000,0.000000,0.000000,0.000000,0.000000,0.000000,0.000000,1769696052.819251,0.000000
180.000000,8266.211541,11858.874483,-2321.988621,-4190.415644,-336.326699,-15601.092947,-4685.506783,342.741649,13729.648439,8560.762830,-14842.675906,8166.120430,11938.513748,-5522.244337,-12071.998366,4198.551678,0.003250,-0.014250,1.005500,192.000000,0.000000,0.000000,0.000000,0.000000,0.000000,0.000000,0.000000,0.000000,0.000000,1769696052.819268,0.000000
182.000000,8454.904968,12049.311346,-2134.144561,-4002.884508,-153.265912,-15422.435453,-4493.259429,533.513788,13939.128988,8776.255998,-14627.808586,8371.689424,12164.646347,-5311.445035,-11866.094096,4355.595035,0.005625,-0.013125,1.002750,192.000000,0.000000,32.000000,127.500000,80.000000,15.500000,32.000000,0.000000,0.000000,0.000000,1769696052.819284,0.000000
184.000000,8202.374959,11793.138003,-2379.387901,-4252.419383,-388.920354,-15670.249244,-4734.457104,281.833146,13834.634582,8666.441878,-14734.873442,8269.497248,12027.473691,-5411.446740,-11965.782877,4294.887697,0.005625,-0.013125,1.002750,192.000000,0.000000,0.000000,0.000000,0.000000,0.000000,0.000000,0.000000,0.000000,0.000000,1769696052.819301,0.000000
186.000000,8418.628087,12012.430967,-2173.930666,-4042.178874,-188.648723,-15455.650145,-4532.531444,492.543041,13782.555018,8622.923031,-14787.780021,8217.350628,12002.439738,-5452.685708,-12018.935325,4209.056998,0.005625,-0.013125,1.002750,192.000000,0.000000,0.000000,0.000000,0.000000,0.000000,0.000000,0.000000,0.000000,0.000000,1769696052.819320,0.000000
188.000000,8326.874176,11917.883088,-2260.186048,-4133.172826,-281.095538,-15547.605222,-4617.557480,403.069008,13979.339776,8819.283106,-14591.442298,8403.495956,12194.821202,-5255.632729,-11835.986297,4387.356864,0.005625,-0.013125,1.002750,192.000000,0.000000,0.000000,0.000000,0.000000,0.000000,0.000000,0.000000,0.000000,0.000000,1769696052.819338,0.000000
190.000000,8277.610931,11869.692727,-2312.667944,-4189.275705,-337.332527,-15614.883973,-4673.705062,353.962225,13744.132369,8582.645188,-14829.108397,8178.145668,11945.934528,-5503.670037,-12077.429840,4177.138707,0.005625,-0.013125,1.002750,192.000000,0.000000,0.000000,0.000000,0.000000,0.000000,0.000000,0.000000,0.000000,0.000000,1769696052.819354,0.000000
192.000000,8470.685300,12062.096544,-2128.087238,-4008.517147,-151.947159,-15429.342142,-4490.152537,544.890826,13940.872424,8779.854629,-14624.031141,8370.549485,12139.008896,-5313.009657,-11887.417661,4308.365799,0.005812,-0.013563,1.002375,192.000000,0.000000,24.000000,127.500000,72.000000,15.500000,40.000000,0.000000,0.000000,0.000000,1769696052.819372,0.000000
194.000000,8217.328276,11805.923200,-2378.963218,-4270.680758,-389.143871,-15684.621416,-4743.330746,288.650428,13863.893016,8693.979227,-14706.173802,8293.123042,12065.806933,-5401.187289,-11966.699298,4266.433926,0.005812,-0.013563,1.002375,192.000000,0.000000,0.000000,0.000000,0.000000,0.000000,0.000000,0.000000,0.000000,0.000000,1769696053.298263,0.000000
196.000000,8445.561939,12036.056761,-2154.909331,-4040.591900,-171.571990,-15459.740515,-4524.037781,513.352515,13790.758108,8626.186386,-14779.979262,8220.189300,11995.913028,-5476.110336,-12038.470750,4167.415698,0.005812,-0.013563,1.002375,192.000000,0.000000,0.000000,0.000000,0.000000,0.000000,0.000000,0.000000,0.000000,0.000000,1769696053.298323,0.000000
198.000000,8339.927595,11929.036609,-2256.654472,-4141.957062,-278.860364,-15562.357374,-4624.061838,412.099113,14000.886858,8833.856444,-14568.084725,8419.790378,12220.659819,-5251.095325,-11831.784169,4381.903038,0.005812,-0.013563,1.002375,192.000000,0.000000,0.000000,0.000000,0.000000,0.000000,0.000000,0.000000,0.000000,0.000000,1769696053.298367,0.000000
200.000000,8300.029731,11893.184411,-2294.160699,-4175.194106,-312.119760,-15593.359243,-4659.534056,378.057406,13738.857357,8575.135002,-14830.583612,8173.630616,11968.219217,-5513.862433,-12091.287922,4162.654777,0.005812,-0.013563,1.002375,192.000000,0.000000,0.000000,0.000000,0.000000,0.000000,0.000000,0.000000,0.000000,0.000000,1769696053.298411,0.000000
202.000000,8494.646370,12092.472564,-2097.912383,-3974.475440,-128.723696,-15402.631808,-4461.050565,575.155088,13990.113317,8835.801045,-14569.917568,8425.691238,12192.831897,-5240.858226,-11832.767645,4364.043994,0.005812,-0.013563,1.002375,192.000000,0.000000,0.000000,0.000000,0.000000,0.000000,0.000000,0.000000,0.000000,0.000000,1769696053.298455,0.000000
204.000000,8209.616924,11804.626799,-2383.232401,-4262.343557,-406.622935,-15682.498000,-4745.722383,289.432739,13841.273050,8685.552619,-14723.965791,8284.450565,12046.606785,-5403.087187,-11982.300816,4260.734232,0.006000,-0.010000,1.012000,192.000000,0.000000,24.000000,127.500000,88.000000,15.500000,80.000000,0.000000,0.000000,0.000000,1769696053.298496,0.000000
206.000000,8447.953576,12043.745761,-2139.933662,-4018.709543,-164.486487,-15425.519994,-4507.743360,529.535178,13809.712387,8653.634328,-14756.465227,8248.710126,12018.734159,-5445.041412,-12014.576735,4199.982190,0.006000,-0.010000,1.012000,192.000000,0.000000,0.000000,0.000000,0.000000,0.000000,0.000000,0.000000,0.000000,0.000000,1769696053.298514,0.000000
208.000000,8316.100635,11910.037626,-2269.149097,-4140.370088,-284.850631,-15554.288394,-4629.180387,399.135101,13996.282398,8843.132418,-14569.962271,8427.769950,12207.315827,-5237.483113,-11825.257459,4394.196498,0.006000,-0.010000,1.012000,192.000000,0.000000,0.000000,0.000000,0.000000,0.000000,0.000000,0.000000,0.000000,0.000000,1769696053.298532,0.000000
210.000000,8266.926797,11860.215588,-2323.933223,-4196.137690,-342.562836,-15591.392290,-4685.529135,348.642510,13709.509517,8551.129228,-14860.981984,8149.088400,11916.854908,-5526.781741,-12119.048788,4149.087268,0.006000,-0.010000,1.012000,192.000000,0.000000,0.000000,0.000000,0.000000,0.000000,0.000000,0.000000,0.000000,0.000000,1769696053.298548,0.000000
212.000000,8491.584181,12083.844791,-2108.663572,-3983.863173,-119.224205,-15379.654214,-4472.986397,569.835373,13979.429183,8821.518281,-14587.798964,8406.960476,12186.126374,-5266.629787,-11862.674280,4351.549369,0.006000,-0.010000,1.012000,192.000000,0.000000,0.000000,0.000000,0.000000,0.000000,0.000000,0.000000,0.000000,0.000000,1769696053.298566,0.000000
214.000000,8252.979309,11844.837587,-2349.704784,-4231.632260,-354.096336,-15626.708046,-4713.982906,329.129437,13875.359461,8714.766349,-14697.367215,8305.416501,12092.584323,-5364.999815,-11983.284293,4277.721557,0.012000,-0.008000,1.008000,192.000000,0.000000,48.000000,127.500000,96.000000,15.500000,64.000000,0.000000,0.000000,0.000000,1769696053.298584,0.000000
216.000000,8462.437506,12055.614538,-2139.263110,-4020.184758,-148.214417,-15414.545287,-4508.548022,534.094934,13844.156425,8680.210552,-14730.961887,8273.095879,12052.328831,-5397.052216,-12016.901316,4213.616754,0.012000,-0.008000,1.008000,192.000000,0.000000,0.000000,0.000000,0.000000,0.000000,0.000000,0.000000,0.000000,0.000000,1769696053.298601,0.000000
218.000000,8342.498045,11934.356324,-2252.675861,-4134.446875,-255.994529,-15540.095036,-4614.182367,417.172959,14010.453404,8849.972051,-14562.049754,8435.146026,12224.705484,-5246.848493,-11845.061105,4378.505573,0.012000,-0.008000,1.008000,192.000000,0.000000,0.000000,0.000000,0.000000,0.000000,0.000000,0.000000,0.000000,0.000000,1769696053.298630,0.000000
220.000000,8298.241591,11890.435146,-2297.267592,-4185.610018,-311.449207,-15587.547790,-4661.858638,371.441289,13751.664907,8588.076662,-14821.352341,8186.259352,11967.392202,-5513.303639,-12099.848640,4155.658681,0.012000,-0.008000,1.008000,192.000000,0.000000,0.000000,0.000000,0.000000,0.000000,0.000000,0.000000,0.000000,0.000000,1769696053.298646,0.000000
222.000000,8495.518088,12088.449250,-2100.862813,-3988.422929,-116.698458,-15393.378185,-4464.000996,568.404861,13966.599282,8802.295780,-14601.612342,8391.381310,12184.628807,-5286.276971,-11879.840419,4324.414352,0.012000,-0.008000,1.008000,192.000000,0.000000,0.000000,0.000000,0.000000,0.000000,0.000000,0.000000,0.000000,0.000000,1769696053.298664,0.000000
224.000000,8231.879262,11820.898869,-2358.712537,-4247.814923,-372.044786,-15640.946107,-4719.861414,306.196547,13888.435231,8716.263916,-14684.000872,8312.814929,12102.888477,-5365.916236,-11954.852874,4295.222973,0.010000,-0.006000,1.002000,192.000000,0.000000,40.000000,127.500000,104.000000,15.500000,40.000000,0.000000,0.000000,0.000000,1769696053.298723,0.000000
226.000000,8444.779628,12035.520319,-2148.114401,-4032.835845,-165.179392,-15439.579241,-4513.644220,519.633355,13808.326579,8637.116389,-14763.506027,8233.667402,12023.070398,-5445.242577,-12032.949869,4189.521574,0.010000,-0.006000,1.002000,192.000000,0.000000,0.000000,0.000000,0.000000,0.000000,0.000000,0.000000,0.000000,0.000000,1769696053.298742,0.000000
228.000000,8331.545690,11919.894745,-2254.195780,-4138.425486,-255.592198,-15548.342830,-4616.484596,407.852281,14005.312503,8835.354011,-14564.374335,8423.254898,12225.308982,-5247.094363,-11829.325477,4382.506535,0.010000,-0.006000,1.002000,192.000000,0.000000,0.000000,0.000000,0.000000,0.000000,0.000000,0.000000,0.000000,0.000000,1769696053.298760,0.000000
230.000000,8277.566228,11868.753954,-2307.258821,-4191.868507,-305.973030,-15596.399080,-4669.122955,354.722185,13738.835006,8566.730746,-14831.030647,8167.617997,11947.968536,-5505.793453,-12084.828268,4158.542056,0.010000,-0.006000,1.002000,192.000000,0.000000,0.000000,0.000000,0.000000,0.000000,0.000000,0.000000,0.000000,0.000000,1769696053.298777,0.000000
232.000000,8471.936997,12064.488180,-2116.374924,-3992.289781,-111.579908,-15386.650310,-4478.306112,549.070603,13946.572119,8783.319149,-14618.845537,8370.996519,12158.231396,-5279.526744,-11871.838495,4318.669953,0.010000,-0.006000,1.002000,192.000000,0.000000,0.000000,0.000000,0.000000,0.000000,0.000000,0.000000,0.000000,0.000000,1769696053.298796,0.000000
234.000000,8221.619811,11812.204041,-2372.324750,-4249.603063,-370.793089,-15644.209462,-4731.864301,298.574602,13862.462504,8693.554544,-14707.291389,8291.401957,12090.237390,-5391.508984,-11967.705127,4277.475688,0.012000,-0.010000,1.006000,192.000000,0.000000,48.000000,127.500000,88.000000,15.500000,56.000000,0.000000,0.000000,0.000000,1769696053.298814,0.000000
236.000000,8461.968119,12054.273433,-2138.726668,-4015.960278,-152.662415,-15416.713407,-4501.104891,536.352460,13816.730835,8649.611014,-14752.173692,8248.620719,12032.011096,-5434.983127,-12031.318191,4199.892783,0.012000,-0.010000,1.006000,192.000000,0.000000,0.000000,0.000000,0.000000,0.000000,0.000000,0.000000,0.000000,0.000000,1769696053.298831,0.000000
238.000000,8368.738993,11959.904368,-2225.071457,-4102.372122,-237.822561,-15511.328341,-4580.990026,448.487752,14028.848890,8865.595921,-14535.875861,8457.967157,12230.896918,-5221.591022,-11823.871651,4408.211041,0.012000,-0.010000,1.006000,192.000000,0.000000,0.000000,0.000000,0.000000,0.000000,0.000000,0.000000,0.000000,0.000000,1769696053.298848,0.000000
240.000000,8290.686702,11882.589684,-2302.363789,-4186.571143,-323.854425,-15603.216362,-4663.535018,371.776566,13756.269366,8582.332263,-14812.255181,8191.936695,11973.628339,-5506.776930,-12100.742710,4173.361262,0.012000,-0.010000,1.006000,192.000000,0.000000,0.000000,0.000000,0.000000,0.000000,0.000000,0.000000,0.000000,0.000000,1769696053.298864,0.000000
242.000000,8485.526858,12077.452192,-2104.260278,-3988.735853,-121.302917,-15397.960293,-4464.559789,564.873286,13966.755744,8797.043121,-14591.934036,8396.343398,12192.608379,-5274.050566,-11882.187352,4334.115009,0.012000,-0.010000,1.006000,192.000000,0.000000,0.000000,0.000000,0.000000,0.000000,0.000000,0.000000,0.000000,0.000000,1769696053.298882,0.000000
244.000000,8214.355494,11803.889192,-2375.945732,-4257.403822,-391.066121,-15660.190959,-4730.053810,293.836033,13857.835693,8683.160983,-14703.581000,8291.312550,12055.994517,-5411.066760,-11985.765336,4282.728348,0.008000,-0.012000,1.006000,192.000000,0.000000,32.000000,127.500000,80.000000,15.500000,56.000000,0.000000,0.000000,0.000000,1769696053.298900,0.000000
246.000000,8441.225701,12033.531014,-2148.069697,-4028.186682,-161.133726,-15411.796023,-4507.095159,520.683887,13797.374224,8628.198043,-14763.796599,8230.582861,12007.893563,-5449.131781,-12036.727314,4208.185280,0.008000,-0.012000,1.006000,192.000000,0.000000,0.000000,0.000000,0.000000,0.000000,0.000000,0.000000,0.000000,0.000000,1769696053.298917,0.000000
248.000000,8344.755571,11935.451559,-2242.148190,-4117.928936,-245.645672,-15507.774414,-4594.937515,424.459627,14000.238657,8834.772865,-14558.115847,8425.735942,12208.142842,-5229.592947,-11823.111692,4415.922393,0.008000,-0.012000,1.006000,192.000000,0.000000,0.000000,0.000000,0.000000,0.000000,0.000000,0.000000,0.000000,0.000000,1769696053.298934,0.000000
250.000000,8256.153256,11851.096076,-2328.805903,-4200.719798,-321.060457,-15585.223208,-4681.751690,340.260606,13734.185843,8571.871647,-14830.337743,8172.848305,11944.168740,-5503.580630,-12080.492029,4201.949144,0.008000,-0.012000,1.006000,192.000000,0.000000,0.000000,0.000000,0.000000,0.000000,0.000000,0.000000,0.000000,0.000000,1769696053.298959,0.000000
252.000000,8450.188750,12047.165578,-2128.444866,-3995.843708,-119.984164,-15373.663947,-4484.765766,534.296099,13928.824833,8775.987777,-14633.508281,8362.905188,12156.912644,-5308.829881,-11870.005652,4358.947797,0.008000,-0.012000,1.006000,192.000000,0.000000,0.000000,0.000000,0.000000,0.000000,0.000000,0.000000,0.000000,0.000000,1769696053.298977,0.000000
254.000000,8201.592648,11794.836735,-2382.785366,-4251.972348,-378.280923,-15626.506880,-4735.597043,282.548402,13840.557795,8677.371881,-14727.251497,8273.811135,12053.289956,-5400.740254,-11955.948109,4319.251099,0.010000,-0.014000,1.006000,192.000000,0.000000,40.000000,127.500000,72.000000,15.500000,56.000000,0.000000,0.000000,0.000000,1769696053.298994,0.000000
0.000000,8432.195596,12027.294877,-2165.168782,-4029.594842,-163.950046,-15418.546250,-4520.953241,508.189262,13781.906817,8619.771435,-14787.131821,8214.199032,11998.774052,-5458.832438,-12034.425084,4223.898557,0.010000,-0.014000,1.006000,192.000000,0.000000,0.000000,0.000000,0.000000,0.000000,0.000000,0.000000,0.000000,0.000000,1769696053.299020,0.000000
2.000000,8357.116086,11948.147350,-2238.817780,-4107.401265,-236.257939,-15498.431384,-4592.098843,435.166113,14006.608904,8844.808798,-14559.255786,8433.491997,12206.019426,-5220.339325,-11820.183613,4431.434504,0.010000,-0.014000,1.006000,192.000000,0.000000,0.000000,0.000000,0.000000,0.000000,0.000000,0.000000,0.000000,0.000000,1769696053.299037,0.000000
4.000000,8296.140527,11887.954103,-2303.704894,-4180.759690,-314.042010,-15554.556615,-4662.193914,372.581228,13758.035154,8586.266170,-14811.897553,8193.322503,11961.625452,-5487.286209,-12080.760250,4206.531251,0.010000,-0.014000,1.006000,192.000000,0.000000,0.000000,0.000000,0.000000,0.000000,0.000000,0.000000,0.000000,0.000000,1769696053.299092,0.000000
6.000000,8492.187678,12087.286960,-2104.796720,-3986.254810,-120.989993,-15383.878694,-4462.436374,573.434004,13967.873331,8800.552344,-14592.314016,8398.913848,12163.640519,-5269.066127,-11876.599416,4353.963358,0.010000,-0.014000,1.006000,192.000000,0.000000,0.000000,0.000000,0.000000,0.000000,0.000000,0.000000,0.000000,0.000000,1769696053.299120,0.000000
8.000000,8222.513881,11814.528622,-2375.476345,-4258.856685,-394.262420,-15680.709860,-4725.494054,303.737855,13868.832751,8696.393215,-14691.779279,8306.131757,12089.186858,-5397.074568,-11973.717746,4295.155918,0.004000,-0.016000,1.004000,192.000000,0.000000,16.000000,127.500000,64.000000,15.500000,48.000000,0.000000,0.000000,0.000000,1769696053.299135,0.000000
10.000000,8440.242224,12034.670953,-2157.166857,-4039.787238,-189.431034,-15458.220596,-4513.733627,518.515768,13785.863076,8614.965810,-14772.625538,8225.129035,11978.009281,-5483.307598,-12056.374497,4181.877277,0.004000,-0.016000,1.004000,192.000000,0.000000,0.000000,0.000000,0.000000,0.000000,0.000000,0.000000,0.000000,0.000000,1769696053.299147,0.000000
12.000000,8343.526226,11935.205690,-2250.373632,-4131.854073,-265.136393,-15533.791844,-4599.609029,423.990241,14000.261009,8835.622231,-14556.238300,8436.375372,12207.226420,-5261.667700,-11829.660753,4395.783472,0.004000,-0.016000,1.004000,192.000000,0.000000,0.000000,0.000000,0.000000,0.000000,0.000000,0.000000,0.000000,0.000000,1769696053.299160,0.000000
14.000000,8251.705259,11844.099980,-2338.573615,-4222.602156,-351.771754,-15615.576877,-4692.793452,331.431667,13721.735921,8552.269167,-14841.245394,8164.466401,11918.754806,-5545.065468,-12100.407434,4164.867600,0.004000,-0.016000,1.004000,192.000000,0.000000,0.000000,0.000000,0.000000,0.000000,0.000000,0.000000,0.000000,0.000000,1769696053.299172,0.000000
16.000000,8477.927265,12070.769020,-2114.162101,-3993.720292,-119.425371,-15388.349043,-4471.913513,554.546780,13930.411807,8767.091783,-14629.015580,8367.040261,12132.482187,-5317.189433,-11883.394347,4331.410448,0.004000,-0.016000,1.004000,192.000000,0.000000,0.000000,0.000000,0.000000,0.000000,0.000000,0.000000,0.000000,0.000000,1769696053.299183,0.000000
18.000000,8211.762692,11801.698721,-2378.829107,-4256.040365,-374.838755,-15637.436883,-4735.664098,283.330713,13852.292460,8689.330064,-14710.308875,8293.368911,12062.968262,-5390.950190,-11952.729458,4320.078113,0.004000,-0.016000,1.004000,192.000000,0.000000,16.000000,127.500000,64.000000,15.500000,48.000000,0.000000,0.000000,0.000000,1769696053.299196,0.000000
20.000000,8428.641668,12022.645715,-2162.911256,-4038.222616,-159.814973,-15396.619188,-4523.121360,502.377808,13775.693032,8613.557650,-14789.657568,8215.964820,11984.915970,-5454.719717,-12021.706941,4231.341688,0.004000,-0.016000,1.004000,192.000000,0.000000,0.000000,0.000000,0.000000,0.000000,0.000000,0.000000,0.000000,0.000000,1769696053.299207,0.000000
22.000000,8317.665257,11911.848117,-2270.624312,-4145.578044,-272.892448,-15514.569344,-4622.854843,396.832871,13979.585645,8819.596031,-14582.188676,8416.057636,12189.590894,-5245.015650,-11814.662732,4434.407286,0.004000,-0.016000,1.004000,192.000000,0.000000,0.000000,0.000000,0.000000,0.000000,0.000000,0.000000,0.000000,0.000000,1769696053.299219,0.000000
24.000000,8258.164913,11850.157303,-2340.071182,-4212.655629,-347.524923,-15591.347586,-4690.312408,339.612405,13713.778700,8549.475199,-14851.884824,8161.292453,11922.554603,-5519.450369,-12093.925428,4191.399120,0.004000,-0.016000,1.004000,192.000000,0.000000,0.000000,0.000000,0.000000,0.000000,0.000000,0.000000,0.000000,0.000000,1769696053.299231,0.000000
26.000000,8481.637654,12075.105259,-2118.677153,-3993.630885,-124.476865,-15374.222740,-4470.326539,561.989911,13940.157168,8777.150068,-14618.577316,8380.272493,12153.582234,-5324.163178,-11879.929826,4344.463866,0.004000,-0.016000,1.004000,192.000000,0.000000,0.000000,0.000000,0.000000,0.000000,0.000000,0.000000,0.000000,0.000000,1769696053.299248,0.000000
28.000000,8240.417628,11829.839567,-2363.652273,-4246.719688,-369.586095,-15653.999526,-4715.033438,316.478350,13866.686984,8696.907305,-14698.283636,8307.294048,12076.222846,-5399.063873,-11968.286272,4296.251153,0.003000,-0.015000,1.005000,192.000000,0.000000,8.000000,127.500000,72.000000,15.500000,56.000000,0.000000,0.000000,0.000000,1769696053.299260,0.000000
30.000000,8466.483172,12059.593148,-2139.687793,-4028.186682,-159.658511,-15430.951468,-4494.891106,542.834466,13814.786233,8643.218415,-14746.339887,8256.063849,12016.655447,-5452.551598,-12030.491177,4200.250411,0.003000,-0.015000,1.005000,192.000000,0.000000,0.000000,0.000000,0.000000,0.000000,0.000000,0.000000,0.000000,0.000000,1769696053.299272,0.000000
32.000000,8353.070420,11942.805283,-2249.390155,-4140.906530,-264.041157,-15549.125141,-4601.330114,430.293433,14017.605962,8842.819493,-14543.453103,8449.428791,12238.943546,-5252.995223,-11826.330343,4385.345207,0.003000,-0.015000,1.005000,192.000000,0.000000,0.000000,0.000000,0.000000,0.000000,0.000000,0.000000,0.000000,0.000000,1769696053.299283,0.000000
34.000000,8280.136678,11870.184466,-2316.400685,-4211.850966,-326.402524,-15609.720720,-4670.151135,356.823248,13741.897195,8559.041746,-14822.022894,8178.525648,11939.564280,-5523.183110,-12097.546410,4146.159189,0.003000,-0.015000,1.005000,192.000000,0.000000,0.000000,0.000000,0.000000,0.000000,0.000000,0.000000,0.000000,0.000000,1769696053.299295,0.000000
36.000000,8481.771765,12072.557160,-2109.647049,-4003.756226,-124.365106,-15410.901953,-4461.117621,560.559399,13942.012363,8767.896446,-14612.475289,8372.583493,12143.948632,-5312.093236,-11877.828762,4311.427988,0.003000,-0.015000,1.005000,192.000000,0.000000,0.000000,0.000000,0.000000,0.000000,0.000000,0.000000,0.000000,0.000000,1769696053.299306,0.000000
38.000000,8200.899744,11790.880476,-2387.948619,-4270.345482,-391.669618,-15681.447468,-4734.881787,279.530916,13852.024240,8677.774212,-14710.063006,8287.289236,12066.723355,-5410.552670,-11956.775124,4287.466918,0.004500,-0.013500,1.003500,192.000000,0.000000,24.000000,127.500000,80.000000,15.500000,40.000000,0.000000,0.000000,0.000000,1769696053.299318,0.000000
40.000000,8411.274363,12006.060720,-2178.624532,-4058.160372,-179.216287,-15460.031087,-4531.905595,486.820994,13772.072050,8597.553801,-14791.624521,8208.722855,11986.927627,-5485.453365,-12030.468825,4199.333990,0.004500,-0.013500,1.003500,192.000000,0.000000,0.000000,0.000000,0.000000,0.000000,0.000000,0.000000,0.000000,0.000000,1769696053.299330,0.000000
42.000000,8320.883908,11913.479795,-2264.142306,-4145.734506,-257.827372,-15533.389513,-4617.848053,396.564650,13965.392287,8794.785594,-14598.594856,8396.410453,12179.666719,-5292.110776,-11829.683105,4390.329646,0.004500,-0.013500,1.003500,192.000000,0.000000,0.000000,0.000000,0.000000,0.000000,0.000000,0.000000,0.000000,0.000000,1769696053.299342,0.000000
44.000000,8254.789800,11847.609204,-2337.858360,-4220.836368,-334.426801,-15598.053109,-4691.295885,330.157617,13723.814633,8549.005812,-14843.905251,8162.566502,11945.398086,-5541.198616,-12070.321986,4192.427301,0.004500,-0.013500,1.003500,192.000000,0.000000,0.000000,0.000000,0.000000,0.000000,0.000000,0.000000,0.000000,0.000000,1769696053.299354,0.000000
46.000000,8475.245056,12069.047936,-2117.894842,-4002.839804,-118.620708,-15375.496790,-4474.238095,549.718803,13925.852051,8756.765277,-14635.139958,8358.591301,12128.145948,-5318.575241,-11873.514876,4340.418201,0.004500,-0.013500,1.003500,192.000000,0.000000,0.000000,0.000000,0.000000,0.000000,0.000000,0.000000,0.000000,0.000000,1769696053.299366,0.000000
48.000000,8217.507090,11811.377026,-2373.241171,-4258.923740,-374.145850,-15646.958726,-4728.623298,294.908916,13859.266205,8684.815012,-14705.436195,8294.397091,12071.350166,-5397.387492,-11945.331031,4311.897375,0.005250,-0.015750,1.003750,192.000000,0.000000,24.000000,127.500000,56.000000,15.500000,48.000000,0.000000,0.000000,0.000000,1769696053.299377,0.000000
50.000000,8443.058544,12039.431875,-2160.273750,-4039.429610,-174.947104,-15422.278991,-4517.600479,514.693620,13787.852381,8617.692723,-14777.431163,8227.453617,12000.070453,-5472.869333,-12030.960564,4205.279554,0.005250,-0.015750,1.003750,192.000000,0.000000,0.000000,0.000000,0.000000,0.000000,0.000000,0.000000,0.000000,0.000000,1769696053.299389,0.000000
52.000000,8352.176351,11947.141522,-2250.574797,-4130.021230,-267.930361,-15525.834623,-4604.057026,425.264290,14010.140480,8842.506569,-14553.913719,8441.180997,12202.219630,-5244.881540,-11823.312858,4401.282001,0.005250,-0.015750,1.003750,192.000000,0.000000,0.000000,0.000000,0.000000,0.000000,0.000000,0.000000,0.000000,0.000000,1769696053.299401,0.000000
54.000000,8281.723652,11875.682995,-2324.894348,-4205.815995,-350.050670,-15608.469022,-4676.834306,355.616254,13735.839872,8566.194304,-14831.052998,8176.871619,11934.646897,-5512.990715,-12104.564858,4153.199989,0.005250,-0.015750,1.003750,192.000000,0.000000,0.000000,0.000000,0.000000,0.000000,0.000000,0.000000,0.000000,0.000000,1769696053.299412,0.000000
56.000000,8486.622094,12078.458021,-2118.163063,-4006.572545,-136.949138,-15390.315996,-4472.069975,558.950074,13955.177540,8789.711748,-14604.003978,8388.050900,12155.504484,-5297.721064,-11882.813201,4314.624287,0.005250,-0.015750,1.003750,192.000000,0.000000,0.000000,0.000000,0.000000,0.000000,0.000000,0.000000,0.000000,0.000000,1769696053.299424,0.000000
58.000000,8224.950221,11814.841546,-2379.320846,-4265.472801,-383.891211,-15667.030593,-4731.104342,295.892393,13860.875530,8685.440860,-14705.212677,8289.971446,12078.234503,-5391.643094,-11974.880037,4265.763374,0.005625,-0.014875,1.003875,192.000000,0.000000,24.000000,127.500000,72.000000,15.500000,48.000000,0.000000,0.000000,0.000000,1769696053.779430,0.000000
60.000000,8438.364677,12031.966392,-2163.402994,-4045.017546,-174.254200,-15450.196320,-4522.942546,511.899652,13806.113756,8630.679087,-14761.606128,8240.417628,12008.519412,-5464.889761,-12026.087883,4193.991923,0.005625,-0.014875,1.003875,192.000000,0.000000,0.000000,0.000000,0.000000,0.000000,0.000000,0.000000,0.000000,0.000000,1769696053.779497,0.000000
62.000000,8335.837225,11927.829615,-2262.756498,-4147.053259,-251.524180,-15538.061027,-4622.184291,407.941688,13986.000596,8812.756397,-14582.166324,8414.336552,12190.037929,-5263.969930,-11834.444026,4371.330663,0.005625,-0.014875,1.003875,192.000000,0.000000,0.000000,0.000000,0.000000,0.000000,0.000000,0.000000,0.000000,0.000000,1769696053.779548,0.000000
64.000000,8286.819850,11882.634387,-2314.076103,-4197.009408,-299.759245,-15580.551694,-4671.626350,360.198362,13728.039113,8553.878493,-14841.625374,8166.254540,11943.431132,-5529.531006,-12080.849657,4165.113469,0.005625,-0.014875,1.003875,192.000000,0.000000,0.000000,0.000000,0.000000,0.000000,0.000000,0.000000,0.000000,0.000000,1769696053.779640,0.000000
66.000000,8518.808606,12115.114881,-2081.707368,-3962.114926,-73.805460,-15337.431769,-4439.101152,595.629286,13984.190105,8819.037237,-14579.171190,8415.208270,12196.810507,-5260.952444,-11830.666581,4372.001215,0.005625,-0.014875,1.003875,192.000000,0.000000,0.000000,0.000000,0.000000,0.000000,0.000000,0.000000,0.000000,0.000000,1769696053.779691,0.000000
68.000000,8218.088236,11811.086453,-2376.035139,-4258.677871,-376.246914,-15634.866433,-4727.595118,298.686361,13888.211714,8716.532137,-14678.345880,8317.218222,12098.574591,-5372.800573,-11932.858757,4318.558194,0.005812,-0.013437,1.005937,192.000000,0.000000,24.000000,127.500000,80.000000,15.500000,64.000000,0.000000,0.000000,0.000000,1769696053.779732,0.000000
70.000000,8410.402645,12004.317284,-2184.212468,-4066.184648,-191.554450,-15470.134076,-4538.387601,493.235945,13770.194503,8600.526583,-14794.910228,8205.481852,11970.946130,-5482.212363,-12053.558177,4176.937542,0.005812,-0.013437,1.005937,192.000000,0.000000,0.000000,0.000000,0.000000,0.000000,0.000000,0.000000,0.000000,0.000000,1769696053.779749,0.000000
72.000000,8368.895455,11961.089010,-2219.215300,-4111.446930,-220.790532,-15508.087338,-4575.446793,452.578122,14000.708044,8828.044990,-14564.016707,8426.719418,12211.048569,-5252.525837,-11825.592735,4379.533753,0.005812,-0.013437,1.005937,192.000000,0.000000,0.000000,0.000000,0.000000,0.000000,0.000000,0.000000,0.000000,0.000000,1769696053.779765,0.000000
74.000000,8290.038501,11884.400175,-2301.916754,-4193.947219,-310.577489,-15595.594418,-4662.082155,372.782394,13767.020555,8593.932819,-14802.219248,8204.096044,11990.906237,-5489.186107,-12061.068363,4175.462326,0.005812,-0.013437,1.005937,192.000000,0.000000,0.000000,0.000000,0.000000,0.000000,0.000000,0.000000,0.000000,0.000000,1769696053.779782,0.000000
76.000000,8469.634768,12068.735012,-2122.320488,-4012.495758,-129.036621,-15395.993340,-4486.732720,548.981196,13958.239729,8793.153917,-14603.847516,8389.392005,12164.244016,-5295.485889,-11875.414774,4306.756473,0.005812,-0.013437,1.005937,192.000000,0.000000,0.000000,0.000000,0.000000,0.000000,0.000000,0.000000,0.000000,0.000000,1769696053.779799,0.000000
78.000000,8214.042570,11810.840584,-2376.839802,-4261.762412,-374.659941,-15652.479607,-4736.357002,292.047893,13853.991193,8683.608017,-14714.935686,8283.154164,12061.470695,-5405.367065,-11980.713842,4253.134638,0.005906,-0.012719,1.007969,192.000000,0.000000,24.000000,127.500000,80.000000,15.500000,72.000000,0.000000,0.000000,0.000000,1769696053.779815,0.000000
80.000000,8442.432695,12039.141302,-2157.099802,-4044.503456,-154.472906,-15431.622020,-4522.674325,515.051247,13807.857192,8640.223281,-14764.802428,8233.466236,12017.504813,-5424.276641,-12035.654430,4184.827707,0.005906,-0.012719,1.007969,192.000000,0.000000,0.000000,0.000000,0.000000,0.000000,0.000000,0.000000,0.000000,0.000000,1769696053.779831,0.000000
82.000000,8365.855618,11960.999603,-2227.396038,-4109.703494,-218.309488,-15482.271073,-4587.829660,443.615072,14018.812957,8849.927348,-14554.137236,8434.609584,12243.346839,-5233.370392,-11824.564555,4389.368521,0.005906,-0.012719,1.007969,192.000000,0.000000,0.000000,0.000000,0.000000,0.000000,0.000000,0.000000,0.000000,0.000000,1769696053.779846,0.000000
84.000000,8287.646864,11883.528457,-2299.346304,-4182.279609,-292.897259,-15561.932690,-4659.958739,371.240124,13772.854361,8599.766624,-14801.973379,8198.485756,11987.151144,-5486.258028,-12062.789448,4197.590553,0.005906,-0.012719,1.007969,192.000000,0.000000,0.000000,0.000000,0.000000,0.000000,0.000000,0.000000,0.000000,0.000000,1769696053.779863,0.000000
86.000000,8463.510390,12061.783619,-2112.597479,-3990.456938,-118.933632,-15389.757203,-4471.935865,555.999643,13952.182406,8790.538763,-14613.056435,8382.842944,12169.004937,-5290.479099,-11868.999823,4340.529959,0.005906,-0.012719,1.007969,192.000000,0.000000,0.000000,0.000000,0.000000,0.000000,0.000000,0.000000,0.000000,0.000000,1769696053.779879,0.000000
88.000000,8192.741357,11789.025282,-2378.404424,-4255.727441,-392.496633,-15671.322128,-4732.400743,292.539631,13869.257435,8706.049169,-14695.243799,8310.289182,12108.163489,-5365.960940,-11946.403914,4306.555308,0.005906,-0.012719,1.007969,192.000000,0.000000,0.000000,0.000000,0.000000,0.000000,0.000000,0.000000,0.000000,0.000000,1769696053.779896,0.000000
90.000000,8405.418206,12006.217182,-2168.253323,-4046.403354,-187.911116,-15453.280861,-4527.323488,508.792759,13775.223646,8613.021208,-14785.008405,8221.619811,11975.662348,-5470.745918,-12046.875006,4179.507992,0.008000,-0.010000,1.004000,192.000000,0.000000,32.000000,127.500000,88.000000,15.500000,48.000000,0.000000,0.000000,0.000000,1769696053.779922,0.000000
92.000000,8318.805196,11920.028856,-2249.680728,-4126.266137,-254.251093,-15530.483786,-4601.710093,431.142799,13986.984073,8824.088731,-14572.018632,8424.864224,12188.383900,-5266.339215,-11842.356544,4368.849619,0.008000,-0.010000,1.004000,192.000000,0.000000,0.000000,0.000000,0.000000,0.000000,0.000000,0.000000,0.000000,0.000000,1769696053.779939,0.000000
94.000000,8276.918027,11879.326329,-2291.634952,-4172.131917,-290.371512,-15553.684897,-4652.202684,386.305199,13757.163436,8596.167993,-14806.577838,8207.761730,11981.518505,-5479.843078,-12069.539674,4174.121222,0.008000,-0.010000,1.004000,192.000000,0.000000,0.000000,0.000000,0.000000,0.000000,0.000000,0.000000,0.000000,0.000000,1769696053.779955,0.000000
96.000000,8464.046832,12070.746669,-2100.482833,-3979.973969,-91.195117,-15368.590101,-4464.470382,574.037501,13955.334002,8806.721426,-14606.149746,8399.740863,12196.363473,-5251.430601,-11865.870579,4325.353125,0.008000,-0.010000,1.004000,192.000000,0.000000,0.000000,0.000000,0.000000,0.000000,0.000000,0.000000,0.000000,0.000000,1769696053.779971,0.000000
98.000000,8202.330256,11799.441194,-2364.702805,-4242.338746,-350.989443,-15619.868412,-4723.862377,309.973992,13876.991138,8724.824634,-14689.052366,8321.442702,12108.901096,-5353.041631,-11941.531234,4296.139395,0.008000,-0.010000,1.004000,192.000000,0.000000,0.000000,0.000000,0.000000,0.000000,0.000000,0.000000,0.000000,0.000000,1769696053.779987,0.000000
100.000000,8408.726264,12007.915915,-2158.575017,-4032.724086,-159.010310,-15403.458822,-4520.170929,520.281556,13792.590951,8633.718924,-14770.256254,8236.215500,12031.854633,-5448.058897,-12033.709828,4193.835460,0.006000,-0.006000,1.006000,192.000000,0.000000,24.000000,127.500000,104.000000,15.500000,56.000000,0.000000,0.000000,0.000000,1769696053.780003,0.000000
102.000000,8331.880967,11930.936507,-2235.934405,-4106.708361,-233.463971,-15493.938684,-4591.405939,441.223436,14002.876163,8853.347165,-14556.260652,8443.036192,12235.389618,-5213.566746,-11825.302163,4400.790262,0.006000,-0.006000,1.006000,192.000000,0.000000,0.000000,0.000000,0.000000,0.000000,0.000000,0.000000,0.000000,0.000000,1769696053.780019,0.000000
104.000000,8245.267957,11845.463436,-2322.748580,-4190.572106,-310.711600,-15573.220321,-4680.321178,354.342205,13745.875805,8586.333226,-14824.593344,8187.198125,11991.487383,-5486.682711,-12089.253913,4184.380673,0.006000,-0.006000,1.006000,192.000000,0.000000,0.000000,0.000000,0.000000,0.000000,0.000000,0.000000,0.000000,0.000000,1769696053.780036,0.000000
106.000000,8426.562956,12029.775921,-2132.043497,-3994.346141,-114.306821,-15370.892331,-4490.353702,540.085201,13946.393305,8799.680626,-14621.483042,8381.568895,12181.857190,-5253.241092,-11876.577065,4348.822456,0.006000,-0.006000,1.006000,192.000000,0.000000,0.000000,0.000000,0.000000,0.000000,0.000000,0.000000,0.000000,0.000000,1769696053.780052,0.000000
108.000000,8176.625750,11776.374194,-2372.369453,-4238.762467,-343.456905,-15622.170642,-4728.019801,293.388998,13839.931946,8693.889820,-14726.446834,8279.175553,12087.577532,-5365.111573,-11963.167723,4308.321096,0.006000,-0.006000,1.006000,192.000000,0.000000,0.000000,0.000000,0.000000,0.000000,0.000000,0.000000,0.000000,0.000000,1769696053.780069,0.000000
110.000000,8398.623276,12002.126813,-2148.874360,-4024.342182,-138.692574,-15389.801906,-4509.307982,519.119265,13788.075899,8636.155264,-14771.463248,8228.951183,12022.824529,-5411.625554,-12006.395996,4236.147313,0.010000,-0.008000,1.004000,192.000000,0.000000,40.000000,127.500000,96.000000,15.500000,48.000000,0.000000,0.000000,0.000000,1769696053.780085,0.000000
112.000000,8298.979199,11898.705292,-2249.054879,-4118.532433,-245.556265,-15511.373044,-4601.352465,423.722020,13984.458325,8835.286955,-14567.391821,8429.848663,12212.121452,-5239.405363,-11806.973732,4409.172166,0.010000,-0.008000,1.004000,192.000000,0.000000,0.000000,0.000000,0.000000,0.000000,0.000000,0.000000,0.000000,0.000000,1769696053.780101,0.000000
114.000000,8232.639221,11835.919241,-2319.976964,-4192.114376,-329.732934,-15606.278551,-4672.341606,357.605560,13729.670790,8578.376005,-14828.728417,8186.728738,11970.208522,-5502.798319,-12073.719451,4176.848135,0.010000,-0.008000,1.004000,192.000000,0.000000,0.000000,0.000000,0.000000,0.000000,0.000000,0.000000,0.000000,0.000000,1769696053.780118,0.000000
116.000000,8443.930262,12047.031468,-2115.838482,-3992.312132,-123.314574,-15388.192581,-4471.332368,566.639074,13929.204813,8779.742870,-14625.461653,8375.422165,12144.283908,-5297.609305,-11885.987149,4309.550441,0.010000,-0.008000,1.004000,192.000000,0.000000,0.000000,0.000000,0.000000,0.000000,0.000000,0.000000,0.000000,0.000000,1769696053.780134,0.000000
118.000000,8201.503241,11797.809517,-2365.038081,-4245.847970,-370.681330,-15644.678848,-4719.615545,313.840844,13862.194283,8707.367922,-14695.333206,8307.897545,12112.253858,-5359.523637,-11957.780952,4278.123889,0.010000,-0.008000,1.004000,192.000000,0.000000,0.000000,0.000000,0.000000,0.000000,0.000000,0.000000,0.000000,0.000000,1769696053.780150,0.000000
120.000000,8422.740808,12016.610744,-2150.774258,-4035.875682,-163.346548,-15428.358666,-4516.549947,525.534216,13804.973817,8635.752933,-14758.767457,8237.400143,12011.983932,-5449.824685,-12030.267659,4189.633332,0.014000,-0.014000,1.006000,192.000000,0.000000,56.000000,127.500000,72.000000,15.500000,56.000000,0.000000,0.000000,0.000000,1769696053.780166,0.000000
122.000000,8328.304688,11923.649838,-2247.847885,-4127.719000,-248.551398,-15514.055254,-4610.471977,428.348831,14011.727454,8843.825322,-14554.874844,8435.391895,12217.552926,-5231.694011,-11828.431407,4387.401567,0.014000,-0.014000,1.006000,192.000000,0.000000,0.000000,0.000000,0.000000,0.000000,0.000000,0.000000,0.000000,0.000000,1769696053.780185,0.000000
124.000000,8286.797498,11884.623693,-2304.934240,-4179.128013,-300.675666,-15565.687783,-4671.671053,375.486955,13756.448180,8588.300179,-14819.519498,8187.309884,11968.174513,-5476.780889,-12089.768003,4176.423451,0.014000,-0.014000,1.006000,192.000000,0.000000,0.000000,0.000000,0.000000,0.000000,0.000000,0.000000,0.000000,0.000000,1769696053.780201,0.000000
126.000000,8485.839782,12085.543523,-2112.776293,-3982.767938,-96.671295,-15357.548339,-4478.082595,567.197867,13972.656604,8808.286048,-14603.869868,8393.907058,12190.909647,-5259.790153,-11874.431297,4346.944910,0.014000,-0.014000,1.006000,192.000000,0.000000,0.000000,0.000000,0.000000,0.000000,0.000000,0.000000,0.000000,0.000000,1769696053.780218,0.000000
128.000000,8245.267957,11841.864805,-2353.348118,-4224.122074,-331.744591,-15609.497203,-4713.737036,319.115856,13900.281656,8729.384390,-14683.755002,8318.425216,12119.965210,-5329.192320,-11933.842234,4328.392962,0.014000,-0.014000,1.006000,192.000000,0.000000,0.000000,0.000000,0.000000,0.000000,0.000000,0.000000,0.000000,0.000000,1769696053.780234,0.000000
130.000000,8450.300509,12048.797256,-2152.875322,-4023.626926,-134.311632,-15400.329578,-4522.540214,518.471064,13827.571431,8657.456476,-14758.387477,8249.447733,12062.722392,-5425.148359,-12002.864421,4243.411630,0.008000,-0.006000,1.008000,192.000000,0.000000,32.000000,127.500000,104.000000,15.500000,64.000000,0.000000,0.000000,0.000000,1769696053.780249,0.000000
132.000000,8337.647717,11933.819882,-2261.683614,-4131.205872,-225.015011,-15504.131079,-4629.001573,404.276002,14012.174489,8842.394810,-14570.521065,8426.898232,12235.054342,-5229.481188,-11811.667599,4424.304297,0.008000,-0.006000,1.008000,192.000000,0.000000,0.000000,0.000000,0.000000,0.000000,0.000000,0.000000,0.000000,0.000000,1769696053.780265,0.000000
134.000000,8288.987969,11886.233018,-2315.596022,-4185.028873,-284.336541,-15576.170752,-4681.774042,352.285844,13759.197445,8583.181630,-14831.298868,8176.670453,11997.835278,-5470.902380,-12066.857465,4210.778083,0.008000,-0.006000,1.008000,192.000000,0.000000,0.000000,0.000000,0.000000,0.000000,0.000000,0.000000,0.000000,0.000000,1769696053.780281,0.000000
136.000000,8494.914591,12091.354977,-2114.877357,-3985.673664,-93.519699,-15375.005051,-4481.636522,558.614797,13979.876218,8806.810833,-14606.775595,8387.983845,12189.032100,-5262.986453,-11856.348736,4356.913788,0.008000,-0.006000,1.008000,192.000000,0.000000,0.000000,0.000000,0.000000,0.000000,0.000000,0.000000,0.000000,0.000000,1769696053.780298,0.000000
138.000000,8278.102669,11871.346756,-2340.182941,-4215.159025,-317.260661,-15595.728528,-4700.527155,341.869931,13904.528487,8724.712875,-14680.514000,8314.379551,12115.070178,-5352.371079,-11946.292156,4301.570869,0.008000,-0.006000,1.008000,192.000000,0.000000,0.000000,0.000000,0.000000,0.000000,0.000000,0.000000,0.000000,0.000000,1769696053.780319,0.000000
140.000000,8465.633805,12060.375459,-2159.334977,-4036.076848,-144.504028,-15432.694904,-4524.663630,529.334012,13835.349838,8657.255311,-14744.194119,8255.013317,12037.956660,-5406.305838,-12025.976125,4198.194051,0.010000,-0.006000,1.006000,192.000000,0.000000,40.000000,127.500000,104.000000,15.500000,56.000000,0.000000,0.000000,0.000000,1769696053.780336,0.000000
142.000000,8405.820537,11996.114194,-2216.108408,-4096.985352,-197.812938,-15492.888152,-4577.167878,468.201991,14043.802207,8866.221770,-14532.031361,8459.755297,12241.245775,-5219.981697,-11819.446006,4381.523059,0.010000,-0.006000,1.006000,192.000000,0.000000,0.000000,0.000000,0.000000,0.000000,0.000000,0.000000,0.000000,0.000000,1769696053.780351,0.000000
144.000000,8309.931554,11900.940466,-2309.806920,-4188.828670,-297.859347,-15591.593455,-4669.458231,375.375196,13796.904838,8609.936668,-14782.817934,8221.664515,12023.696247,-5469.203647,-12062.677689,4178.904495,0.010000,-0.006000,1.006000,192.000000,0.000000,0.000000,0.000000,0.000000,0.000000,0.000000,0.000000,0.000000,0.000000,1769696053.780368,0.000000
146.000000,8535.326545,12128.950611,-2085.864793,-3957.219894,-82.880268,-15362.599833,-4445.069068,602.692437,13978.468058,8802.251077,-14591.822278,8402.937162,12177.900932,-5269.870790,-11870.653852,4325.554290,0.010000,-0.006000,1.006000,192.000000,0.000000,0.000000,0.000000,0.000000,0.000000,0.000000,0.000000,0.000000,0.000000,1769696053.780383,0.000000
148.000000,8253.046364,11846.491617,-2364.345177,-4232.593385,-353.314025,-15641.013162,-4715.793397,324.927309,13914.296200,8735.419361,-14660.039802,8343.459170,12117.595925,-5362.652881,-11934.222214,4319.474616,0.010000,-0.006000,1.006000,192.000000,0.000000,0.000000,0.000000,0.000000,0.000000,0.000000,0.000000,0.000000,0.000000,1769696053.780400,0.000000
150.000000,8433.313183,12029.038314,-2184.257172,-4053.354747,-180.132709,-15438.975744,-4538.141732,504.165948,13790.199314,8612.529470,-14784.002576,8224.682000,12007.580639,-5468.019005,-12051.837093,4192.784928,0.010000,-0.008000,1.004000,192.000000,0.000000,40.000000,127.500000,96.000000,15.500000,48.000000,0.000000,0.000000,0.000000,1769696053.780416,0.000000
152.000000,8366.101487,11960.239644,-2246.082097,-4118.666544,-237.688451,-15503.393472,-4599.139643,432.416848,14011.347474,8834.996383,-14564.664908,8434.274308,12213.551964,-5219.109979,-11821.122387,4418.917527,0.010000,-0.008000,1.004000,192.000000,0.000000,0.000000,0.000000,0.000000,0.000000,0.000000,0.000000,0.000000,0.000000,1769696053.780432,0.000000
154.000000,8276.806268,11870.162114,-2338.126580,-4209.258164,-321.306327,-15574.404964,-4695.229792,340.148847,13748.982698,8568.451830,-14835.746865,8174.390575,11955.031688,-5499.266744,-12080.849657,4206.665362,0.010000,-0.008000,1.004000,192.000000,0.000000,0.000000,0.000000,0.000000,0.000000,0.000000,0.000000,0.000000,0.000000,1769696053.780451,0.000000
156.000000,8490.265428,12081.386099,-2132.043497,-3997.631848,-113.323344,-15358.755333,-4489.303170,550.031728,13954.864616,8779.742870,-14625.171080,8371.287092,12152.934033,-5307.131148,-11874.006614,4370.324835,0.010000,-0.008000,1.004000,192.000000,0.000000,0.000000,0.000000,0.000000,0.000000,0.000000,0.000000,0.000000,0.000000,1769696053.780467,0.000000
158.000000,8249.201864,11837.461512,-2372.995302,-4239.701240,-352.799934,-15597.896647,-4726.231662,308.118797,13878.935740,8699.522459,-14706.732596,8295.894658,12101.882649,-5354.472143,-11952.260071,4345.089715,0.010000,-0.008000,1.004000,192.000000,0.000000,0.000000,0.000000,0.000000,0.000000,0.000000,0.000000,0.000000,0.000000,1769696053.780483,0.000000
160.000000,8457.207198,12048.126703,-2166.979273,-4041.508322,-156.149287,-15415.037026,-4526.608232,517.778160,13815.836765,8637.608127,-14767.819913,8235.969631,12009.927572,-5440.079324,-12024.143281,4240.438848,0.014000,-0.008000,1.004000,192.000000,0.000000,72.000000,127.500000,96.000000,15.500000,48.000000,0.000000,0.000000,0.000000,1769696053.780500,0.000000
162.000000,8392.901229,11980.579732,-2231.933443,-4110.888137,-216.566052,-15486.249684,-4589.975427,454.120392,14038.124864,8856.789333,-14541.687315,8450.836951,12233.445017,-5219.914641,-11811.578192,4416.637649,0.014000,-0.008000,1.004000,192.000000,0.000000,0.000000,0.000000,0.000000,0.000000,0.000000,0.000000,0.000000,0.000000,1769696053.780516,0.000000
164.000000,8329.221109,11916.765501,-2301.179147,-4179.105661,-295.199489,-15574.315557,-4658.774097,390.328513,13794.021463,8606.539203,-14788.070594,8214.713122,11990.258037,-5470.477697,-12068.600901,4188.381635,0.014000,-0.008000,1.004000,192.000000,0.000000,0.000000,0.000000,0.000000,0.000000,0.000000,0.000000,0.000000,0.000000,1769696053.780532,0.000000
166.000000,8553.230292,12142.696934,-2076.119432,-3954.582388,-81.092129,-15350.351077,-4434.764914,614.449455,13999.746919,8815.796234,-14576.556036,8418.382218,12211.249734,-5255.610377,-11866.742297,4333.891491,0.014000,-0.008000,1.004000,192.000000,0.000000,0.000000,0.000000,0.000000,0.000000,0.000000,0.000000,0.000000,0.000000,1769696053.780549,0.000000
168.000000,8265.026899,11856.751067,-2358.891351,-4236.773162,-359.885437,-15645.863491,-4712.485339,328.682402,13921.649924,8739.666192,-14653.781313,8345.806103,12120.591059,-5339.362364,-11937.440865,4305.415369,0.014000,-0.008000,1.004000,192.000000,0.000000,0.000000,0.000000,0.000000,0.000000,0.000000,0.000000,0.000000,0.000000,1769696053.780565,0.000000
170.000000,8466.304358,12063.594110,-2159.267921,-4028.343144,-158.876200,-15423.754206,-4513.353647,530.473951,13818.451919,8640.938537,-14757.448704,8249.224216,12009.860517,-5449.824685,-12033.329848,4194.282495,0.013000,-0.010000,1.002000,192.000000,0.000000,48.000000,127.500000,80.000000,15.500000,32.000000,0.000000,0.000000,0.000000,1769696053.780581,0.000000
172.000000,8390.956627,11986.748813,-2236.224978,-4096.538317,-223.048058,-15489.311873,-4582.666407,452.444011,14032.894556,8858.935101,-14547.319954,8454.592044,12223.632601,-5222.105112,-11813.411035,4409.686257,0.013000,-0.010000,1.002000,192.000000,0.000000,0.000000,0.000000,0.000000,0.000000,0.000000,0.000000,0.000000,0.000000,1769696053.780597,0.000000
174.000000,8297.168708,11890.949236,-2343.066316,-4201.189184,-327.721277,-15586.586665,-4691.295885,352.263493,13771.245035,8594.402205,-14814.736225,8200.966799,11968.062755,-5491.287171,-12078.256855,4202.507937,0.013000,-0.010000,1.002000,192.000000,0.000000,0.000000,0.000000,0.000000,0.000000,0.000000,0.000000,0.000000,0.000000,1769696053.780612,0.000000
176.000000,8524.932984,12120.702818,-2109.490586,-3967.926379,-97.744179,-15353.279156,-4461.810525,580.519507,13958.530302,8786.627208,-14622.533574,8386.821555,12154.386896,-5293.004846,-11883.215533,4349.738878,0.013000,-0.010000,1.002000,192.000000,0.000000,0.000000,0.000000,0.000000,0.000000,0.000000,0.000000,0.000000,0.000000,1769696053.780628,0.000000
178.000000,8244.709163,11838.579099,-2380.036101,-4240.304737,-355.817420,-15615.867450,-4725.359944,305.391884,13904.953170,8731.150178,-14679.664633,8332.640926,12103.380216,-5347.900730,-11930.154196,4351.325852,0.013000,-0.010000,1.002000,192.000000,0.000000,0.000000,0.000000,0.000000,0.000000,0.000000,0.000000,0.000000,0.000000,1769696054.259509,0.000000
180.000000,8444.757276,12041.309421,-2190.560364,-4051.432496,-166.073461,-15401.223648,-4539.505188,500.567317,13791.495716,8619.659677,-14791.356300,8219.474044,12006.865383,-5457.334871,-12041.041200,4227.094856,0.010500,-0.010000,1.001000,192.000000,0.000000,32.000000,127.500000,88.000000,15.500000,32.000000,0.000000,0.000000,0.000000,1769696054.259627,0.000000
182.000000,8386.374520,11980.110345,-2249.367803,-4110.888137,-227.049020,-15476.169047,-4596.591544,442.855113,14010.632218,8843.244176,-14570.923396,8431.167416,12205.214763,-5209.431673,-11825.503329,4422.717324,0.010500,-0.010000,1.001000,192.000000,0.000000,0.000000,0.000000,0.000000,0.000000,0.000000,0.000000,0.000000,0.000000,1769696054.259724,0.000000
184.000000,8298.263943,11891.530382,-2340.138237,-4200.183356,-328.615347,-15569.085249,-4688.144289,357.471449,13771.736773,8599.677217,-14814.847984,8198.888087,11961.267824,-5488.649665,-12080.648491,4207.604135,0.010500,-0.010000,1.001000,192.000000,0.000000,0.000000,0.000000,0.000000,0.000000,0.000000,0.000000,0.000000,0.000000,1769696054.259830,0.000000
186.000000,8524.195376,12117.215945,-2115.302040,-3982.253847,-113.077475,-15340.359848,-4467.085536,584.051083,13965.816971,8793.511545,-14613.995208,8385.569857,12157.426734,-5286.567543,-11899.152326,4340.552311,0.010500,-0.010000,1.001000,192.000000,0.000000,0.000000,0.000000,0.000000,0.000000,0.000000,0.000000,0.000000,0.000000,1769696054.259897,0.000000
188.000000,8282.193039,11870.206817,-2358.645482,-4236.706106,-357.851429,-15607.485546,-4709.713722,336.192588,13918.833604,8734.234719,-14661.425610,8335.501949,12107.381178,-5356.349690,-11949.868435,4322.626212,0.010500,-0.010000,1.001000,192.000000,0.000000,0.000000,0.000000,0.000000,0.000000,0.000000,0.000000,0.000000,0.000000,1769696054.259953,0.000000
190.000000,8482.576428,12070.143172,-2162.464221,-4038.222616,-168.487450,-15413.718273,-4519.455674,532.776181,13828.040818,8642.503159,-14753.604204,8246.229082,12008.385302,-5446.918958,-12044.818645,4205.950106,0.009250,-0.010000,1.005500,192.000000,0.000000,32.000000,127.500000,88.000000,15.500000,72.000000,0.000000,0.000000,0.000000,1769696054.260005,0.000000
192.000000,8404.993523,11991.420328,-2233.498065,-4110.977544,-228.211311,-15485.668538,-4587.248515,457.808430,14044.919794,8859.896226,-14534.043018,8456.201369,12252.265185,-5235.203235,-11823.581078,4409.954478,0.009250,-0.010000,1.005500,192.000000,0.000000,0.000000,0.000000,0.000000,0.000000,0.000000,0.000000,0.000000,0.000000,1769696054.260033,0.000000
194.000000,8293.078338,11880.287454,-2342.619281,-4219.204690,-340.729992,-15591.973435,-4698.917830,344.507437,13778.464649,8589.574228,-14808.455385,8195.021235,11976.131734,-5493.097662,-12084.269474,4187.442861,0.009250,-0.010000,1.005500,192.000000,0.000000,0.000000,0.000000,0.000000,0.000000,0.000000,0.000000,0.000000,0.000000,1769696054.260061,0.000000
196.000000,8529.828016,12121.507480,-2104.327333,-3976.710615,-93.385588,-15369.595929,-4465.565618,580.027769,13961.436029,8783.274446,-14617.415025,8374.684557,12169.139048,-5309.768654,-11886.322425,4329.957584,0.009250,-0.010000,1.005500,192.000000,0.000000,0.000000,0.000000,0.000000,0.000000,0.000000,0.000000,0.000000,0.000000,1769696054.260089,0.000000
198.000000,8270.950111,11861.377878,-2356.924398,-4232.839254,-338.561873,-15606.770290,-4717.022743,318.802931,13916.464319,8736.112265,-14667.840560,8330.964545,12130.850510,-5359.255416,-11921.660533,4336.774866,0.009250,-0.010000,1.005500,192.000000,0.000000,0.000000,0.000000,0.000000,0.000000,0.000000,0.000000,0.000000,0.000000,1769696054.260118,0.000000
200.000000,8473.479268,12067.662128,-2155.378718,-4028.611365,-142.827647,-15399.815488,-4517.175796,523.589614,13816.350855,8637.786941,-14767.864617,8237.422495,12019.114139,-5427.249423,-12015.269639,4232.012240,0.006625,-0.009000,1.005750,192.000000,0.000000,16.000000,127.500000,96.000000,15.500000,56.000000,0.000000,0.000000,0.000000,1769696054.260145,0.000000
202.000000,8404.345322,11998.349368,-2225.920823,-4095.845413,-209.949936,-15455.069000,-4581.638227,457.294340,14043.243413,8868.255778,-14535.652344,8458.391840,12239.189415,-5218.305316,-11791.685139,4450.366432,0.006625,-0.009000,1.005750,192.000000,0.000000,0.000000,0.000000,0.000000,0.000000,0.000000,0.000000,0.000000,0.000000,1769696054.260173,0.000000
204.000000,8288.764452,11884.154306,-2343.692165,-4209.638144,-329.665879,-15575.097868,-4694.738054,342.294615,13765.701802,8589.037787,-14815.473833,8193.434261,11966.341670,-5506.933392,-12072.892436,4227.564243,0.006625,-0.009000,1.005750,192.000000,0.000000,0.000000,0.000000,0.000000,0.000000,0.000000,0.000000,0.000000,0.000000,1769696054.260201,0.000000
206.000000,8518.786254,12118.288829,-2106.629563,-3973.961350,-98.772359,-15354.195577,-4456.088478,582.374702,13954.127008,8783.073280,-14618.242039,8379.803107,12144.619184,-5290.188526,-11882.634387,4368.804916,0.006625,-0.009000,1.005750,192.000000,0.000000,0.000000,0.000000,0.000000,0.000000,0.000000,0.000000,0.000000,0.000000,1769696054.260229,0.000000
208.000000,8252.398163,11849.978489,-2371.162459,-4244.953900,-370.547220,-15635.000543,-4723.080066,318.177082,13902.539182,8729.384390,-14674.613139,8335.032563,12106.822384,-5359.277768,-11941.799455,4337.959509,0.006625,-0.009000,1.005750,192.000000,0.000000,0.000000,0.000000,0.000000,0.000000,0.000000,0.000000,0.000000,0.000000,1769696054.260256,0.000000
210.000000,8461.476381,12061.448343,-2167.091032,-4040.569549,-166.922828,-15432.449035,-4527.032915,524.841312,13799.877620,8625.493482,-14778.057012,8235.991983,11997.745871,-5465.895589,-12050.205416,4195.936524,0.005313,-0.011500,1.007875,192.000000,0.000000,16.000000,127.500000,72.000000,15.500000,72.000000,0.000000,0.000000,0.000000,1769696054.260283,0.000000
212.000000,8394.801127,11992.269694,-2230.815855,-4105.858994,-218.734171,-15496.844411,-4584.588657,458.702500,14036.604945,8863.494857,-14539.206271,8460.694070,12248.152464,-5235.337345,-11815.757968,4403.651286,0.005313,-0.011500,1.007875,192.000000,0.000000,0.000000,0.000000,0.000000,0.000000,0.000000,0.000000,0.000000,0.000000,1769696054.260311,0.000000
214.000000,8287.825678,11885.182486,-2343.513351,-4219.607022,-336.103181,-15612.224115,-4698.403740,348.597807,13765.098305,8582.533429,-14817.150213,8190.550886,11964.553531,-5493.879973,-12093.858372,4166.409870,0.005313,-0.011500,1.007875,192.000000,0.000000,0.000000,0.000000,0.000000,0.000000,0.000000,0.000000,0.000000,0.000000,1769696054.260339,0.000000
216.000000,8558.639414,12156.510312,-2076.342949,-3943.674736,-68.329283,-15342.215042,-4430.763952,617.422237,13987.788735,8813.739874,-14588.424812,8407.161642,12181.432507,-5275.078747,-11871.972605,4335.634927,0.005313,-0.011500,1.007875,192.000000,0.000000,0.000000,0.000000,0.000000,0.000000,0.000000,0.000000,0.000000,0.000000,1769696054.260366,0.000000
218.000000,8272.760603,11866.161152,-2357.393784,-4226.044324,-344.418030,-15616.090967,-4706.629182,333.376269,13922.834566,8747.668117,-14656.798799,8346.588415,12131.789283,-5337.149541,-11926.600269,4322.514453,0.005313,-0.011500,1.007875,192.000000,0.000000,0.000000,0.000000,0.000000,0.000000,0.000000,0.000000,0.000000,0.000000,1769696054.260417,0.000000
220.000000,8462.281044,12058.833189,-2170.332035,-4036.255662,-160.507877,-15426.503471,-4521.064999,522.159102,13815.188565,8644.939499,-14761.829646,8247.726649,12025.171462,-5425.260118,-12024.322095,4209.861661,0.006656,-0.010750,1.007937,192.000000,0.000000,32.000000,127.500000,88.000000,15.500000,64.000000,0.000000,0.000000,0.000000,1769696054.260444,0.000000
222.000000,8400.947857,11995.421290,-2230.815855,-4093.185555,-206.306601,-15480.952320,-4574.552724,460.401232,14031.933431,8862.421973,-14543.475454,8457.989509,12235.791950,-5225.167301,-11799.798822,4426.003030,0.006656,-0.010750,1.007937,192.000000,0.000000,0.000000,0.000000,0.000000,0.000000,0.000000,0.000000,0.000000,0.000000,1769696054.260471,0.000000
224.000000,8279.488478,11873.783097,-2354.666871,-4215.762522,-334.270338,-15582.630406,-4699.655437,336.170237,13759.040983,8583.695720,-14823.922792,8189.410947,11969.828542,-5499.534965,-12073.920616,4211.806263,0.006656,-0.010750,1.007937,192.000000,0.000000,0.000000,0.000000,0.000000,0.000000,0.000000,0.000000,0.000000,0.000000,1769696054.260498,0.000000
226.000000,8513.310076,12111.963285,-2118.386581,-3974.207219,-98.012399,-15338.191728,-4463.911589,576.026806,13953.948194,8788.750623,-14623.785272,8377.634988,12156.957347,-5287.193392,-11878.901646,4365.295692,0.006656,-0.010750,1.007937,192.000000,0.000000,0.000000,0.000000,0.000000,0.000000,0.000000,0.000000,0.000000,0.000000,1769696054.260526,0.000000
228.000000,8259.930701,11855.678184,-2373.419985,-4230.537025,-364.288731,-15613.162889,-4712.015952,326.402524,13898.292351,8731.977192,-14681.564532,8326.605955,12106.665922,-5345.553797,-11942.447655,4341.781657,0.006656,-0.010750,1.007937,192.000000,0.000000,0.000000,0.000000,0.000000,0.000000,0.000000,0.000000,0.000000,0.000000,1769696054.260553,0.000000
230.000000,8443.662041,12040.325944,-2190.202736,-4050.337261,-192.493223,-15443.244927,-4532.196168,513.799550,13801.129317,8631.908432,-14775.084230,8233.935622,11992.493211,-5459.592397,-12051.926500,4201.457405,0.006656,-0.010750,1.007937,192.000000,0.000000,0.000000,0.000000,0.000000,0.000000,0.000000,0.000000,0.000000,0.000000,1769696054.260580,0.000000
232.000000,8394.376444,11984.781859,-2229.787675,-4098.326456,-231.854645,-15492.664634,-4574.217448,467.889067,14030.167643,8853.123647,-14542.246108,8453.072125,12219.944563,-5236.521988,-11827.783206,4391.246067,-0.004000,-0.012000,1.006000,192.000000,127.500000,112.000000,127.500000,80.000000,15.500000,56.000000,0.000000,0.000000,0.000000,1769696054.260608,0.000000
234.000000,8290.239667,11879.214570,-2331.152836,-4200.339818,-333.868007,-15601.383519,-4675.895533,369.764909,13769.479247,8585.819135,-14807.136632,8199.290419,11964.441772,-5495.086967,-12093.880724,4161.000748,-0.004000,-0.012000,1.006000,192.000000,0.000000,0.000000,0.000000,0.000000,0.000000,0.000000,0.000000,0.000000,0.000000,1769696054.260636,0.000000
