Sample_index,EXG Channel 0,EXG Channel 1,EXG Channel 2,EXG Channel 3,EXG Channel 4,EXG Channel 5,EXG Channel 6,EXG Channel 7,EXG Channel 8,EXG Channel 9,EXG Channel 10,EXG Channel 11,EXG Channel 12,EXG Channel 13,EXG Channel 14,EXG Channel 15,Accel Channel 0,Accel Channel 1,Accel Channel 2,Not Used,Digital Channel 0 (D11),Digital Channel 1 (D12),Digital Channel 2 (D13),Digital Channel 3 (D17),Not Used,Digital Channel 4 (D18),Analog Channel 0,Analog Channel 1,Analog Channel 2,Timestamp,Marker Channel
90.000000,9154.603977,12360.313518,-1933.247081,-3918.909004,-2011.187614,-15765.422972,-4356.198532,-2030.320708,14658.966918,9815.790929,-14527.940992,7114.381446,14267.699631,-5668.737670,-11093.014311,4402.354884,0.006000,-0.008000,1.014000,192.000000,0.000000,0.000000,0.000000,0.000000,0.000000,0.000000,0.000000,0.000000,0.000000,1769695217.245803,101.000000
92.000000,9180.800221,12384.520457,-1906.894375,-3899.418282,-1988.031207,-15743.160634,-4334.897320,-2006.314934,14700.429404,9867.289349,-14490.390061,7154.234607,14299.506164,-5658.232350,-11047.304994,4410.021533,0.006000,-0.008000,1.014000,192.000000,0.000000,0.000000,0.000000,0.000000,0.000000,0.000000,0.000000,0.000000,0.000000,1769695217.245926,0.000000
94.000000,9140.567081,12344.287317,-1943.484180,-3940.523140,-2010.025324,-15778.096411,-4371.822402,-2047.330385,14678.345880,9840.489607,-14514.440538,7130.340592,14285.446916,-5670.726975,-11058.033831,4399.002123,0.004000,-0.008000,1.010000,192.000000,0.000000,16.000000,127.500000,96.000000,15.500000,72.000000,0.000000,0.000000,0.000000,1769695217.245979,0.000000
96.000000,9181.470773,12385.056899,-1895.025598,-3900.044131,-1969.881591,-15733.124701,-4331.455151,-2005.309106,14682.548008,9843.082409,-14520.699027,7134.386257,14290.185486,-5680.606446,-11061.654813,4388.206230,0.004000,-0.008000,1.010000,192.000000,0.000000,0.000000,0.000000,0.000000,0.000000,0.000000,0.000000,0.000000,0.000000,1769695217.246028,0.000000
98.000000,9156.883854,12360.045297,-1921.043029,-3920.607736,-1987.919448,-15744.099408,-4358.143134,-2033.114676,14706.374968,9872.474953,-14487.618445,7158.749659,14334.508995,-5637.467580,-11022.472205,4430.451027,0.004000,-0.008000,1.010000,192.000000,0.000000,0.000000,0.000000,0.000000,0.000000,0.000000,0.000000,0.000000,0.000000,1769695217.246080,0.000000
100.000000,9170.540770,12378.507838,-1909.263660,-3903.128672,-1972.407338,-15729.235498,-4351.482314,-2023.771646,14696.696663,9838.254432,-14532.053713,7119.835272,14284.172867,-5665.898998,-11068.270930,4411.250879,0.004000,-0.008000,1.010000,192.000000,0.000000,0.000000,0.000000,0.000000,0.000000,0.000000,0.000000,0.000000,0.000000,1769695217.246099,0.000000
102.000000,9192.959570,12400.144327,-1882.530973,-3865.041299,-1952.067250,-15684.241436,-4319.876947,-1993.999123,14720.501270,9895.541954,-14472.732183,7181.414328,14330.329219,-5616.166367,-11025.020304,4465.833839,0.004000,-0.008000,1.010000,192.000000,0.000000,0.000000,0.000000,0.000000,0.000000,0.000000,0.000000,0.000000,0.000000,1769695217.246119,0.000000
104.000000,9146.266776,12351.663393,-1931.749515,-3911.108245,-2000.570536,-15727.201489,-4364.446326,-2045.542246,14678.524694,9854.973537,-14518.687370,7136.532025,14300.132012,-5653.829056,-11072.249540,4459.463592,0.003000,-0.010000,1.009000,192.000000,0.000000,8.000000,127.500000,80.000000,15.500000,64.000000,0.000000,0.000000,0.000000,1769695217.246132,0.000000
106.000000,9198.368692,12403.765309,-1887.023674,-3869.109317,-1961.902018,-15681.179247,-4324.660221,-1999.520004,14695.489668,9862.930758,-14511.914791,7150.233644,14307.798661,-5649.716336,-11068.181523,4470.348891,0.003000,-0.010000,1.009000,192.000000,0.000000,0.000000,0.000000,0.000000,0.000000,0.000000,0.000000,0.000000,0.000000,1769695217.246145,0.000000
108.000000,9175.413451,12376.250312,-1905.575622,-3898.255992,-1987.852393,-15710.169460,-4347.168427,-2022.587004,14725.463358,9886.064814,-14477.873084,7169.500848,14326.149443,-5615.339353,-11037.313764,4504.524708,0.003000,-0.010000,1.009000,192.000000,0.000000,0.000000,0.000000,0.000000,0.000000,0.000000,0.000000,0.000000,0.000000,1769695217.246181,0.000000
110.000000,9163.835247,12362.369879,-1924.060514,-3918.126693,-2002.358675,-15748.346239,-4361.182971,-2042.368298,14675.820133,9825.268069,-14527.024570,7109.978153,14287.995015,-5673.476240,-11081.704328,4460.961158,0.003000,-0.010000,1.009000,192.000000,0.000000,0.000000,0.000000,0.000000,0.000000,0.000000,0.000000,0.000000,0.000000,1769695217.246199,0.000000
112.000000,9167.545637,12369.254216,-1913.979878,-3903.419245,-1994.423806,-15748.390943,-4343.145113,-2034.567539,14716.567363,9846.077543,-14508.114995,7138.633089,14306.234039,-5672.828039,-11045.136874,4463.598664,0.003000,-0.010000,1.009000,192.000000,0.000000,0.000000,0.000000,0.000000,0.000000,0.000000,0.000000,0.000000,0.000000,1769695217.246214,0.000000
114.000000,9116.069569,12317.040541,-1970.686253,-3958.091612,-2042.949443,-15818.731882,-4392.944800,-2088.167022,14633.575336,9809.130109,-14542.514329,7098.064673,14261.262329,-5703.740502,-11067.108639,4429.266385,0.003000,-0.010000,1.009000,192.000000,0.000000,0.000000,127.500000,80.000000,15.500000,80.000000,0.000000,0.000000,0.000000,1769695217.246231,0.000000
116.000000,9192.087852,12392.120050,-1924.105218,-3911.197652,-2003.990353,-15780.219827,-4345.916730,-2027.571443,14642.404275,9797.328388,-14549.599832,7099.428129,14240.475206,-5720.124331,-11080.698500,4382.126556,0.003000,-0.010000,1.009000,192.000000,0.000000,0.000000,0.000000,0.000000,0.000000,0.000000,0.000000,0.000000,0.000000,1769695217.246248,0.000000
118.000000,9207.711721,12404.525269,-1932.241253,-3917.500844,-2004.057408,-15767.635795,-4354.924483,-2024.777475,14706.754948,9858.907444,-14486.612616,7159.084935,14288.978492,-5658.902902,-11039.079552,4415.765931,0.003000,-0.010000,1.009000,192.000000,0.000000,0.000000,0.000000,0.000000,0.000000,0.000000,0.000000,0.000000,0.000000,1769695217.246263,0.000000
120.000000,9232.656268,12434.945993,-1933.582358,-3913.477530,-2012.305202,-15760.125608,-4355.595035,-2014.763893,14684.000872,9838.992040,-14515.759291,7136.666135,14278.093192,-5695.872688,-11085.347663,4394.442367,0.003000,-0.010000,1.009000,192.000000,0.000000,0.000000,0.000000,0.000000,0.000000,0.000000,0.000000,0.000000,0.000000,1769695217.246278,0.000000
122.000000,9277.695033,12479.582426,-1893.639790,-3882.408605,-1983.404396,-15723.960486,-4322.246232,-1977.727053,14728.324381,9878.487572,-14468.842980,7181.973121,14297.628617,-5638.898091,-11056.312747,4420.012763,0.003000,-0.010000,1.009000,192.000000,0.000000,0.000000,0.000000,0.000000,0.000000,0.000000,0.000000,0.000000,0.000000,1769695217.246294,0.000000
124.000000,9248.660117,12448.424095,-1936.711602,-3916.003277,-2025.716248,-15764.886530,-4366.256817,-2022.743466,14728.994933,9871.357366,-14478.677747,7161.677737,14292.912399,-5662.970920,-11071.646043,4430.294565,0.002500,-0.009000,1.006500,192.000000,0.000000,8.000000,127.500000,96.000000,15.500000,48.000000,0.000000,0.000000,0.000000,1769695217.246312,0.000000
126.000000,9301.343179,12508.594991,-1892.544555,-3870.428070,-1987.628876,-15705.006207,-4330.963413,-1979.939876,14740.886061,9866.864665,-14489.719509,7163.488229,14300.646103,-5671.419879,-11078.262160,4438.162379,0.002500,-0.009000,1.006500,192.000000,0.000000,0.000000,0.000000,0.000000,0.000000,0.000000,0.000000,0.000000,0.000000,1769695217.246327,0.000000
128.000000,9288.893257,12493.239342,-1914.002229,-3892.042207,-2004.862071,-15720.652428,-4356.198532,-2005.242050,14746.496349,9904.505003,-14448.435837,7196.389997,14317.655780,-5630.113856,-11040.152435,4478.909609,0.002500,-0.009000,1.006500,192.000000,0.000000,0.000000,0.000000,0.000000,0.000000,0.000000,0.000000,0.000000,0.000000,1769695217.246344,0.000000
130.000000,9300.963199,12506.315113,-1911.163558,-3886.320160,-2007.231356,-15703.463936,-4350.431782,-1999.475300,14721.909430,9860.472066,-14492.558180,7153.586406,14277.690861,-5667.396565,-11086.621712,4460.245903,0.002500,-0.009000,1.006500,192.000000,0.000000,0.000000,0.000000,0.000000,0.000000,0.000000,0.000000,0.000000,0.000000,1769695217.246360,0.000000
132.000000,9326.734761,12532.310192,-1892.633962,-3870.226904,-1979.336378,-15673.423192,-4327.588299,-1982.107995,14770.837399,9909.735311,-14444.837206,7200.860345,14313.207783,-5635.053591,-11037.358467,4500.903726,0.002500,-0.009000,1.006500,192.000000,0.000000,0.000000,0.000000,0.000000,0.000000,0.000000,0.000000,0.000000,0.000000,1769695217.246377,0.000000
134.000000,9274.096402,12478.218970,-1946.591073,-3931.582443,-2024.442199,-15734.622268,-4374.124631,-2035.439257,14734.649925,9859.577997,-14484.668015,7149.250168,14286.296283,-5666.502496,-11071.847209,4477.948484,0.002250,-0.008500,1.006250,192.000000,0.000000,8.000000,127.500000,96.000000,15.500000,56.000000,0.000000,0.000000,0.000000,1769695217.246396,0.000000
136.000000,9328.075865,12534.500663,-1896.880793,-3880.978093,-1975.223658,-15694.277369,-4322.201529,-1980.789242,14736.371009,9853.520674,-14499.241352,7147.439676,14272.214684,-5692.117595,-11074.194142,4458.860094,0.002250,-0.008500,1.006250,192.000000,0.000000,0.000000,0.000000,0.000000,0.000000,0.000000,0.000000,0.000000,0.000000,1769695217.246414,0.000000
138.000000,9284.713481,12487.137316,-1938.477390,-3926.039210,-2014.495673,-15744.725257,-4363.909884,-2028.107885,14747.569233,9885.975407,-14457.734163,7179.000339,14303.551829,-5664.826115,-11030.407075,4493.147670,0.002250,-0.008500,1.006250,192.000000,0.000000,0.000000,0.000000,0.000000,0.000000,0.000000,0.000000,0.000000,0.000000,1769695217.246427,0.000000
140.000000,9287.216876,12490.311264,-1943.193608,-3934.935204,-2022.631708,-15760.036201,-4373.722300,-2034.612243,14687.957130,9819.993057,-14528.142158,7113.129748,14237.792997,-5733.736543,-11092.477869,4433.669678,0.002250,-0.008500,1.006250,192.000000,0.000000,0.000000,0.000000,0.000000,0.000000,0.000000,0.000000,0.000000,0.000000,1769695217.246444,0.000000
142.000000,9327.919403,12532.824282,-1901.999343,-3893.293904,-1980.275152,-15724.966314,-4336.417238,-1996.234297,14741.780131,9876.520619,-14473.961529,7163.152953,14292.890047,-5677.901885,-11041.158264,4458.480115,0.002250,-0.008500,1.006250,192.000000,0.000000,0.000000,0.000000,0.000000,0.000000,0.000000,0.000000,0.000000,0.000000,1769695217.246459,0.000000
144.000000,9289.005016,12492.166459,-1942.411297,-3931.940071,-2029.851321,-15774.296614,-4375.756309,-2037.339155,14729.732541,9859.510941,-14485.450326,7139.124827,14281.155381,-5684.920333,-11048.959023,4457.898969,0.002250,-0.008500,1.006250,192.000000,0.000000,0.000000,127.500000,104.000000,15.500000,48.000000,0.000000,0.000000,0.000000,1769695217.246477,0.000000
146.000000,9337.441246,12544.760113,-1899.674761,-3881.045148,-1994.334399,-15735.561041,-4330.650488,-1984.119652,14723.943439,9868.228122,-14490.412413,7156.335671,14275.723907,-5700.030112,-11068.986186,4441.559844,0.002250,-0.008500,1.006250,192.000000,0.000000,0.000000,0.000000,0.000000,0.000000,0.000000,0.000000,0.000000,0.000000,1769695217.246491,0.000000
148.000000,9301.320827,12507.477404,-1927.033296,-3916.740884,-2023.861053,-15760.237367,-4364.468678,-2020.821216,14751.123160,9884.321378,-14462.092753,7178.888581,14285.983358,-5653.583187,-11046.768552,4467.890199,0.002250,-0.008500,1.006250,192.000000,0.000000,0.000000,0.000000,0.000000,0.000000,0.000000,0.000000,0.000000,0.000000,1769695217.246506,0.000000
150.000000,9314.754226,12523.101273,-1910.940040,-3899.373579,-2017.468455,-15755.811722,-4351.862294,-2004.660905,14725.105730,9844.982308,-14504.941047,7141.292946,14263.184579,-5714.379932,-11088.812183,4445.158475,0.002250,-0.008500,1.006250,192.000000,0.000000,0.000000,0.000000,0.000000,0.000000,0.000000,0.000000,0.000000,0.000000,1769695217.246522,0.000000
152.000000,9354.450924,12564.496704,-1886.375473,-3862.336738,-1984.365521,-15727.067378,-4318.133511,-1966.394718,14748.597413,9896.726596,-14450.559253,7195.317113,14310.860850,-5657.830019,-11045.069819,4478.306112,0.002250,-0.008500,1.006250,192.000000,0.000000,0.000000,0.000000,0.000000,0.000000,0.000000,0.000000,0.000000,0.000000,1769695217.246540,0.000000
154.000000,9310.417987,12519.726160,-1930.162541,-3907.062579,-2024.062219,-15756.728143,-4360.735936,-2010.762931,14751.950175,9887.070642,-14462.517436,7177.860400,14283.681128,-5665.317853,-11063.353546,4481.167135,0.002250,-0.008500,1.006250,192.000000,0.000000,0.000000,127.500000,88.000000,15.500000,40.000000,0.000000,0.000000,0.000000,1769695217.246554,0.000000
156.000000,9354.205055,12567.625948,-1901.127625,-3868.572875,-1990.176975,-15708.962465,-4328.035334,-1970.596846,14737.153320,9879.716918,-14477.090773,7171.132525,14271.387669,-5680.204115,-11078.485677,4464.671548,0.002250,-0.008500,1.006250,192.000000,0.000000,0.000000,0.000000,0.000000,0.000000,0.000000,0.000000,0.000000,0.000000,1769695217.246570,0.000000
158.000000,9338.178854,12550.549215,-1917.198529,-3889.538811,-1993.753254,-15721.948829,-4346.073192,-1991.473376,14772.133800,9922.408750,-14443.451398,7198.468709,14310.816146,-5640.105085,-11039.347773,4496.947467,0.002250,-0.008500,1.006250,192.000000,0.000000,0.000000,0.000000,0.000000,0.000000,0.000000,0.000000,0.000000,0.000000,1769695217.246586,0.000000
160.000000,9306.126452,12516.149880,-1948.781544,-3927.693239,-2020.776513,-15752.280146,-4380.293713,-2028.510216,14724.077549,9860.203846,-14500.358939,7136.889653,14259.116561,-5706.936801,-11081.503163,4460.849400,0.002250,-0.008500,1.006250,192.000000,0.000000,0.000000,0.000000,0.000000,0.000000,0.000000,0.000000,0.000000,0.000000,1769695217.246604,0.000000
162.000000,9348.818284,12558.528788,-1900.702942,-3889.382349,-1970.663902,-15712.315227,-4335.254948,-1989.282905,14757.202835,9898.380625,-14466.965433,7166.796287,14294.968759,-5651.571530,-11035.436217,4468.337234,0.002250,-0.008500,1.006250,192.000000,0.000000,0.000000,0.000000,0.000000,0.000000,0.000000,0.000000,0.000000,0.000000,1769695217.246617,0.000000
164.000000,9299.420929,12511.053683,-1947.462791,-3937.036268,-2016.104998,-15771.569702,-4377.522096,-2034.187559,14735.901622,9868.161067,-14490.658282,7136.241452,14276.573274,-5690.195345,-11055.128104,4439.034097,0.002250,-0.008500,1.006250,192.000000,0.000000,0.000000,127.500000,112.000000,15.500000,32.000000,0.000000,0.000000,0.000000,1769695217.246634,0.000000
166.000000,9340.235214,12552.493817,-1910.627116,-3903.888631,-1989.059387,-15756.124646,-4346.766096,-1996.837794,14723.317590,9857.476933,-14499.219000,7135.257975,14268.750163,-5712.256516,-11073.121258,4407.942821,0.002250,-0.008500,1.006250,192.000000,0.000000,0.000000,0.000000,0.000000,0.000000,0.000000,0.000000,0.000000,0.000000,1769695217.246650,0.000000
168.000000,9341.308098,12552.024430,-1905.709732,-3904.402721,-1985.103129,-15757.510454,-4351.527018,-1996.569573,14792.496239,9907.589544,-14451.430971,7176.899275,14309.586800,-5659.014661,-11026.629630,4443.035059,0.002250,-0.008500,1.006250,192.000000,0.000000,0.000000,0.000000,0.000000,0.000000,0.000000,0.000000,0.000000,0.000000,1769695217.246680,0.000000
170.000000,9339.095275,12550.549215,-1914.851596,-3909.230698,-2005.353809,-15768.999251,-4363.306387,-1999.430597,14730.537204,9873.100802,-14479.862390,7150.993604,14298.455632,-5690.552973,-11062.705345,4425.041905,0.002250,-0.008500,1.006250,192.000000,0.000000,0.000000,0.000000,0.000000,0.000000,0.000000,0.000000,0.000000,0.000000,1769695217.246698,0.000000
172.000000,9379.350767,12592.391681,-1872.360930,-3864.236637,-1971.759137,-15720.585373,-4323.341468,-1960.247989,14776.492390,9919.480672,-14442.736142,7196.591162,14316.269972,-5658.455868,-11038.207834,4447.438353,0.002250,-0.008500,1.006250,192.000000,0.000000,0.000000,0.000000,0.000000,0.000000,0.000000,0.000000,0.000000,0.000000,1769695217.246714,0.000000
174.000000,9335.541348,12548.090523,-1915.544500,-3905.877937,-2011.120559,-15754.515321,-4365.027471,-2005.979658,14764.310689,9904.661465,-14461.176331,7173.971197,14294.924056,-5660.333414,-11063.331194,4451.126391,0.002250,-0.008500,1.006250,192.000000,0.000000,0.000000,0.000000,0.000000,0.000000,0.000000,0.000000,0.000000,0.000000,1769695217.246730,0.000000
176.000000,9387.598561,12602.449966,-1876.205430,-3855.206532,-1968.518134,-15705.944980,-4322.872081,-1957.968111,14767.439934,9912.506928,-14459.321136,7183.470688,14302.009559,-5640.306251,-11066.683956,4452.243978,0.008000,-0.010000,1.002000,192.000000,0.000000,32.000000,127.500000,88.000000,15.500000,40.000000,0.000000,0.000000,0.000000,1769695217.246744,0.000000
178.000000,9365.135058,12579.762945,-1904.100407,-3881.715701,-1986.466585,-15716.271486,-4344.709735,-1975.603637,14799.648797,9946.392172,-14425.480595,7213.578488,14343.002658,-5624.771789,-11039.884214,4486.084519,0.008000,-0.010000,1.002000,192.000000,0.000000,0.000000,0.000000,0.000000,0.000000,0.000000,0.000000,0.000000,0.000000,1769695217.246761,0.000000
180.000000,9336.927156,12553.209073,-1930.631927,-3906.436730,-2016.395571,-15755.051762,-4371.889457,-2002.179861,14747.993916,9889.574038,-14472.888645,7166.997453,14279.657814,-5680.651150,-11081.346700,4455.507333,0.008000,-0.010000,1.002000,192.000000,0.000000,0.000000,0.000000,0.000000,0.000000,0.000000,0.000000,0.000000,0.000000,1769695217.246778,0.000000
182.000000,9370.722994,12588.793050,-1891.985761,-3865.398927,-1978.464660,-15708.224858,-4328.862349,-1967.445250,14771.507951,9918.564250,-14445.932441,7200.100386,14300.489640,-5656.041879,-11041.292374,4474.953350,0.008000,-0.010000,1.002000,192.000000,0.000000,0.000000,0.000000,0.000000,0.000000,0.000000,0.000000,0.000000,0.000000,1769695217.246793,0.000000
184.000000,9309.009827,12522.944811,-1944.154733,-3926.285079,-2024.084571,-15765.422972,-4377.455041,-2030.052487,14742.383628,9884.969578,-14481.047032,7159.666080,14278.137896,-5686.350845,-11054.904587,4461.564655,0.008000,-0.010000,1.002000,192.000000,0.000000,0.000000,0.000000,0.000000,0.000000,0.000000,0.000000,0.000000,0.000000,1769695217.246806,0.000000
186.000000,9337.463598,12552.985555,-1916.259756,-3907.643724,-1994.915544,-15747.094541,-4349.582416,-2003.275097,14723.652866,9864.718898,-14501.342416,7146.992641,14266.269120,-5709.529604,-11065.164037,4422.762027,0.004000,-0.004000,1.004000,192.000000,0.000000,16.000000,127.500000,112.000000,15.500000,48.000000,0.000000,0.000000,0.000000,1769695217.246825,0.000000
188.000000,9331.294516,12545.028334,-1922.965279,-3928.341440,-2003.386856,-15770.586225,-4362.188800,-2012.774588,14757.694573,9901.353407,-14465.177293,7174.798211,14302.590704,-5678.483031,-11029.110674,4423.253765,0.004000,-0.004000,1.004000,192.000000,0.000000,0.000000,0.000000,0.000000,0.000000,0.000000,0.000000,0.000000,0.000000,1769695217.246843,0.000000
190.000000,9342.023354,12557.008869,-1922.093561,-3925.011030,-1988.522945,-15766.339393,-4365.139230,-2005.465568,14735.655753,9862.528427,-14504.114032,7133.402781,14273.488733,-5730.897871,-11073.881218,4375.353977,0.004000,-0.004000,1.004000,192.000000,0.000000,0.000000,0.000000,0.000000,0.000000,0.000000,0.000000,0.000000,0.000000,1769695217.246859,0.000000
192.000000,9395.019340,12611.658884,-1874.841973,-3871.545657,-1946.278148,-15705.497945,-4319.564023,-1953.810686,14793.144440,9936.624460,-14434.890680,7206.783558,14335.179548,-5642.072039,-11020.728769,4419.498672,0.004000,-0.004000,1.004000,192.000000,0.000000,0.000000,0.000000,0.000000,0.000000,0.000000,0.000000,0.000000,0.000000,1769695217.246874,0.000000
194.000000,9361.670537,12571.537503,-1907.497872,-3903.531003,-1992.076873,-15751.006097,-4353.695137,-1988.031207,14775.173637,9917.580774,-14447.921747,7184.632979,14318.885126,-5642.519074,-11051.015383,4424.326649,0.004000,-0.004000,1.004000,192.000000,0.000000,0.000000,0.000000,0.000000,0.000000,0.000000,0.000000,0.000000,0.000000,1769695217.246891,0.000000
196.000000,9393.722939,12607.210887,-1876.920685,-3875.837192,-1972.608503,-15722.194698,-4329.018811,-1957.632835,14779.733393,9914.272715,-14447.139436,7189.326845,14311.687864,-5667.553028,-11063.688822,4419.297507,0.006000,-0.010000,1.012000,192.000000,0.000000,24.000000,127.500000,88.000000,15.500000,80.000000,0.000000,0.000000,0.000000,1769695217.246909,0.000000
198.000000,9370.343014,12583.495686,-1897.528994,-3894.657361,-2001.442254,-15752.034277,-4347.436648,-1977.682349,14803.269780,9934.590451,-14420.898488,7206.940020,14332.676152,-5645.514208,-11046.768552,4441.001051,0.006000,-0.010000,1.012000,192.000000,0.000000,0.000000,0.000000,0.000000,0.000000,0.000000,0.000000,0.000000,0.000000,1769695217.246923,0.000000
200.000000,9374.455735,12590.469431,-1898.646581,-3882.721529,-2001.285792,-15740.009038,-4340.552311,-1970.954474,14766.836437,9903.141547,-14461.042221,7174.306473,14285.357509,-5677.879534,-11082.576046,4428.595832,0.006000,-0.010000,1.012000,192.000000,0.000000,0.000000,0.000000,0.000000,0.000000,0.000000,0.000000,0.000000,0.000000,1769695217.246939,0.000000
202.000000,9386.682139,12605.042768,-1888.588296,-3859.565122,-1990.378140,-15717.120852,-4324.414352,-1958.213980,14790.462230,9940.714829,-14430.621497,7212.639715,14321.567335,-5648.196417,-11046.969717,4461.944635,0.006000,-0.010000,1.012000,192.000000,0.000000,0.000000,0.000000,0.000000,0.000000,0.000000,0.000000,0.000000,0.000000,1769695217.246955,0.000000
204.000000,9319.559851,12536.132340,-1946.345204,-3918.976059,-2044.156437,-15774.743649,-4374.482259,-2022.475245,14754.207701,9901.375759,-14469.737049,7174.082956,14281.021271,-5675.711414,-11073.367128,4458.413060,0.006000,-0.010000,1.012000,192.000000,0.000000,0.000000,0.000000,0.000000,0.000000,0.000000,0.000000,0.000000,0.000000,1769695217.246972,0.000000
206.000000,9340.995174,12560.540445,-1920.931270,-3890.768157,-2014.316859,-15736.656277,-4346.229654,-1996.301353,14730.827776,9878.085241,-14492.200552,7162.080069,14270.426544,-5703.695798,-11078.195104,4452.199275,0.010000,-0.012000,1.012000,192.000000,0.000000,40.000000,127.500000,80.000000,15.500000,80.000000,0.000000,0.000000,0.000000,1769695217.246985,0.000000
208.000000,9333.082656,12548.224634,-1927.055648,-3906.436730,-2008.572460,-15734.689323,-4358.970148,-2007.656039,14751.883120,9902.470994,-14471.458134,7178.665063,14283.636425,-5687.602542,-11041.962927,4481.435356,0.010000,-0.012000,1.012000,192.000000,0.000000,0.000000,0.000000,0.000000,0.000000,0.000000,0.000000,0.000000,0.000000,1769695217.247003,0.000000
210.000000,9341.933947,12553.969032,-1929.402581,-3917.254975,-1995.116710,-15729.771939,-4369.654282,-2006.024361,14733.733503,9868.496343,-14500.001311,7147.417324,14264.391573,-5708.054389,-11068.650910,4449.494713,0.010000,-0.012000,1.012000,192.000000,0.000000,0.000000,0.000000,0.000000,0.000000,0.000000,0.000000,0.000000,0.000000,1769695217.726147,0.000000
212.000000,9390.526639,12602.204097,-1886.598991,-3886.990713,-1956.738765,-15695.193791,-4332.148055,-1959.890361,14782.974396,9922.498157,-14447.474712,7199.519241,14312.738396,-5668.938836,-11029.915336,4438.631766,0.010000,-0.012000,1.012000,192.000000,0.000000,0.000000,0.000000,0.000000,0.000000,0.000000,0.000000,0.000000,0.000000,1769695217.726221,0.000000
214.000000,9363.749249,12574.800858,-1916.170349,-3920.250108,-1985.214887,-15749.709696,-4359.953625,-1984.499631,14781.812105,9914.429178,-14449.285203,7187.739871,14321.835556,-5678.952417,-11046.030944,4408.568669,0.010000,-0.012000,1.012000,192.000000,0.000000,0.000000,0.000000,0.000000,0.000000,0.000000,0.000000,0.000000,0.000000,1769695217.726275,0.000000
216.000000,9415.404131,12631.663696,-1868.047043,-3867.634102,-1950.301462,-15715.802099,-4315.026619,-1929.268471,14784.091983,9921.693495,-14443.205529,7204.838956,14324.718931,-5678.103051,-11055.999822,4389.614390,0.008000,-0.016000,1.014000,192.000000,0.000000,32.000000,127.500000,64.000000,15.500000,88.000000,0.000000,0.000000,0.000000,1769695217.726330,0.000000
218.000000,9392.001854,12606.674445,-1885.816680,-3883.861468,-1979.157565,-15738.600879,-4335.813741,-1952.782506,14824.369827,9966.665204,-14398.323226,7248.290747,14352.926833,-5623.542443,-11023.656848,4431.702725,0.008000,-0.016000,1.014000,192.000000,0.000000,0.000000,0.000000,0.000000,0.000000,0.000000,0.000000,0.000000,0.000000,1769695217.726394,0.000000
220.000000,9389.789032,12609.088434,-1891.494023,-3881.603942,-1998.245954,-15740.210204,-4338.451247,-1954.727108,14776.224169,9920.844128,-14448.368782,7203.788424,14308.513917,-5646.587091,-11078.552732,4413.441350,0.008000,-0.016000,1.014000,192.000000,0.000000,0.000000,0.000000,0.000000,0.000000,0.000000,0.000000,0.000000,0.000000,1769695217.726442,0.000000
222.000000,9424.031904,12644.515949,-1864.716633,-3847.651642,-1969.792184,-15700.267637,-4304.521299,-1918.360820,14814.870335,9968.945082,-14404.000569,7254.392773,14360.481722,-5632.125513,-11043.214624,4442.140990,0.008000,-0.016000,1.014000,192.000000,0.000000,0.000000,0.000000,0.000000,0.000000,0.000000,0.000000,0.000000,0.000000,1769695217.726463,0.000000
224.000000,9369.739517,12587.653111,-1919.009020,-3896.579611,-2018.139007,-15761.466713,-4350.923520,-1969.501611,14787.601207,9938.479655,-14430.532090,7222.161558,14306.770480,-5659.908731,-11070.416697,4436.776571,0.008000,-0.016000,1.014000,192.000000,0.000000,0.000000,0.000000,0.000000,0.000000,0.000000,0.000000,0.000000,0.000000,1769695217.726482,0.000000
226.000000,9409.346808,12629.741446,-1876.540706,-3846.332889,-1970.641550,-15701.519334,-4307.695247,-1930.989555,14778.839323,9933.495216,-14439.897470,7221.491006,14310.190297,-5649.492818,-11068.762668,4439.324670,0.010000,-0.016000,1.008000,192.000000,0.000000,40.000000,127.500000,64.000000,15.500000,64.000000,0.000000,0.000000,0.000000,1769695217.726501,0.000000
228.000000,9351.098162,12568.587073,-1926.675669,-3898.367750,-2013.467492,-15745.082884,-4360.445364,-1992.456852,14792.339777,9949.320251,-14425.972334,7232.264546,14327.177623,-5637.244062,-11032.999877,4474.506316,0.010000,-0.016000,1.008000,192.000000,0.000000,0.000000,0.000000,0.000000,0.000000,0.000000,0.000000,0.000000,0.000000,1769695217.726533,0.000000
230.000000,9342.023354,12558.081753,-1936.018698,-3908.426035,-2014.294507,-15747.586280,-4372.180029,-2003.476263,14728.391436,9878.576979,-14497.475564,7163.823505,14270.784172,-5707.428540,-11084.230075,4430.898062,0.010000,-0.016000,1.008000,192.000000,0.000000,0.000000,0.000000,0.000000,0.000000,0.000000,0.000000,0.000000,0.000000,1769695217.726554,0.000000
232.000000,9377.428517,12595.878553,-1897.037255,-3874.652550,-1964.517172,-15697.384262,-4338.518302,-1969.032224,14768.490466,9923.727503,-14455.633099,7207.454110,14313.408949,-5663.686176,-11027.277831,4460.223551,0.010000,-0.016000,1.008000,192.000000,0.000000,0.000000,0.000000,0.000000,0.000000,0.000000,0.000000,0.000000,0.000000,1769695217.726573,0.000000
234.000000,9345.197302,12558.394677,-1933.560006,-3917.836120,-1999.698818,-15736.991553,-4374.392852,-2004.035056,14751.749009,9902.694512,-14475.861427,7178.240380,14291.347777,-5666.346033,-11052.177674,4455.283815,0.010000,-0.016000,1.008000,192.000000,0.000000,0.000000,0.000000,0.000000,0.000000,0.000000,0.000000,0.000000,0.000000,1769695217.726593,0.000000
236.000000,9404.384721,12620.510175,-1882.910953,-3868.863448,-1955.911750,-15689.404689,-4323.296764,-1945.898169,14773.564312,9917.379608,-14457.287128,7200.301552,14312.447824,-5666.301330,-11054.099924,4453.070993,0.012000,-0.014000,1.006000,192.000000,0.000000,48.000000,127.500000,72.000000,15.500000,56.000000,0.000000,0.000000,0.000000,1769695217.726612,0.000000
238.000000,9384.044633,12598.426652,-1906.402636,-3895.462024,-1982.286809,-15721.390035,-4348.286015,-1965.523000,14814.512708,9960.965510,-14414.707054,7234.522073,14350.378734,-5630.449132,-11028.753046,4469.208952,0.012000,-0.014000,1.006000,192.000000,0.000000,0.000000,0.000000,0.000000,0.000000,0.000000,0.000000,0.000000,0.000000,1769695217.726631,0.000000
240.000000,9387.397395,12603.165222,-1901.887584,-3895.014989,-1984.074948,-15736.991553,-4346.520227,-1959.823306,14774.279568,9915.390303,-14454.068476,7191.360854,14305.831707,-5683.243952,-11077.837476,4417.777588,0.012000,-0.014000,1.006000,192.000000,0.000000,0.000000,0.000000,0.000000,0.000000,0.000000,0.000000,0.000000,0.000000,1769695217.726650,0.000000
242.000000,9441.354506,12657.055277,-1842.074316,-3839.761476,-1937.672727,-15694.679701,-4293.434834,-1906.581450,14827.074388,9970.040318,-14397.563266,7247.374326,14345.506054,-5624.212995,-11030.362371,4433.736734,0.012000,-0.014000,1.006000,192.000000,0.000000,0.000000,0.000000,0.000000,0.000000,0.000000,0.000000,0.000000,0.000000,1769695217.726669,0.000000
244.000000,9383.843468,12597.242009,-1899.428892,-3897.071349,-1987.561820,-15751.229614,-4349.425954,-1963.153716,14817.105510,9957.903321,-14409.364988,7223.972049,14341.773312,-5617.440417,-11042.029982,4434.183769,0.012000,-0.014000,1.006000,192.000000,0.000000,0.000000,0.000000,0.000000,0.000000,0.000000,0.000000,0.000000,0.000000,1769695217.726688,0.000000
246.000000,9425.417712,12646.751123,-1868.471726,-3852.792544,-1954.257721,-15706.950808,-4313.953735,-1922.652355,14798.195934,9942.435913,-14431.649677,7213.533785,14327.825824,-5633.220748,-11063.778229,4415.788283,0.012000,-0.012000,1.006000,192.000000,0.000000,48.000000,127.500000,88.000000,15.500000,56.000000,0.000000,0.000000,0.000000,1769695217.726707,0.000000
248.000000,9394.907581,12618.342056,-1894.355046,-3868.394061,-1975.357768,-15711.108233,-4333.198587,-1949.072117,14829.734246,9987.049995,-14395.998644,7251.710564,14362.403972,-5600.386035,-11024.416807,4465.476211,0.012000,-0.012000,1.006000,192.000000,0.000000,0.000000,0.000000,0.000000,0.000000,0.000000,0.000000,0.000000,0.000000,1769695217.726725,0.000000
250.000000,9367.303177,12591.050576,-1916.662087,-3885.291980,-2001.822233,-15726.262716,-4348.487180,-1972.832021,14768.021079,9922.721675,-14460.706945,7192.523145,14299.215591,-5663.842638,-11076.831648,4443.750315,0.012000,-0.012000,1.006000,192.000000,0.000000,0.000000,0.000000,0.000000,0.000000,0.000000,0.000000,0.000000,0.000000,1769695217.726749,0.000000
252.000000,9382.412956,12605.288637,-1892.410444,-3863.901361,-1986.220716,-15704.223896,-4322.223881,-1954.928274,14788.875257,9942.704134,-14438.534014,7214.517261,14316.448786,-5647.458809,-11046.321517,4467.309054,0.012000,-0.012000,1.006000,192.000000,0.000000,0.000000,0.000000,0.000000,0.000000,0.000000,0.000000,0.000000,0.000000,1769695217.726768,0.000000
254.000000,9313.569583,12532.556061,-1951.284939,-3925.972155,-2033.606414,-15762.673707,-4381.210134,-2026.453856,14758.186312,9906.226087,-14471.681651,7174.284121,14298.992073,-5660.042841,-11059.643156,4469.499525,0.012000,-0.012000,1.006000,192.000000,0.000000,0.000000,0.000000,0.000000,0.000000,0.000000,0.000000,0.000000,0.000000,1769695217.726786,0.000000
0.000000,9341.352801,12564.027317,-1920.148959,-3895.171451,-1988.321780,-15729.526070,-4357.338471,-2003.096283,14725.351599,9867.825790,-14510.730149,7141.136484,14261.351736,-5694.062197,-11073.165962,4448.891216,0.010000,-0.011000,1.007000,192.000000,0.000000,32.000000,127.500000,88.000000,15.500000,64.000000,0.000000,0.000000,0.000000,1769695217.726805,0.000000
2.000000,9347.946566,12566.597768,-1916.237404,-3901.809919,-1967.266436,-15724.876907,-4361.026509,-2000.302315,14765.830608,9910.942305,-14468.887683,7175.245246,14299.237943,-5664.624949,-11027.858976,4478.551981,0.010000,-0.011000,1.007000,192.000000,0.000000,0.000000,0.000000,0.000000,0.000000,0.000000,0.000000,0.000000,0.000000,1769695217.726824,0.000000
4.000000,9370.722994,12586.222599,-1909.487177,-3902.078140,-1953.408355,-15717.970218,-4355.550332,-1978.397605,14766.054126,9900.325227,-14474.050936,7163.376470,14296.846306,-5676.605484,-11051.752991,4446.991318,0.010000,-0.011000,1.007000,192.000000,0.000000,0.000000,0.000000,0.000000,0.000000,0.000000,0.000000,0.000000,0.000000,1769695217.726843,0.000000
6.000000,9437.465303,12653.590757,-1849.808019,-3847.361070,-1902.289915,-15661.129732,-4295.290028,-1910.336543,14820.681789,9961.032565,-14414.282371,7222.407427,14351.183397,-5625.799969,-11022.449854,4448.444181,0.010000,-0.011000,1.007000,192.000000,0.000000,0.000000,0.000000,0.000000,0.000000,0.000000,0.000000,0.000000,0.000000,1769695217.726862,0.000000
8.000000,9374.232218,12585.753213,-1908.682514,-3910.951783,-1970.440384,-15722.127643,-4358.053727,-1974.687216,14814.445652,9950.884873,-14419.915011,7210.404540,14355.027897,-5633.488969,-11038.051371,4444.577330,0.010000,-0.011000,1.007000,192.000000,0.000000,0.000000,0.000000,0.000000,0.000000,0.000000,0.000000,0.000000,0.000000,1769695217.726881,0.000000
10.000000,9423.294297,12636.290507,-1860.134525,-3859.676881,-1929.715506,-15683.950863,-4314.624287,-1928.642622,14796.564257,9929.762474,-14439.942174,7198.669875,14332.430283,-5659.886379,-11056.849188,4419.811597,0.007000,-0.011500,1.008500,192.000000,0.000000,16.000000,127.500000,80.000000,15.500000,72.000000,0.000000,0.000000,0.000000,1769695217.726900,0.000000
12.000000,9393.387663,12606.763852,-1885.235534,-3880.843983,-1957.141096,-15705.006207,-4335.344355,-1955.934102,14838.071446,9973.482486,-14396.177458,7234.857349,14363.253339,-5600.095463,-11009.217621,4462.883408,0.007000,-0.011500,1.008500,192.000000,0.000000,0.000000,0.000000,0.000000,0.000000,0.000000,0.000000,0.000000,0.000000,1769695217.726918,0.000000
14.000000,9381.250665,12595.610332,-1901.731122,-3892.869221,-1987.047730,-15739.137320,-4347.190779,-1965.031262,14785.298978,9916.753759,-14451.855654,7180.609665,14307.977475,-5655.192513,-11068.583854,4426.137141,0.007000,-0.011500,1.008500,192.000000,0.000000,0.000000,0.000000,0.000000,0.000000,0.000000,0.000000,0.000000,0.000000,1769695217.726937,0.000000
16.000000,9410.553802,12627.774492,-1872.495040,-3858.849866,-1962.505515,-15705.989683,-4312.702037,-1931.458942,14818.580725,9952.225977,-14413.656522,7222.452131,14339.851062,-5628.169254,-11035.011534,4444.778495,0.007000,-0.011500,1.008500,192.000000,0.000000,0.000000,0.000000,0.000000,0.000000,0.000000,0.000000,0.000000,0.000000,1769695217.726956,0.000000
18.000000,9355.814380,12574.219713,-1921.646526,-3909.543623,-2006.963135,-15754.492969,-4359.081907,-1983.382044,14784.360204,9924.442759,-14444.144302,7191.673778,14308.491565,-5669.654092,-11056.513912,4440.889292,0.007000,-0.011500,1.008500,192.000000,0.000000,0.000000,0.000000,0.000000,0.000000,0.000000,0.000000,0.000000,0.000000,1769695217.726974,0.000000
20.000000,9366.856142,12589.888285,-1906.290878,-3890.298771,-1991.205155,-15730.151919,-4345.380288,-1974.418995,14763.818951,9905.734349,-14465.937253,7177.793345,14298.925018,-5682.640455,-11064.113505,4430.361620,0.005500,-0.011750,1.007250,192.000000,0.000000,16.000000,127.500000,80.000000,15.500000,56.000000,0.000000,0.000000,0.000000,1769695217.726993,0.000000
22.000000,9345.577281,12568.117686,-1911.700000,-3903.553355,-1984.521983,-15726.799157,-4356.377346,-1996.681332,14781.633291,9934.501044,-14449.978107,7190.645598,14316.269972,-5643.100219,-11024.863842,4464.805658,0.005500,-0.011750,1.007250,192.000000,0.000000,0.000000,0.000000,0.000000,0.000000,0.000000,0.000000,0.000000,0.000000,1769695217.727013,0.000000
24.000000,9331.920365,12551.957375,-1928.374401,-3924.072257,-1983.314989,-15745.239347,-4375.868067,-2012.752236,14730.872480,9874.620721,-14502.080024,7135.906176,14280.440126,-5696.006798,-11056.692726,4432.350925,0.005500,-0.011750,1.007250,192.000000,0.000000,0.000000,0.000000,0.000000,0.000000,0.000000,0.000000,0.000000,0.000000,1769695217.727057,0.000000
26.000000,9395.041692,12617.000951,-1871.936246,-3866.158887,-1909.509529,-15696.557247,-4318.155863,-1947.708660,14785.209571,9928.354314,-14451.095694,7189.349197,14328.764597,-5660.489876,-11013.553859,4444.197350,0.005500,-0.011750,1.007250,192.000000,0.000000,0.000000,0.000000,0.000000,0.000000,0.000000,0.000000,0.000000,0.000000,1769695217.727086,0.000000
28.000000,9367.102011,12587.071966,-1909.733046,-3903.419245,-1954.458887,-15736.388056,-4354.723317,-1974.463698,14793.926751,9933.875195,-14438.981049,7192.567848,14341.438036,-5643.793123,-11029.758874,4438.877635,0.005500,-0.011750,1.007250,192.000000,0.000000,0.000000,0.000000,0.000000,0.000000,0.000000,0.000000,0.000000,0.000000,1769695217.727106,0.000000
30.000000,9425.551823,12645.924109,-1860.603912,-3848.232788,-1919.344296,-15679.681680,-4306.935287,-1916.505625,14799.201763,9950.594300,-14432.007305,7208.750511,14354.111475,-5630.046800,-11049.137837,4422.896138,0.004750,-0.013875,1.004625,192.000000,0.000000,16.000000,127.500000,64.000000,15.500000,40.000000,0.000000,0.000000,0.000000,1769695217.727125,0.000000
32.000000,9393.566477,12609.758986,-1883.134470,-3874.652550,-1947.418087,-15709.677721,-4331.566910,-1945.473486,14842.273574,9987.094699,-14386.700319,7242.993384,14361.107571,-5603.939963,-11016.034903,4456.311996,0.004750,-0.013875,1.004625,192.000000,0.000000,0.000000,0.000000,0.000000,0.000000,0.000000,0.000000,0.000000,0.000000,1769695217.727144,0.000000
34.000000,9373.874590,12592.257570,-1892.745720,-3883.660303,-1968.361672,-15717.679646,-4339.926462,-1960.247989,14781.253312,9921.537032,-14445.597165,7183.425985,14317.745187,-5658.411164,-11068.740316,4421.689143,0.004750,-0.013875,1.004625,192.000000,0.000000,0.000000,0.000000,0.000000,0.000000,0.000000,0.000000,0.000000,0.000000,1769695217.727162,0.000000
36.000000,9390.236067,12607.523812,-1877.568886,-3865.935369,-1959.443326,-15696.557247,-4321.419218,-1947.842771,14810.511745,9950.549597,-14416.204621,7219.077017,14340.678077,-5620.994344,-11030.049447,4446.454876,0.004750,-0.013875,1.004625,192.000000,0.000000,0.000000,0.000000,0.000000,0.000000,0.000000,0.000000,0.000000,0.000000,1769695217.727181,0.000000
38.000000,9335.966031,12552.493817,-1928.799084,-3916.427960,-2006.627858,-15744.881719,-4369.721338,-2000.995219,14777.341757,9922.900489,-14450.760418,7183.001302,14308.960951,-5658.612330,-11054.636366,4435.882501,0.004750,-0.013875,1.004625,192.000000,0.000000,0.000000,0.000000,0.000000,0.000000,0.000000,0.000000,0.000000,0.000000,1769695217.727200,0.000000
40.000000,9365.224465,12585.328530,-1896.992552,-3876.641855,-1976.609466,-15715.623285,-4333.355049,-1966.461774,14751.793713,9895.944285,-14475.570855,7163.979967,14285.469268,-5675.130269,-11073.233017,4417.039981,0.003375,-0.015938,1.007312,192.000000,0.000000,8.000000,127.500000,56.000000,15.500000,72.000000,0.000000,0.000000,0.000000,1769695217.727219,0.000000
42.000000,9337.865929,12555.243081,-1918.047895,-3900.290000,-1999.452949,-15738.176195,-4355.304462,-1992.903887,14783.957873,9937.250309,-14436.857633,7198.312247,14314.973571,-5636.394696,-11029.624764,4459.217722,0.003375,-0.015938,1.007312,192.000000,0.000000,0.000000,0.000000,0.000000,0.000000,0.000000,0.000000,0.000000,0.000000,1769695217.727238,0.000000
44.000000,9314.217784,12532.466654,-1931.280128,-3913.611640,-2015.523853,-15752.503664,-4367.709681,-2013.109864,14728.592602,9874.978349,-14497.699082,7136.777894,14263.229282,-5698.174917,-11078.373918,4425.801864,0.003375,-0.015938,1.007312,192.000000,0.000000,0.000000,0.000000,0.000000,0.000000,0.000000,0.000000,0.000000,0.000000,1769695217.727257,0.000000
46.000000,9343.520921,12562.865026,-1895.807909,-3879.994617,-1977.414128,-15710.527088,-4333.511512,-1984.566687,14752.486617,9906.449605,-14469.267663,7169.120868,14282.921169,-5671.866914,-11032.776360,4454.568559,0.003375,-0.015938,1.007312,192.000000,0.000000,0.000000,0.000000,0.000000,0.000000,0.000000,0.000000,0.000000,0.000000,1769695217.727276,0.000000
48.000000,9296.314036,12510.181965,-1940.198474,-3932.767085,-2009.243013,-15743.250041,-4381.724224,-2027.571443,14735.946326,9887.025939,-14487.059651,7144.690412,14285.156344,-5687.334321,-11039.012496,4456.311996,0.003375,-0.015938,1.007312,192.000000,0.000000,0.000000,0.000000,0.000000,0.000000,0.000000,0.000000,0.000000,0.000000,1769695217.727295,0.000000
50.000000,9349.019450,12568.609425,-1901.328790,-3889.583515,-1947.641605,-15701.362872,-4347.034317,-1976.810631,14730.559555,9878.778145,-14494.748651,7143.684583,14277.377937,-5678.840659,-11056.715078,4432.127408,0.006687,-0.011969,1.005656,192.000000,0.000000,40.000000,127.500000,96.000000,15.500000,48.000000,0.000000,0.000000,0.000000,1769695217.727314,0.000000
52.000000,9351.500493,12569.682308,-1904.927421,-3890.321122,-1931.458942,-15698.680663,-4347.146076,-1974.910733,14796.117222,9944.402867,-14433.080188,7202.112043,14336.900632,-5636.439399,-11004.948438,4477.322635,0.006687,-0.011969,1.005656,192.000000,0.000000,0.000000,0.000000,0.000000,0.000000,0.000000,0.000000,0.000000,0.000000,1769695217.727333,0.000000
54.000000,9341.621022,12566.553064,-1921.065381,-3898.255992,-1945.406430,-15716.405596,-4358.411355,-1982.376216,14762.455495,9911.881079,-14473.827419,7167.668005,14315.174736,-5657.315929,-11053.161151,4443.929129,0.006687,-0.011969,1.005656,192.000000,0.000000,0.000000,0.000000,0.000000,0.000000,0.000000,0.000000,0.000000,0.000000,1769695217.727352,0.000000
56.000000,9396.092224,12621.717169,-1868.650540,-3844.611805,-1909.978915,-15672.842046,-4304.431892,-1927.614442,14791.848039,9955.511684,-14438.601069,7209.622229,14316.091158,-5612.925364,-11032.396380,4448.667699,0.006687,-0.011969,1.005656,192.000000,0.000000,0.000000,0.000000,0.000000,0.000000,0.000000,0.000000,0.000000,0.000000,1769695217.727371,0.000000
58.000000,9352.953357,12578.310082,-1907.788444,-3880.687521,-1967.244085,-15716.629114,-4343.927424,-1969.389852,14797.167754,9955.891664,-14431.537918,7210.404540,14342.287402,-5604.722274,-11035.413865,4461.631711,0.006687,-0.011969,1.005656,192.000000,0.000000,0.000000,0.000000,0.000000,0.000000,0.000000,0.000000,0.000000,0.000000,1769695217.727393,0.000000
60.000000,9374.791011,12600.035977,-1884.922610,-3853.865427,-1962.505515,-15697.026634,-4319.720485,-1946.032279,14775.575969,9939.351373,-14451.699192,7202.872002,14305.272914,-5634.986536,-11061.833627,4439.525835,0.006687,-0.011969,1.005656,192.000000,0.000000,0.000000,0.000000,0.000000,0.000000,0.000000,0.000000,0.000000,0.000000,1769695217.727412,0.000000
62.000000,9341.285746,12559.154637,-1908.146072,-3884.487317,-1995.854318,-15723.669913,-4344.977956,-1980.297504,14801.034606,9953.388268,-14427.224031,7218.361761,14323.847213,-5619.317963,-11031.748179,4465.029176,0.008000,-0.006000,1.010000,192.000000,0.000000,32.000000,127.500000,104.000000,15.500000,72.000000,0.000000,0.000000,0.000000,1769695217.727431,0.000000
64.000000,9322.599688,12541.094427,-1920.394828,-3897.518384,-2007.790149,-15734.622268,-4354.030413,-1998.581230,14737.063913,9880.588636,-14495.575666,7150.501865,14268.996032,-5685.590885,-11083.760689,4428.662888,0.008000,-0.006000,1.010000,192.000000,0.000000,0.000000,0.000000,0.000000,0.000000,0.000000,0.000000,0.000000,0.000000,1769695217.727449,0.000000
66.000000,9335.004906,12557.433552,-1902.580488,-3879.659340,-1983.940838,-15707.844878,-4339.501779,-1988.120614,14768.646928,9923.124006,-14459.991689,7189.550363,14306.658722,-5651.169199,-11033.648078,4467.174943,0.008000,-0.006000,1.010000,192.000000,0.000000,0.000000,0.000000,0.000000,0.000000,0.000000,0.000000,0.000000,0.000000,1769695217.727468,0.000000
68.000000,9278.477344,12498.648465,-1950.904960,-3930.286042,-2021.648231,-15747.496873,-4389.547335,-2045.028155,14728.413788,9879.269884,-14505.946875,7136.844949,14266.716154,-5676.896057,-11064.225264,4455.529684,0.008000,-0.006000,1.010000,192.000000,0.000000,0.000000,0.000000,0.000000,0.000000,0.000000,0.000000,0.000000,0.000000,1769695217.727487,0.000000
70.000000,9300.314999,12523.257735,-1920.260718,-3903.262782,-1991.607486,-15712.561096,-4362.233503,-2021.335306,14706.822003,9863.422497,-14528.611544,7123.478606,14263.072820,-5700.901830,-11072.942444,4449.785286,0.008000,-0.006000,1.010000,192.000000,0.000000,0.000000,0.000000,0.000000,0.000000,0.000000,0.000000,0.000000,0.000000,1769695217.727505,0.000000
72.000000,9309.792138,12526.252869,-1917.131474,-3904.648591,-1978.643474,-15703.039253,-4360.400660,-2016.104998,14752.173692,9901.800442,-14481.315253,7159.576673,14313.632466,-5653.471429,-11023.232165,4490.018426,0.008000,-0.010000,1.014000,192.000000,0.000000,32.000000,127.500000,88.000000,15.500000,88.000000,0.000000,0.000000,0.000000,1769695217.727524,0.000000
74.000000,9306.953467,12522.967162,-1936.577491,-3918.529024,-1983.002065,-15710.705901,-4374.571666,-2016.619088,14725.508061,9862.394316,-14508.785547,7126.004353,14272.304091,-5691.469394,-11060.805447,4460.312958,0.008000,-0.010000,1.014000,192.000000,0.000000,0.000000,0.000000,0.000000,0.000000,0.000000,0.000000,0.000000,0.000000,1769695218.207030,0.000000
76.000000,9383.038805,12598.538410,-1877.054796,-3857.620520,-1926.742724,-15666.047116,-4313.260831,-1944.378250,14786.036585,9925.627402,-14448.860520,7188.499831,14318.102815,-5647.972899,-11021.175804,4463.956292,0.008000,-0.010000,1.014000,192.000000,0.000000,0.000000,0.000000,0.000000,0.000000,0.000000,0.000000,0.000000,0.000000,1769695218.207104,0.000000
78.000000,9342.984479,12555.488951,-1920.528939,-3905.676771,-1969.367500,-15721.278277,-4359.953625,-1986.935972,14798.084175,9927.795521,-14442.356162,7187.896334,14329.233984,-5632.974879,-11036.196177,4445.717269,0.008000,-0.010000,1.014000,192.000000,0.000000,0.000000,0.000000,0.000000,0.000000,0.000000,0.000000,0.000000,0.000000,1769695218.207159,0.000000
80.000000,9387.173878,12604.707492,-1874.998435,-3862.694366,-1933.738820,-15694.120907,-4321.419218,-1941.070192,14782.303844,9916.642000,-14456.415410,7180.810831,14300.914323,-5635.768847,-11064.068802,4407.138158,0.008000,-0.010000,1.014000,192.000000,0.000000,0.000000,0.000000,0.000000,0.000000,0.000000,0.000000,0.000000,0.000000,1769695218.207220,0.000000
82.000000,9363.212808,12579.651186,-1886.844860,-3882.810936,-1946.144038,-15713.209297,-4337.512474,-1965.545352,14836.551528,9975.047109,-14400.871325,7233.739762,14386.968540,-5598.217916,-11007.720054,4458.189542,0.004000,-0.008000,1.006000,192.000000,0.000000,16.000000,127.500000,96.000000,15.500000,56.000000,0.000000,0.000000,0.000000,1769695218.207274,0.000000
84.000000,9339.631717,12554.885454,-1903.318096,-3901.921678,-1967.154678,-15723.334637,-4354.656262,-1985.304294,14771.999690,9903.096843,-14468.641814,7167.377432,14298.813259,-5668.312987,-11066.236921,4422.002068,0.004000,-0.008000,1.006000,192.000000,0.000000,0.000000,0.000000,0.000000,0.000000,0.000000,0.000000,0.000000,0.000000,1769695218.207324,0.000000
86.000000,9357.803685,12573.929140,-1884.117947,-3876.552448,-1952.983672,-15700.312340,-4329.912881,-1965.724166,14791.132783,9922.118178,-14447.720581,7195.406520,14321.567335,-5654.834885,-11035.816197,4437.916510,0.004000,-0.008000,1.006000,192.000000,0.000000,0.000000,0.000000,0.000000,0.000000,0.000000,0.000000,0.000000,0.000000,1769695218.207344,0.000000
88.000000,9299.152708,12513.110043,-1935.437552,-3921.725323,-2015.345039,-15757.376344,-4371.509477,-2017.736675,14765.942367,9903.566230,-14467.591282,7171.870133,14294.342911,-5659.126420,-11048.780209,4444.242054,0.004000,-0.008000,1.006000,192.000000,0.000000,0.000000,0.000000,0.000000,0.000000,0.000000,0.000000,0.000000,0.000000,1769695218.207363,0.000000
90.000000,9314.441301,12533.316020,-1917.198529,-3896.266686,-2010.025324,-15749.441475,-4351.325852,-1997.843623,14729.889003,9863.020165,-14499.531925,7142.477589,14270.583006,-5706.847394,-11077.904532,4419.297507,0.004000,-0.008000,1.006000,192.000000,0.000000,0.000000,0.000000,0.000000,0.000000,0.000000,0.000000,0.000000,0.000000,1769695218.207392,0.000000
92.000000,9288.848554,12503.543497,-1928.463808,-3913.119902,-2024.844530,-15765.020640,-4369.363710,-2020.240071,14745.579928,9882.667349,-14476.911959,7159.688432,14277.243826,-5679.310045,-11047.327345,4449.561769,0.004000,-0.008000,1.002000,192.000000,0.000000,16.000000,127.500000,96.000000,15.500000,40.000000,0.000000,0.000000,0.000000,1769695218.207411,0.000000
94.000000,9279.103193,12489.484249,-1936.175160,-3923.088780,-2024.218681,-15754.314155,-4383.534716,-2031.214777,14701.055253,9834.097008,-14522.867146,7114.023818,14239.804654,-5731.009630,-11081.614921,4430.853359,0.004000,-0.008000,1.002000,192.000000,0.000000,0.000000,0.000000,0.000000,0.000000,0.000000,0.000000,0.000000,0.000000,1769695218.207430,0.000000
96.000000,9328.567604,12538.792198,-1891.114043,-3879.748747,-1958.549256,-15693.562113,-4340.284090,-1983.359692,14757.694573,9889.529334,-14469.290014,7167.109211,14289.067899,-5655.259568,-11026.160243,4468.113717,0.004000,-0.008000,1.002000,192.000000,0.000000,0.000000,0.000000,0.000000,0.000000,0.000000,0.000000,0.000000,0.000000,1769695218.207450,0.000000
98.000000,9271.213027,12479.895351,-1957.655186,-3943.428867,-2005.242050,-15737.662105,-4398.599791,-2041.697746,14734.471111,9866.283520,-14493.251084,7136.509673,14269.398364,-5693.145775,-11045.539206,4460.335310,0.004000,-0.008000,1.002000,192.000000,0.000000,0.000000,0.000000,0.000000,0.000000,0.000000,0.000000,0.000000,0.000000,1769695218.207469,0.000000
100.000000,9339.899938,12554.058439,-1902.334619,-3881.425128,-1947.418087,-15674.741945,-4337.445419,-1974.821326,14733.040599,9868.339881,-14498.436689,7142.455237,14264.615090,-5686.261438,-11052.959985,4443.795019,0.004000,-0.008000,1.002000,192.000000,0.000000,0.000000,0.000000,0.000000,0.000000,0.000000,0.000000,0.000000,0.000000,1769695218.207488,0.000000
102.000000,9313.323714,12528.935078,-1923.009982,-3898.255992,-1962.706681,-15704.827393,-4355.237407,-1999.072969,14792.451536,9931.058875,-14441.797369,7197.820508,14317.968704,-5639.032202,-11002.109766,4474.796888,0.006000,-0.012000,1.008000,192.000000,0.000000,24.000000,127.500000,80.000000,15.500000,64.000000,0.000000,0.000000,0.000000,1769695218.207507,0.000000
104.000000,9297.521031,12516.306343,-1937.717430,-3913.902213,-1987.405358,-15744.501739,-4371.353015,-2008.550108,14724.949268,9867.624625,-14505.522192,7140.197711,14254.109771,-5695.157432,-11070.416697,4412.748446,0.006000,-0.012000,1.008000,192.000000,0.000000,0.000000,0.000000,0.000000,0.000000,0.000000,0.000000,0.000000,0.000000,1769695218.207526,0.000000
106.000000,9357.021374,12575.046727,-1875.736043,-3859.810991,-1939.796143,-15705.565000,-4315.920689,-1948.535675,14776.246521,9922.252288,-14450.179273,7198.111081,14299.014425,-5643.815475,-11034.318630,4423.924318,0.006000,-0.012000,1.008000,192.000000,0.000000,0.000000,0.000000,0.000000,0.000000,0.000000,0.000000,0.000000,0.000000,1769695218.207545,0.000000
108.000000,9295.397615,12505.868078,-1930.698983,-3917.143216,-2002.470434,-15769.401582,-4374.169335,-2010.070027,14765.450628,9898.201811,-14459.298785,7178.016863,14307.284571,-5663.082679,-11045.114523,4424.326649,0.006000,-0.012000,1.008000,192.000000,0.000000,0.000000,0.000000,0.000000,0.000000,0.000000,0.000000,0.000000,0.000000,1769695218.207564,0.000000
110.000000,9340.659897,12551.085657,-1885.481404,-3869.332834,-1965.366538,-15719.803061,-4332.036296,-1968.093451,14749.200910,9884.477840,-14480.152962,7164.717575,14306.211687,-5677.231333,-11074.417660,4410.669733,0.006000,-0.012000,1.008000,192.000000,0.000000,0.000000,0.000000,0.000000,0.000000,0.000000,0.000000,0.000000,0.000000,1769695218.207583,0.000000
112.000000,9315.603592,12527.772788,-1895.897316,-3881.983922,-1983.717320,-15726.553288,-4344.217997,-1987.673579,14786.014233,9920.933535,-14442.043238,7200.167441,14318.929829,-5645.380097,-11025.556746,4456.669623,0.004000,-0.010000,0.998000,192.000000,0.000000,16.000000,127.500000,88.000000,15.500000,24.000000,0.000000,0.000000,0.000000,1769695218.207602,0.000000
114.000000,9285.540496,12501.263619,-1923.211148,-3905.229736,-2011.791111,-15741.730123,-4368.067308,-2014.652135,14728.503195,9868.429287,-14497.028529,7147.976118,14254.243881,-5688.228391,-11067.376860,4439.212911,0.004000,-0.010000,0.998000,192.000000,0.000000,0.000000,0.000000,0.000000,0.000000,0.000000,0.000000,0.000000,0.000000,1769695218.207621,0.000000
116.000000,9309.970952,12524.978819,-1898.668933,-3878.541753,-1978.889344,-15708.627189,-4341.468733,-1992.278039,14748.418599,9892.256247,-14475.682613,7169.053813,14271.007689,-5660.936911,-11039.303069,4451.796943,0.004000,-0.010000,0.998000,192.000000,0.000000,0.000000,0.000000,0.000000,0.000000,0.000000,0.000000,0.000000,0.000000,1769695218.207640,0.000000
118.000000,9238.780646,12452.715630,-1968.160506,-3944.658213,-2033.494655,-15774.408373,-4400.902021,-2060.853191,14714.868631,9859.645052,-14506.863297,7130.474702,14248.186558,-5696.252667,-11051.328308,4449.919397,0.004000,-0.010000,0.998000,192.000000,0.000000,0.000000,0.000000,0.000000,0.000000,0.000000,0.000000,0.000000,0.000000,1769695218.207659,0.000000
120.000000,9276.868019,12493.239342,-1935.348145,-3907.979001,-2006.583155,-15730.733065,-4363.775773,-2023.592833,14694.573247,9844.848197,-14530.891422,7117.331876,14231.601564,-5715.050485,-11068.539151,4433.624975,0.004000,-0.010000,0.998000,192.000000,0.000000,0.000000,0.000000,0.000000,0.000000,0.000000,0.000000,0.000000,0.000000,1769695218.207678,0.000000
122.000000,9255.499751,12469.121810,-1950.145000,-3924.251071,-2016.037943,-15740.031390,-4376.136288,-2040.870731,14715.360369,9861.835523,-14507.712663,7134.676830,14240.609317,-5694.285714,-11045.740371,4456.401403,0.004000,-0.010000,1.006000,192.000000,0.000000,16.000000,127.500000,88.000000,15.500000,56.000000,0.000000,0.000000,0.000000,1769695218.207702,0.000000
124.000000,9261.177094,12473.323938,-1949.183875,-3930.420152,-2014.272155,-15741.551309,-4382.640646,-2037.741487,14696.428442,9830.878357,-14533.193652,7106.223059,14229.276982,-5723.231223,-11078.373918,4442.185693,0.004000,-0.010000,1.006000,192.000000,0.000000,0.000000,0.000000,0.000000,0.000000,0.000000,0.000000,0.000000,0.000000,1769695218.207721,0.000000
126.000000,9325.304249,12539.172177,-1890.309380,-3872.707948,-1954.369480,-15685.314320,-4331.231634,-1980.319855,14756.733448,9896.033692,-14475.436744,7168.807944,14287.972663,-5674.169144,-11037.023191,4466.973778,0.004000,-0.010000,1.006000,192.000000,0.000000,0.000000,0.000000,0.000000,0.000000,0.000000,0.000000,0.000000,0.000000,1769695218.207740,0.000000
128.000000,9288.826202,12498.022616,-1923.345259,-3906.995524,-1981.280980,-15723.781672,-4365.787430,-2014.898004,14761.561425,9893.195020,-14476.710794,7165.209313,14303.596533,-5645.022469,-11041.359430,4469.276007,0.004000,-0.010000,1.006000,192.000000,0.000000,0.000000,0.000000,0.000000,0.000000,0.000000,0.000000,0.000000,0.000000,1769695218.207759,0.000000
130.000000,9326.131264,12538.814549,-1886.286066,-3872.976169,-1952.044899,-15706.637884,-4332.192759,-1976.385948,14745.356410,9881.549761,-14489.719509,7162.124772,14290.632521,-5673.476240,-11062.638290,4440.442257,0.004000,-0.010000,1.006000,192.000000,0.000000,0.000000,0.000000,0.000000,0.000000,0.000000,0.000000,0.000000,0.000000,1769695218.207778,0.000000
132.000000,9310.842670,12516.842785,-1897.774863,-3894.389140,-1971.647378,-15740.947812,-4347.280186,-1990.691065,14784.784887,9922.788730,-14442.646735,7197.865212,14332.989077,-5628.169254,-11026.853147,4456.490809,0.004000,-0.009000,1.009000,192.000000,0.000000,16.000000,127.500000,96.000000,15.500000,80.000000,0.000000,0.000000,0.000000,1769695218.207797,0.000000
134.000000,9287.730967,12491.115927,-1917.086770,-3912.985791,-1997.262478,-15776.889417,-4360.065384,-2008.930088,14733.845262,9854.146523,-14493.765175,7138.744848,14267.833742,-5711.183633,-11073.255369,4414.491882,0.004000,-0.009000,1.009000,192.000000,0.000000,0.000000,0.000000,0.000000,0.000000,0.000000,0.000000,0.000000,0.000000,1769695218.207816,0.000000
136.000000,9313.703694,12522.520128,-1887.358950,-3878.944085,-1971.043881,-15744.300573,-4325.889567,-1979.358730,14767.082306,9893.150317,-14458.963508,7179.290912,14294.119393,-5664.312025,-11032.552842,4434.787266,0.004000,-0.009000,1.009000,192.000000,0.000000,0.000000,0.000000,0.000000,0.000000,0.000000,0.000000,0.000000,0.000000,1769695218.207835,0.000000
138.000000,9235.539643,12444.177263,-1958.526904,-3947.340423,-2040.110772,-15812.942781,-4392.475413,-2052.583045,14721.708265,9847.955090,-14505.790413,7132.195786,14271.320614,-5709.529604,-11064.806409,4415.341248,0.004000,-0.009000,1.009000,192.000000,0.000000,0.000000,0.000000,0.000000,0.000000,0.000000,0.000000,0.000000,0.000000,1769695218.207854,0.000000
140.000000,9274.230513,12485.148011,-1919.992497,-3908.180166,-1999.676466,-15774.386021,-4356.824381,-2011.299373,14697.277808,9830.274860,-14524.632934,7124.149158,14229.321686,-5737.201063,-11073.680052,4401.639629,0.004000,-0.009000,1.009000,192.000000,0.000000,0.000000,0.000000,0.000000,0.000000,0.000000,0.000000,0.000000,0.000000,1769695218.207873,0.000000
142.000000,9265.490981,12475.603816,-1924.708715,-3910.460044,-1999.184728,-15777.179989,-4360.735936,-2018.854263,14729.866651,9866.484686,-14488.288997,7153.184075,14267.744335,-5677.387795,-11027.300182,4432.082705,0.003000,-0.008500,1.009500,192.000000,0.000000,8.000000,127.500000,96.000000,15.500000,72.000000,0.000000,0.000000,0.000000,1769695218.207892,0.000000
144.000000,9240.635841,12453.520292,-1956.917579,-3933.728210,-2026.073876,-15795.217847,-4386.172221,-2043.240016,14687.688909,9827.659706,-14525.839928,7114.761426,14236.228375,-5728.461531,-11061.654813,4420.236280,0.003000,-0.008500,1.009500,192.000000,0.000000,0.000000,0.000000,0.000000,0.000000,0.000000,0.000000,0.000000,0.000000,1769695218.207911,0.000000
146.000000,9282.277141,12497.732043,-1920.640698,-3894.970285,-1974.016663,-15720.428910,-4350.498837,-2005.867899,14709.437157,9859.041555,-14504.069329,7144.533949,14245.414942,-5700.834775,-11038.654868,4441.403382,0.003000,-0.008500,1.009500,192.000000,0.000000,0.000000,0.000000,0.000000,0.000000,0.000000,0.000000,0.000000,0.000000,1769695218.207930,0.000000
148.000000,9243.161588,12452.536816,-1956.649358,-3935.583405,-1997.664809,-15746.267527,-4392.050730,-2049.833781,14709.012474,9850.436133,-14512.138309,7128.485397,14251.516968,-5688.653074,-11040.711229,4455.060298,0.003000,-0.008500,1.009500,192.000000,0.000000,0.000000,0.000000,0.000000,0.000000,0.000000,0.000000,0.000000,0.000000,1769695218.207949,0.000000
150.000000,9283.171211,12494.088709,-1923.009982,-3902.368713,-1963.086660,-15699.351215,-4363.105221,-2014.026286,14706.129099,9850.212616,-14521.838966,7129.558281,14248.745352,-5683.601580,-11048.936671,4440.106981,0.003000,-0.008500,1.009500,192.000000,0.000000,0.000000,0.000000,0.000000,0.000000,0.000000,0.000000,0.000000,0.000000,1769695218.207968,0.000000
152.000000,9285.875772,12495.183944,-1912.638773,-3904.201556,-1945.764058,-15697.026634,-4361.026509,-2010.360600,14750.519663,9896.592485,-14480.421183,7164.695223,14290.677224,-5660.176952,-11013.106825,4455.127353,0.006500,-0.008250,1.011750,192.000000,0.000000,40.000000,127.500000,96.000000,15.500000,88.000000,0.000000,0.000000,0.000000,1769695218.207987,0.000000
154.000000,9272.241208,12478.621301,-1923.613480,-3918.394913,-1960.136230,-15737.595050,-4372.403547,-2023.235205,14719.651904,9858.438058,-14511.355997,7130.340592,14267.185541,-5692.050539,-11048.132008,4423.298469,0.006500,-0.008250,1.011750,192.000000,0.000000,0.000000,0.000000,0.000000,0.000000,0.000000,0.000000,0.000000,0.000000,1769695218.208009,0.000000
156.000000,9299.644446,12504.079938,-1893.595087,-3887.884782,-1944.355898,-15722.887602,-4342.183988,-1995.809614,14747.055143,9878.800497,-14481.203494,7161.230703,14294.857001,-5666.390737,-11024.550918,4425.220719,0.006500,-0.008250,1.011750,192.000000,0.000000,0.000000,0.000000,0.000000,0.000000,0.000000,0.000000,0.000000,0.000000,1769695218.208028,0.000000
158.000000,9254.560978,12458.638842,-1942.657166,-3931.403629,-1993.775605,-15780.331585,-4381.523059,-2032.622937,14735.454587,9867.043479,-14485.092698,7148.669022,14285.111640,-5685.188554,-11035.547976,4424.192539,0.006500,-0.008250,1.011750,192.000000,0.000000,0.000000,0.000000,0.000000,0.000000,0.000000,0.000000,0.000000,0.000000,1769695218.208047,0.000000
160.000000,9289.094423,12497.486174,-1915.544500,-3894.947934,-1979.872820,-15752.771885,-4342.765134,-1993.417978,14706.620837,9841.987174,-14508.718492,7136.509673,14245.705515,-5725.287584,-11066.527494,4395.090567,0.006500,-0.008250,1.011750,192.000000,0.000000,0.000000,0.000000,0.000000,0.000000,0.000000,0.000000,0.000000,0.000000,1769695218.208065,0.000000
162.000000,9253.443391,12457.878883,-1946.747535,-3927.313260,-2012.036981,-15795.284902,-4371.531829,-2030.901853,14738.606183,9877.817020,-14474.274453,7167.802115,14263.184579,-5688.586019,-11025.959078,4427.098266,0.004250,-0.012125,1.014875,192.000000,0.000000,8.000000,127.500000,64.000000,15.500000,104.000000,0.000000,0.000000,0.000000,1769695218.208084,0.000000
164.000000,9215.356018,12422.943106,-1975.648341,-3954.649443,-2038.903777,-15819.268324,-4398.488033,-2063.043661,14673.048517,9798.825955,-14547.476417,7092.700254,14196.263456,-5741.403191,-11084.408889,4388.608562,0.004250,-0.012125,1.014875,192.000000,0.000000,0.000000,0.000000,0.000000,0.000000,0.000000,0.000000,0.000000,0.000000,1769695218.208103,0.000000
166.000000,9252.661079,12468.607720,-1933.716468,-3902.949858,-2010.651172,-15767.725202,-4353.538675,-2017.982545,14686.928950,9841.204863,-14526.443425,7129.468874,14219.442215,-5718.045618,-11057.720906,4413.597812,0.004250,-0.012125,1.014875,192.000000,0.000000,0.000000,0.000000,0.000000,0.000000,0.000000,0.000000,0.000000,0.000000,1769695218.208122,0.000000
168.000000,9211.377407,12422.563126,-1969.345149,-3938.913815,-2044.737583,-15793.720280,-4392.274248,-2058.148629,14687.666558,9833.426456,-14527.225736,7124.819711,14235.937802,-5709.797825,-11059.352584,4433.580271,0.004250,-0.012125,1.014875,192.000000,0.000000,0.000000,0.000000,0.000000,0.000000,0.000000,0.000000,0.000000,0.000000,1769695218.208141,0.000000
170.000000,9247.430771,12459.756429,-1936.957471,-3904.156852,-2015.903832,-15741.864233,-4362.837000,-2027.683202,14668.354651,9813.019313,-14544.973021,7110.201670,14227.086512,-5731.903700,-11084.207724,4420.839777,0.004250,-0.012125,1.014875,192.000000,0.000000,0.000000,0.000000,0.000000,0.000000,0.000000,0.000000,0.000000,0.000000,1769695218.208160,0.000000
172.000000,9251.722306,12459.801133,-1938.142113,-3915.399780,-2008.594812,-15736.097483,-4366.234465,-2028.107885,14713.728692,9863.511904,-14496.670901,7150.859493,14246.107846,-5694.330417,-11042.566424,4454.635615,0.006125,-0.012063,1.013437,192.000000,0.000000,32.000000,127.500000,80.000000,15.500000,80.000000,0.000000,0.000000,0.000000,1769695218.208179,0.000000
174.000000,9261.065335,12467.043098,-1938.432686,-3916.427960,-1998.827100,-15728.453187,-4370.928332,-2020.932975,14690.706395,9828.374961,-14528.164509,7118.829443,14228.092340,-5719.945517,-11079.536209,4424.840739,0.006125,-0.012063,1.013437,192.000000,0.000000,0.000000,0.000000,0.000000,0.000000,0.000000,0.000000,0.000000,0.000000,1769695218.208198,0.000000
176.000000,9316.765883,12528.197471,-1884.207354,-3861.554427,-1939.103238,-15674.361965,-4322.022715,-1965.970035,14747.099846,9890.021073,-14471.838113,7179.380319,14290.990149,-5649.716336,-11030.451778,4454.926187,0.006125,-0.012063,1.013437,192.000000,0.000000,0.000000,0.000000,0.000000,0.000000,0.000000,0.000000,0.000000,0.000000,1769695218.208216,0.000000
178.000000,9261.177094,12468.853589,-1933.425895,-3920.071294,-1991.987466,-15739.383190,-4376.918599,-2023.078742,14744.931727,9886.958884,-14476.710794,7168.584426,14302.993036,-5660.914559,-11036.732618,4459.195371,0.006125,-0.012063,1.013437,192.000000,0.000000,0.000000,0.000000,0.000000,0.000000,0.000000,0.000000,0.000000,0.000000,1769695218.208235,0.000000
180.000000,9297.342217,12507.209183,-1895.092654,-3883.906172,-1974.955437,-15721.345332,-4340.775828,-1984.723149,14723.630515,9863.154276,-14499.487221,7147.864359,14269.957157,-5669.095298,-11066.795715,4419.588079,0.006125,-0.012063,1.013437,192.000000,0.000000,0.000000,0.000000,0.000000,0.000000,0.000000,0.000000,0.000000,0.000000,1769695218.208254,0.000000
182.000000,9284.355853,12489.730118,-1906.179119,-3897.831309,-1993.261515,-15750.693172,-4343.793314,-1997.597754,14762.790771,9901.934552,-14454.828436,7182.733081,14287.771498,-5648.464638,-11022.963944,4445.516103,0.006063,-0.015031,1.011719,192.000000,0.000000,24.000000,127.500000,56.000000,15.500000,72.000000,0.000000,0.000000,0.000000,1769695218.208273,0.000000
184.000000,9256.036193,12459.644670,-1940.332584,-3928.050867,-2035.528664,-15793.720280,-4366.480335,-2022.095266,14705.726767,9843.238871,-14507.109166,7127.837196,14238.843529,-5715.743389,-11075.557599,4403.763044,0.006063,-0.015031,1.011719,192.000000,0.000000,0.000000,0.000000,0.000000,0.000000,0.000000,0.000000,0.000000,0.000000,1769695218.208335,0.000000
186.000000,9287.082766,12493.284046,-1910.738875,-3894.545602,-2014.383914,-15758.583338,-4333.422105,-1992.725073,14729.173747,9872.542008,-14481.203494,7163.845857,14261.821122,-5697.660827,-11050.300127,4413.128425,0.006063,-0.015031,1.011719,192.000000,0.000000,0.000000,0.000000,0.000000,0.000000,0.000000,0.000000,0.000000,0.000000,1769695218.208358,0.000000
188.000000,9235.941975,12439.930432,-1954.213018,-3934.801094,-2051.867789,-15802.929199,-4376.918599,-2040.446048,14705.100918,9846.345764,-14509.456099,7128.865377,14235.110788,-5726.852206,-11070.550808,4406.065274,0.006063,-0.015031,1.011719,192.000000,0.000000,0.000000,0.000000,0.000000,0.000000,0.000000,0.000000,0.000000,0.000000,1769695218.208377,0.000000
190.000000,9268.821391,12475.603816,-1925.334564,-3897.048998,-2020.664754,-15769.915673,-4346.743744,-2007.141949,14691.533410,9842.702430,-14520.497861,7128.798321,14237.994163,-5710.848357,-11073.009500,4410.647382,0.006063,-0.015031,1.011719,192.000000,0.000000,0.000000,0.000000,0.000000,0.000000,0.000000,0.000000,0.000000,0.000000,1769695218.208396,0.000000
192.000000,9242.848664,12448.871130,-1947.529846,-3920.048943,-2044.804638,-15782.477353,-4371.375367,-2032.287661,14712.521698,9868.228122,-14494.368672,7148.758429,14239.491730,-5693.905734,-11048.355526,4443.370336,0.008031,-0.014516,1.014859,192.000000,0.000000,40.000000,127.500000,72.000000,15.500000,104.000000,0.000000,0.000000,0.000000,1769695218.208414,0.000000
194.000000,9245.396763,12449.519330,-1947.932178,-3924.385181,-2048.850304,-15773.134324,-4374.728128,-2032.131199,14675.037822,9821.535328,-14535.831158,7102.333856,14198.878610,-5750.545055,-11096.501183,4428.662888,0.008031,-0.014516,1.014859,192.000000,0.000000,0.000000,0.000000,0.000000,0.000000,0.000000,0.000000,0.000000,0.000000,1769695218.688191,0.000000
196.000000,9290.189658,12496.033310,-1906.424988,-3889.628218,-2012.662829,-15726.262716,-4339.971166,-1990.333437,14723.675218,9873.503133,-14485.673843,7154.838104,14249.706477,-5690.105938,-11060.425468,4453.205103,0.008031,-0.014516,1.014859,192.000000,0.000000,0.000000,0.000000,0.000000,0.000000,0.000000,0.000000,0.000000,0.000000,1769695218.688260,0.000000
198.000000,9260.260673,12459.622319,-1933.358840,-3928.184978,-2032.511179,-15754.917652,-4373.275265,-2022.743466,14717.819061,9856.649918,-14492.692291,7134.319202,14235.446064,-5694.755101,-11075.781116,4444.264405,0.008031,-0.014516,1.014859,192.000000,0.000000,0.000000,0.000000,0.000000,0.000000,0.000000,0.000000,0.000000,0.000000,1769695218.688314,0.000000
200.000000,9323.113778,12523.905936,-1879.155860,-3881.626294,-1972.139117,-15704.782689,-4323.363820,-1962.013777,14733.867614,9864.741250,-14480.845866,7146.299737,14242.710381,-5696.163260,-11073.568293,4428.685239,0.008031,-0.014516,1.014859,192.000000,0.000000,0.000000,0.000000,0.000000,0.000000,0.000000,0.000000,0.000000,0.000000,1769695218.688366,0.000000
202.000000,9312.474348,12508.863212,-1893.885659,-3904.201556,-1982.510326,-15719.601896,-4339.546483,-1977.034149,14790.797507,9919.078340,-14420.987895,7198.736930,14309.765614,-5657.695908,-11021.824005,4446.611338,0.008031,-0.014516,1.014859,192.000000,0.000000,0.000000,0.000000,0.000000,0.000000,0.000000,0.000000,0.000000,0.000000,1769695218.688414,0.000000
204.000000,9290.614342,12488.366662,-1919.590166,-3925.279251,-1999.363542,-15755.275280,-4364.759250,-2000.771701,14736.594526,9861.924930,-14478.409526,7144.444542,14267.140838,-5706.132139,-11075.982282,4391.871916,0.012000,-0.010000,1.012000,192.000000,0.000000,48.000000,127.500000,88.000000,15.500000,80.000000,0.000000,0.000000,0.000000,1769695218.688467,0.000000
206.000000,9335.898976,12538.769846,-1874.640807,-3871.702119,-1963.019605,-15709.655369,-4314.199604,-1952.111954,14758.678050,9892.122137,-14454.537863,7178.665063,14277.199123,-5665.653129,-11049.249595,4403.919507,0.012000,-0.010000,1.012000,192.000000,0.000000,0.000000,0.000000,0.000000,0.000000,0.000000,0.000000,0.000000,0.000000,1769695218.688490,0.000000
208.000000,9277.672682,12478.442488,-1934.521131,-3932.252995,-2030.745391,-15785.003100,-4369.229599,-2009.377123,14755.258233,9891.272770,-14463.925596,7169.567903,14274.047527,-5676.650188,-11057.407982,4416.302373,0.012000,-0.010000,1.012000,192.000000,0.000000,0.000000,0.000000,0.000000,0.000000,0.000000,0.000000,0.000000,0.000000,1769695218.688510,0.000000
210.000000,9312.966086,12516.775729,-1900.837052,-3897.943067,-2000.637591,-15755.185873,-4333.220939,-1970.865067,14729.151395,9862.014337,-14487.126706,7153.921682,14243.246823,-5716.413941,-11081.927846,4395.135271,0.012000,-0.010000,1.012000,192.000000,0.000000,0.000000,0.000000,0.000000,0.000000,0.000000,0.000000,0.000000,0.000000,1769695218.688529,0.000000
212.000000,9287.686263,12492.725252,-1916.371514,-3916.718533,-2011.500539,-15771.882626,-4351.415259,-1995.876669,14764.780076,9902.292180,-14446.133607,7191.383206,14286.676262,-5685.970865,-11030.272964,4432.797960,0.012000,-0.010000,1.012000,192.000000,0.000000,0.000000,0.000000,0.000000,0.000000,0.000000,0.000000,0.000000,0.000000,1769695218.688548,0.000000
214.000000,9240.434675,12446.077162,-1958.057518,-3954.492981,-2057.187504,-15805.007911,-4393.414187,-2043.172961,14678.368232,9816.908517,-14531.137291,7107.921792,14199.929142,-5751.573235,-11100.725663,4380.584285,0.008000,-0.010000,1.006000,192.000000,0.000000,32.000000,127.500000,88.000000,15.500000,56.000000,0.000000,0.000000,0.000000,1769695218.688568,0.000000
216.000000,9292.313074,12498.447299,-1906.693209,-3892.153965,-2005.711437,-15745.664030,-4336.663107,-1989.327608,14713.773395,9853.721840,-14491.284131,7149.764258,14235.915451,-5694.732749,-11055.329270,4423.343172,0.008000,-0.010000,1.006000,192.000000,0.000000,0.000000,0.000000,0.000000,0.000000,0.000000,0.000000,0.000000,0.000000,1769695218.688586,0.000000
218.000000,9250.828236,12453.788513,-1962.170239,-3932.476512,-2049.364394,-15778.722260,-4382.104204,-2027.839664,14698.753023,9846.256357,-14502.996445,7134.162740,14232.517985,-5717.822101,-11074.417660,4443.012708,0.008000,-0.010000,1.006000,192.000000,0.000000,0.000000,0.000000,0.000000,0.000000,0.000000,0.000000,0.000000,0.000000,1769695218.688615,0.000000
220.000000,9306.975819,12512.640657,-1921.199491,-3891.371654,-2007.499577,-15721.635905,-4339.971166,-1974.441346,14696.227276,9847.575110,-14504.471660,7141.739981,14207.640494,-5725.198177,-11094.623637,4438.810580,0.008000,-0.010000,1.006000,192.000000,0.000000,0.000000,0.000000,0.000000,0.000000,0.000000,0.000000,0.000000,0.000000,1769695218.688635,0.000000
222.000000,9305.433548,12510.427834,-1923.479369,-3908.291925,-2003.476263,-15733.482329,-4349.694174,-1981.079815,14740.416675,9890.468108,-14459.187026,7178.530953,14254.936785,-5683.646284,-11065.901645,4446.164304,0.008000,-0.010000,1.006000,192.000000,0.000000,0.000000,0.000000,0.000000,0.000000,0.000000,0.000000,0.000000,0.000000,1769695218.688655,0.000000
224.000000,9312.384941,12514.719369,-1920.998325,-3918.551376,-1997.955382,-15745.529919,-4355.192704,-1984.723149,14728.167919,9869.099840,-14480.309424,7153.385240,14261.731715,-5702.019418,-11090.376805,4414.111902,0.010000,-0.006000,1.010000,192.000000,0.000000,40.000000,127.500000,104.000000,15.500000,72.000000,0.000000,0.000000,0.000000,1769695218.688673,0.000000
226.000000,9354.048592,12560.451038,-1872.763261,-3879.078195,-1952.134305,-15702.256942,-4317.530014,-1946.546369,14763.349564,9906.583715,-14447.608822,7193.819546,14282.787059,-5666.189571,-11051.954156,4411.764969,0.010000,-0.006000,1.010000,192.000000,0.000000,0.000000,0.000000,0.000000,0.000000,0.000000,0.000000,0.000000,0.000000,1769695218.688693,0.000000
228.000000,9304.874755,12505.577505,-1918.941965,-3930.889539,-1998.692989,-15750.916690,-4369.229599,-2000.726998,14762.835474,9895.340788,-14452.414447,7179.000339,14282.787059,-5688.228391,-11041.515892,4416.727056,0.010000,-0.006000,1.010000,192.000000,0.000000,0.000000,0.000000,0.000000,0.000000,0.000000,0.000000,0.000000,0.000000,1769695218.688712,0.000000
230.000000,9334.937851,12542.457884,-1890.108215,-3888.801204,-1975.022492,-15732.923535,-4335.433762,-1963.220771,14728.905526,9871.290311,-14480.711756,7161.677737,14250.935823,-5695.604467,-11066.751011,4393.481242,0.010000,-0.006000,1.010000,192.000000,0.000000,0.000000,0.000000,0.000000,0.000000,0.000000,0.000000,0.000000,0.000000,1769695218.688731,0.000000
232.000000,9318.665781,12525.358799,-1911.387075,-3902.636934,-1996.077835,-15745.239347,-4353.426916,-1980.275152,14757.940442,9903.454471,-14446.245366,7195.384168,14274.628672,-5673.342129,-11033.513967,4429.691068,0.010000,-0.006000,1.010000,192.000000,0.000000,0.000000,0.000000,0.000000,0.000000,0.000000,0.000000,0.000000,0.000000,1769695218.688751,0.000000
234.000000,9308.003999,12515.434625,-1928.240291,-3915.779759,-2015.725018,-15762.092562,-4363.865180,-1994.624972,14719.763663,9861.008508,-14489.071308,7151.395935,14235.200195,-5721.711304,-11075.557599,4410.759140,0.008000,-0.014000,1.016000,192.000000,0.000000,32.000000,127.500000,72.000000,15.500000,96.000000,0.000000,0.000000,0.000000,1769695218.688769,0.000000
236.000000,9329.506377,12540.513282,-1903.899241,-3889.091777,-2000.078797,-15737.282126,-4333.042125,-1976.654169,14738.628535,9883.583770,-14470.005270,7178.195677,14254.377991,-5688.429557,-11047.953194,4429.065219,0.008000,-0.014000,1.016000,192.000000,0.000000,0.000000,0.000000,0.000000,0.000000,0.000000,0.000000,0.000000,0.000000,1769695218.688788,0.000000
238.000000,9259.277196,12468.183037,-1957.319910,-3945.418173,-2055.444068,-15803.979731,-4385.725187,-2042.502408,14716.366198,9860.047383,-14499.219000,7145.651537,14238.262384,-5717.352714,-11065.499314,4429.959289,0.008000,-0.014000,1.016000,192.000000,0.000000,0.000000,0.000000,0.000000,0.000000,0.000000,0.000000,0.000000,0.000000,1769695218.688808,0.000000
240.000000,9301.790214,12511.478366,-1919.232538,-3906.280268,-2022.631708,-15753.934175,-4348.375422,-2001.710475,14691.667520,9834.119360,-14520.788434,7126.026705,14211.350883,-5740.754991,-11085.012386,4416.570594,0.008000,-0.014000,1.016000,192.000000,0.000000,0.000000,0.000000,0.000000,0.000000,0.000000,0.000000,0.000000,0.000000,1769695218.688827,0.000000
242.000000,9292.469536,12502.515316,-1933.805875,-3918.663134,-2030.745391,-15763.724239,-4358.612521,-2008.840681,14728.234974,9868.608101,-14479.840038,7161.543627,14229.813424,-5701.997066,-11057.810313,4442.230397,0.008000,-0.014000,1.016000,192.000000,0.000000,0.000000,0.000000,0.000000,0.000000,0.000000,0.000000,0.000000,0.000000,1769695218.688846,0.000000
244.000000,9278.343234,12488.679586,-1964.003082,-3945.172303,-2062.015481,-15800.828135,-4384.004102,-2025.068048,14694.081508,9836.443941,-14510.640742,7131.078199,14199.772680,-5742.341965,-11105.754805,4410.557975,0.010000,-0.012000,1.004000,192.000000,0.000000,40.000000,127.500000,80.000000,15.500000,48.000000,0.000000,0.000000,0.000000,1769695218.688865,0.000000
246.000000,9339.385848,12549.588090,-1909.844805,-3886.633085,-2000.615239,-15741.618364,-4330.225805,-1970.216867,14723.317590,9874.955997,-14484.444497,7161.476572,14227.511195,-5707.495595,-11092.030834,4406.601716,0.010000,-0.012000,1.004000,192.000000,0.000000,0.000000,0.000000,0.000000,0.000000,0.000000,0.000000,0.000000,0.000000,1769695218.688884,0.000000
248.000000,9294.682359,12502.358854,-1951.307291,-3935.337536,-2039.261405,-15774.251911,-4371.911808,-2013.892175,14741.556614,9887.227105,-14471.055802,7171.356043,14250.913471,-5688.340150,-11077.345738,4421.689143,0.010000,-0.012000,1.004000,192.000000,0.000000,0.000000,0.000000,0.000000,0.000000,0.000000,0.000000,0.000000,0.000000,1769695218.688904,0.000000
250.000000,9345.689040,12555.578358,-1901.172328,-3892.578649,-1991.831004,-15737.930326,-4330.024639,-1963.153716,14722.758797,9869.792744,-14491.820573,7158.682604,14234.842567,-5712.345923,-11099.473965,4387.602733,0.010000,-0.012000,1.004000,192.000000,0.000000,0.000000,0.000000,0.000000,0.000000,0.000000,0.000000,0.000000,0.000000,1769695218.688926,0.000000
252.000000,9335.407237,12546.078866,-1902.379322,-3906.280268,-1989.215850,-15752.302498,-4341.289919,-1974.486050,14778.638158,9932.310573,-14432.789616,7213.176157,14296.868658,-5654.589016,-11037.425522,4423.387876,0.010000,-0.012000,1.004000,192.000000,0.000000,0.000000,0.000000,0.000000,0.000000,0.000000,0.000000,0.000000,0.000000,1769695218.688945,0.000000
254.000000,9320.878604,12528.845671,-1919.165482,-3921.948841,-1998.290658,-15769.178065,-4361.697061,-1994.513213,14731.453625,9877.995834,-14483.796297,7156.738002,14251.919300,-5712.077703,-11076.205799,4387.982713,0.006000,-0.008000,1.006000,192.000000,0.000000,24.000000,127.500000,96.000000,15.500000,56.000000,0.000000,0.000000,0.000000,1769695218.688964,0.000000
0.000000,9366.073831,12575.337300,-1878.351197,-3873.087927,-1958.862181,-15723.356989,-4319.318154,-1951.530808,14756.576986,9907.768358,-14458.896453,7187.941037,14264.056297,-5691.067063,-11042.946403,4405.282963,0.006000,-0.008000,1.006000,192.000000,0.000000,0.000000,0.000000,0.000000,0.000000,0.000000,0.000000,0.000000,0.000000,1769695218.688983,0.000000
2.000000,9305.008865,12514.004113,-1935.370497,-3919.288983,-2022.005859,-15778.230521,-4367.262646,-2007.141949,14761.807294,9916.172614,-14454.336697,7192.478441,14271.119448,-5659.014661,-11033.581022,4436.575405,0.006000,-0.008000,1.006000,192.000000,0.000000,0.000000,0.000000,0.000000,0.000000,0.000000,0.000000,0.000000,0.000000,1769695218.689003,0.000000
4.000000,9317.190566,12527.370456,-1918.114950,-3905.319143,-2018.988373,-15756.906957,-4347.213131,-1993.216812,14707.313741,9855.979366,-14509.590210,7144.601005,14204.891229,-5726.204005,-11083.403061,4402.444291,0.006000,-0.008000,1.006000,192.000000,0.000000,0.000000,0.000000,0.000000,0.000000,0.000000,0.000000,0.000000,0.000000,1769695218.689022,0.000000
6.000000,9295.576429,12502.895296,-1934.498779,-3920.183053,-2033.315841,-15766.071172,-4358.970148,-2017.311992,14738.226204,9888.456451,-14475.280282,7173.300645,14238.977640,-5698.018455,-11038.185482,4449.517065,0.006000,-0.008000,1.006000,192.000000,0.000000,0.000000,0.000000,0.000000,0.000000,0.000000,0.000000,0.000000,0.000000,1769695218.689042,0.000000
8.000000,9283.931170,12489.081918,-1953.006024,-3933.839969,-2044.044679,-15761.958452,-4373.722300,-2033.561711,14684.961997,9827.413836,-14535.004143,7110.067559,14201.449061,-5749.829799,-11096.165907,4431.881539,0.006000,-0.012000,1.005000,192.000000,0.000000,24.000000,127.500000,64.000000,15.500000,48.000000,0.000000,0.000000,0.000000,1769695218.689061,0.000000
10.000000,9332.367400,12538.121645,-1917.064418,-3893.003332,-1997.955382,-15707.062567,-4335.456113,-1986.690102,14727.720884,9866.484686,-14493.228733,7151.530045,14236.429541,-5672.090432,-11066.281625,4456.379051,0.006000,-0.012000,1.005000,192.000000,0.000000,0.000000,0.000000,0.000000,0.000000,0.000000,0.000000,0.000000,0.000000,1769695218.689080,0.000000
12.000000,9294.458842,12498.939037,-1960.650320,-3941.148989,-2041.854208,-15773.402545,-4381.098375,-2023.190501,14726.893869,9861.500247,-14490.434765,7147.350269,14238.150625,-5703.673447,-11082.397232,4443.303280,0.006000,-0.012000,1.005000,192.000000,0.000000,0.000000,0.000000,0.000000,0.000000,0.000000,0.000000,0.000000,0.000000,1769695218.689099,0.000000
14.000000,9357.110781,12563.781448,-1904.882718,-3894.858527,-1997.709512,-15734.063474,-4332.058648,-1963.019605,14728.883175,9860.695584,-14492.826401,7152.893502,14218.995180,-5727.634517,-11101.865602,4398.286867,0.006000,-0.012000,1.005000,192.000000,0.000000,0.000000,0.000000,0.000000,0.000000,0.000000,0.000000,0.000000,0.000000,1769695218.689118,0.000000
16.000000,9361.938758,12567.916521,-1892.701017,-3895.171451,-1982.711492,-15742.221861,-4329.376439,-1961.812611,14792.049204,9931.930593,-14426.128796,7217.892375,14282.563541,-5670.279940,-11039.571290,4424.483111,0.006000,-0.012000,1.005000,192.000000,0.000000,0.000000,0.000000,0.000000,0.000000,0.000000,0.000000,0.000000,0.000000,1769695218.689137,0.000000
18.000000,9329.327563,12533.651296,-1919.321945,-3929.570786,-2005.934954,-15784.578417,-4361.384137,-1999.207079,14744.462340,9877.302930,-14479.571817,7163.152953,14257.730753,-5712.815310,-11074.819991,4385.546373,0.012000,-0.011000,1.004500,192.000000,0.000000,72.000000,127.500000,88.000000,15.500000,48.000000,0.000000,0.000000,0.000000,1769695218.689155,0.000000
20.000000,9374.925122,12582.601617,-1868.337616,-3881.022797,-1954.660053,-15733.683495,-4316.747703,-1954.704756,14778.325233,9909.400035,-14449.933404,7198.155784,14284.552846,-5677.432499,-11030.831758,4404.478300,0.012000,-0.011000,1.004500,192.000000,0.000000,0.000000,0.000000,0.000000,0.000000,0.000000,0.000000,0.000000,0.000000,1769695218.689174,0.000000
22.000000,9328.433493,12531.840805,-1913.488139,-3922.977021,-1987.494765,-15776.889417,-4364.692195,-2002.872765,14760.265024,9891.719805,-14469.178256,7171.780726,14278.964910,-5696.967923,-11035.436217,4410.446216,0.012000,-0.011000,1.004500,192.000000,0.000000,0.000000,0.000000,0.000000,0.000000,0.000000,0.000000,0.000000,0.000000,1769695218.689193,0.000000
24.000000,9365.380927,12570.688137,-1889.124738,-3892.511593,-1963.332529,-15734.376399,-4344.642680,-1970.462736,14754.431218,9886.534200,-14477.381346,7173.144182,14260.904701,-5707.070912,-11041.091209,4413.284887,0.012000,-0.011000,1.004500,192.000000,0.000000,0.000000,0.000000,0.000000,0.000000,0.000000,0.000000,0.000000,0.000000,1769695218.689213,0.000000
26.000000,9348.952395,12552.829093,-1907.296706,-3901.519346,-1978.799937,-15744.278222,-4354.857427,-1985.505460,14784.561370,9919.301858,-14444.792502,7204.704846,14278.406117,-5667.262455,-11013.710322,4445.314937,0.012000,-0.011000,1.004500,192.000000,0.000000,0.000000,0.000000,0.000000,0.000000,0.000000,0.000000,0.000000,0.000000,1769695218.689236,0.000000
28.000000,9313.748397,12518.005075,-1941.338413,-3925.145140,-2031.617109,-15775.771830,-4379.086718,-2018.653097,14722.289410,9861.455543,-14507.287980,7145.428019,14231.825081,-5710.960115,-11071.757802,4420.415094,0.014000,-0.007500,1.004250,192.000000,0.000000,64.000000,127.500000,112.000000,15.500000,48.000000,0.000000,0.000000,0.000000,1769695218.689256,0.000000
30.000000,9364.419802,12575.136134,-1890.219973,-3866.941198,-1988.031207,-15704.223896,-4321.396866,-1967.624064,14749.670297,9899.364102,-14478.253064,7179.156802,14257.395477,-5680.606446,-11043.974584,4448.801809,0.014000,-0.007500,1.004250,192.000000,0.000000,0.000000,0.000000,0.000000,0.000000,0.000000,0.000000,0.000000,0.000000,1769695218.689275,0.000000
32.000000,9301.142013,12511.344255,-1955.062384,-3930.263690,-2054.393536,-15768.887492,-4380.472527,-2027.258519,14736.214547,9885.170744,-14492.222904,7161.342461,14228.360561,-5689.703606,-11062.325366,4462.056394,0.014000,-0.007500,1.004250,192.000000,0.000000,0.000000,0.000000,0.000000,0.000000,0.000000,0.000000,0.000000,0.000000,1769695218.689294,0.000000
34.000000,9346.784275,12557.813532,-1919.053724,-3893.807995,-2017.736675,-15730.442492,-4345.424991,-1979.805765,14717.506137,9863.020165,-14506.349207,7149.004298,14219.084587,-5719.207909,-11094.623637,4440.688126,0.014000,-0.007500,1.004250,192.000000,0.000000,0.000000,0.000000,0.000000,0.000000,0.000000,0.000000,0.000000,0.000000,1769695218.689313,0.000000
36.000000,9362.184627,12570.621082,-1905.530918,-3884.643779,-1998.648286,-15708.224858,-4334.316174,-1963.131364,14778.347585,9923.883965,-14441.037409,7207.588221,14265.330346,-5661.853333,-11048.601395,4481.703577,0.014000,-0.007500,1.004250,192.000000,0.000000,0.000000,0.000000,0.000000,0.000000,0.000000,0.000000,0.000000,0.000000,1769695218.689332,0.000000
38.000000,9328.813473,12536.288802,-1943.372422,-3926.173321,-2032.377068,-15731.738893,-4374.459907,-2000.011742,14735.745160,9876.162991,-14486.456154,7159.330804,14231.087474,-5708.523775,-11099.876297,4449.517065,0.011000,-0.008750,1.005125,192.000000,0.000000,32.000000,127.500000,88.000000,15.500000,56.000000,0.000000,0.000000,0.000000,1769695218.689350,0.000000
40.000000,9394.952285,12606.428576,-1878.619418,-3861.487372,-1964.450117,-15662.470837,-4314.512529,-1936.935119,14767.663451,9917.714884,-14456.035430,7196.054720,14261.329384,-5653.672594,-11069.455572,4456.691975,0.011000,-0.008750,1.005125,192.000000,0.000000,0.000000,0.000000,0.000000,0.000000,0.000000,0.000000,0.000000,0.000000,1769695218.689369,0.000000
42.000000,9340.592842,12546.078866,-1923.948756,-3914.282193,-2000.347018,-15722.149995,-4363.328739,-1991.428672,14783.019100,9928.756646,-14446.088904,7201.307380,14285.066937,-5649.068135,-11048.959023,4468.046661,0.011000,-0.008750,1.005125,192.000000,0.000000,0.000000,0.000000,0.000000,0.000000,0.000000,0.000000,0.000000,0.000000,1769695218.689388,0.000000
44.000000,9365.582092,12573.705622,-1894.936191,-3889.494108,-1971.915599,-15700.267637,-4336.953680,-1965.925332,14751.257271,9896.436023,-14477.560160,7173.792383,14255.003840,-5689.502441,-11066.952177,4433.826141,0.011000,-0.008750,1.005125,192.000000,0.000000,0.000000,0.000000,0.000000,0.000000,0.000000,0.000000,0.000000,0.000000,1769695218.689407,0.000000
46.000000,9359.502418,12566.553064,-1891.985761,-3892.712759,-1968.898114,-15723.044064,-4331.097523,-1966.506477,14786.282454,9927.639059,-14440.076284,7205.598915,14289.470230,-5658.031184,-11015.498461,4457.697804,0.011000,-0.008750,1.005125,192.000000,0.000000,0.000000,0.000000,0.000000,0.000000,0.000000,0.000000,0.000000,0.000000,1769695218.689426,0.000000
48.000000,9312.854327,12519.457939,-1946.345204,-3941.551321,-2019.860091,-15788.624083,-4379.869030,-2017.736675,14723.027017,9862.327261,-14504.091681,7143.997508,14236.228375,-5727.075723,-11066.281625,4412.301411,0.009500,-0.011375,1.006563,192.000000,0.000000,32.000000,127.500000,72.000000,15.500000,64.000000,0.000000,0.000000,0.000000,1769695218.689445,0.000000
50.000000,9377.786145,12589.575361,-1885.794328,-3869.466945,-1966.595884,-15711.644675,-4317.507662,-1952.558989,14751.123160,9898.827660,-14470.228788,7184.744738,14247.650116,-5689.390682,-11033.670429,4438.676469,0.009500,-0.011375,1.006563,192.000000,0.000000,0.000000,0.000000,0.000000,0.000000,0.000000,0.000000,0.000000,0.000000,1769695218.689464,0.000000
52.000000,9320.029237,12531.617288,-1948.066288,-3922.217062,-2026.520911,-15758.225710,-4376.337454,-2010.114731,14752.732486,9904.460300,-14468.373593,7185.907028,14244.677334,-5679.220638,-11041.538243,4461.430545,0.009500,-0.011375,1.006563,192.000000,0.000000,0.000000,0.000000,0.000000,0.000000,0.000000,0.000000,0.000000,0.000000,1769695218.689484,0.000000
54.000000,9352.081639,12566.731878,-1926.742724,-3889.203535,-2004.862071,-15715.377416,-4349.135381,-1981.772719,14723.831680,9882.667349,-14499.956608,7166.237493,14215.262439,-5711.138929,-11079.782078,4447.103077,0.009500,-0.011375,1.006563,192.000000,0.000000,0.000000,0.000000,0.000000,0.000000,0.000000,0.000000,0.000000,0.000000,1769695218.689503,0.000000
56.000000,9346.069020,12557.813532,-1933.023564,-3898.568916,-2003.520966,-15717.411425,-4352.219922,-1990.333437,14751.212567,9916.239669,-14472.732183,7191.182040,14247.538358,-5667.754193,-11056.335098,4472.315845,0.009500,-0.011375,1.006563,192.000000,0.000000,0.000000,0.000000,0.000000,0.000000,0.000000,0.000000,0.000000,0.000000,1769695218.689522,0.000000
58.000000,9334.870796,12543.486064,-1943.484180,-3923.781684,-2020.977678,-15755.387039,-4366.033300,-2000.905812,14725.552765,9874.374852,-14500.224829,7150.993604,14223.890212,-5714.379932,-11090.376805,4449.204141,0.009750,-0.008688,1.007281,192.000000,0.000000,40.000000,127.500000,104.000000,15.500000,64.000000,0.000000,0.000000,0.000000,1769695219.169581,0.000000
60.000000,9384.312854,12592.391681,-1892.209279,-3880.709872,-1980.610428,-15720.674779,-4319.362857,-1953.050727,14761.159094,9907.455433,-14458.896453,7189.617418,14241.637497,-5672.537467,-11061.252482,4445.583158,0.009750,-0.008688,1.007281,192.000000,0.000000,0.000000,0.000000,0.000000,0.000000,0.000000,0.000000,0.000000,0.000000,1769695219.169650,0.000000
62.000000,9341.621022,12547.643488,-1933.269433,-3929.190806,-2020.664754,-15765.042992,-4366.770907,-1993.999123,14758.812160,9900.481689,-14461.578663,7177.703938,14266.716154,-5693.793976,-11070.506104,4427.992335,0.009750,-0.008688,1.007281,192.000000,0.000000,0.000000,0.000000,0.000000,0.000000,0.000000,0.000000,0.000000,0.000000,1769695219.169698,0.000000
64.000000,9384.066985,12591.296445,-1896.411407,-3891.371654,-1986.712454,-15717.836108,-4336.618404,-1958.079870,14744.462340,9887.092994,-14477.806029,7170.640787,14228.248802,-5697.638476,-11084.922979,4405.282963,0.009750,-0.008688,1.007281,192.000000,0.000000,0.000000,0.000000,0.000000,0.000000,0.000000,0.000000,0.000000,0.000000,1769695219.169742,0.000000
66.000000,9370.454773,12576.745460,-1905.776787,-3894.947934,-1981.772719,-15713.052835,-4346.296709,-1973.927256,14799.045300,9940.536015,-14428.252212,7215.165462,14295.549905,-5648.419934,-11030.921165,4450.299376,0.009750,-0.008688,1.007281,192.000000,0.000000,0.000000,0.000000,0.000000,0.000000,0.000000,0.000000,0.000000,0.000000,1769695219.169785,0.000000
68.000000,9332.970897,12539.663916,-1939.192645,-3931.001297,-2016.060295,-15743.250041,-4385.859297,-2012.729885,14743.344753,9883.047328,-14490.233599,7152.871150,14235.446064,-5698.085511,-11081.771383,4419.409265,0.009875,-0.007344,1.006641,192.000000,0.000000,40.000000,127.500000,104.000000,15.500000,56.000000,0.000000,0.000000,0.000000,1769695219.169829,0.000000
70.000000,9391.957151,12601.868820,-1880.340502,-3869.623407,-1954.123611,-15692.019843,-4331.633965,-1954.838867,14764.690669,9914.607992,-14464.886721,7182.911895,14255.652041,-5680.002949,-11051.596528,4429.333440,0.009875,-0.007344,1.006641,192.000000,0.000000,0.000000,0.000000,0.000000,0.000000,0.000000,0.000000,0.000000,0.000000,1769695219.169873,0.000000
72.000000,9351.500493,12558.417029,-1919.500759,-3909.074236,-1985.773681,-15748.726219,-4367.329701,-1996.055483,14771.150323,9923.705152,-14457.220072,7186.778746,14268.839570,-5653.069097,-11035.011534,4453.339214,0.009875,-0.007344,1.006641,192.000000,0.000000,0.000000,0.000000,0.000000,0.000000,0.000000,0.000000,0.000000,0.000000,1769695219.169890,0.000000
74.000000,9369.828924,12580.321739,-1906.849671,-3888.488279,-1968.786355,-15730.509547,-4350.543541,-1975.134251,14750.810236,9895.854878,-14482.723413,7167.422136,14237.167148,-5677.298388,-11060.224302,4432.462684,0.009875,-0.007344,1.006641,192.000000,0.000000,0.000000,0.000000,0.000000,0.000000,0.000000,0.000000,0.000000,0.000000,1769695219.169906,0.000000
76.000000,9373.494610,12584.434460,-1903.921593,-3884.599076,-1957.923407,-15722.261753,-4345.268529,-1970.373329,14795.334911,9946.168655,-14429.995648,7218.764093,14299.327350,-5637.512283,-11008.301199,4475.601551,0.009875,-0.007344,1.006641,192.000000,0.000000,0.000000,0.000000,0.000000,0.000000,0.000000,0.000000,0.000000,0.000000,1769695219.169924,0.000000
78.000000,9347.566586,12555.421895,-1936.935119,-3914.036323,-1990.176975,-15739.718466,-4372.358843,-1997.709512,14742.026000,9894.692587,-14485.718547,7161.163647,14244.856148,-5695.895040,-11063.934691,4441.693955,0.009875,-0.007344,1.006641,192.000000,0.000000,0.000000,0.000000,0.000000,0.000000,0.000000,0.000000,0.000000,0.000000,1769695219.169943,0.000000
80.000000,9394.259381,12604.416919,-1890.152918,-3861.152096,-1939.907901,-15701.206410,-4322.335639,-1950.033242,14772.267911,9931.796483,-14453.464979,7202.223802,14263.899835,-5663.239141,-11032.932822,4462.190504,0.012000,-0.008000,1.010000,192.000000,0.000000,48.000000,127.500000,96.000000,15.500000,72.000000,0.000000,0.000000,0.000000,1769695219.169955,0.000000
82.000000,9343.431514,12552.806741,-1938.075058,-3919.467797,-1997.329533,-15747.362762,-4371.956512,-2003.833890,14761.449666,9915.122082,-14465.490218,7180.654368,14251.919300,-5679.310045,-11043.304031,4452.601606,0.012000,-0.008000,1.010000,192.000000,0.000000,0.000000,0.000000,0.000000,0.000000,0.000000,0.000000,0.000000,0.000000,1769695219.169967,0.000000
84.000000,9384.670482,12593.822192,-1902.848709,-3887.370692,-1974.620160,-15722.574678,-4339.010041,-1966.707643,14749.223262,9900.749910,-14482.097564,7168.830296,14255.607337,-5691.737615,-11066.505142,4418.537547,0.012000,-0.008000,1.010000,192.000000,0.000000,0.000000,0.000000,0.000000,0.000000,0.000000,0.000000,0.000000,0.000000,1769695219.169980,0.000000
86.000000,9366.610273,12572.878608,-1918.539634,-3913.835158,-1997.731864,-15753.889472,-4356.019718,-1984.857259,14794.440841,9941.586547,-14434.130720,7208.705808,14282.943521,-5641.021507,-11024.014476,4433.200292,0.012000,-0.008000,1.010000,192.000000,0.000000,0.000000,0.000000,0.000000,0.000000,0.000000,0.000000,0.000000,0.000000,1769695219.169991,0.000000
88.000000,9350.092334,12556.897111,-1933.135323,-3927.469722,-2013.199271,-15771.457943,-4370.436593,-1997.240126,14731.587736,9876.408860,-14501.275361,7143.796342,14208.199287,-5722.761836,-11093.707215,4372.649416,0.012000,-0.008000,1.010000,192.000000,0.000000,0.000000,0.000000,0.000000,0.000000,0.000000,0.000000,0.000000,0.000000,1769695219.170004,0.000000
90.000000,9394.773471,12605.735672,-1885.839031,-3881.156907,-1969.300445,-15721.434739,-4329.376439,-1949.630910,14779.599283,9928.778998,-14451.028639,7200.726235,14286.206876,-5663.395603,-11039.660697,4410.602678,0.006000,-0.006000,1.008000,192.000000,0.000000,24.000000,127.500000,104.000000,15.500000,64.000000,0.000000,0.000000,0.000000,1769695219.170024,0.000000
92.000000,9347.991270,12554.237253,-1921.735933,-3929.257861,-2004.906774,-15760.885568,-4377.231524,-1998.223603,14776.023004,9919.078340,-14453.420276,7188.678645,14266.805561,-5673.543295,-11039.481883,4417.844643,0.006000,-0.006000,1.008000,192.000000,0.000000,0.000000,0.000000,0.000000,0.000000,0.000000,0.000000,0.000000,0.000000,1769695219.170036,0.000000
94.000000,9376.288578,12584.926198,-1892.410444,-3899.440634,-1975.804803,-15732.476501,-4352.778715,-1971.535620,14744.708210,9882.153259,-14486.858486,7158.816714,14235.893099,-5720.414903,-11063.688822,4391.626047,0.006000,-0.006000,1.008000,192.000000,0.000000,0.000000,0.000000,0.000000,0.000000,0.000000,0.000000,0.000000,0.000000,1769695219.170048,0.000000
96.000000,9374.567494,12584.434460,-1899.831223,-3891.125785,-1968.674596,-15734.734027,-4353.829247,-1975.536582,14797.301864,9938.502006,-14435.114197,7208.906973,14292.666530,-5654.857237,-11001.349807,4448.064202,0.006000,-0.006000,1.008000,192.000000,0.000000,0.000000,0.000000,0.000000,0.000000,0.000000,0.000000,0.000000,0.000000,1769695219.170060,0.000000
98.000000,9342.403333,12552.672631,-1944.490009,-3923.200539,-2007.678390,-15768.060478,-4388.496803,-2008.013667,14748.686820,9893.977331,-14486.322044,7162.638862,14240.095227,-5698.443138,-11052.065915,4432.440332,0.006000,-0.006000,1.008000,192.000000,0.000000,0.000000,0.000000,0.000000,0.000000,0.000000,0.000000,0.000000,0.000000,1769695219.170075,0.000000
100.000000,9396.472203,12607.412053,-1900.859404,-3869.913980,-1962.103184,-15710.571791,-4337.400715,-1953.833038,14756.241710,9908.930648,-14476.733145,7178.642711,14243.984430,-5687.580191,-11049.696630,4435.837798,0.008000,-0.006000,1.002000,192.000000,0.000000,32.000000,127.500000,104.000000,15.500000,40.000000,0.000000,0.000000,0.000000,1769695219.170093,0.000000
102.000000,9341.553967,12549.744552,-1953.497762,-3921.412399,-2005.845547,-15756.839902,-4385.456966,-2004.616201,14775.933597,9926.320306,-14454.135532,7192.165517,14274.025175,-5669.072946,-11038.274889,4470.773574,0.008000,-0.006000,1.002000,192.000000,0.000000,0.000000,0.000000,0.000000,0.000000,0.000000,0.000000,0.000000,0.000000,1769695219.170125,0.000000
104.000000,9377.920255,12590.603541,-1912.661125,-3878.809974,-1959.108050,-15703.262771,-4343.949776,-1966.752346,14737.890928,9888.456451,-14492.357015,7161.208351,14239.871709,-5701.572383,-11071.467229,4445.091420,0.008000,-0.006000,1.002000,192.000000,0.000000,0.000000,0.000000,0.000000,0.000000,0.000000,0.000000,0.000000,0.000000,1769695219.170144,0.000000
106.000000,9358.474238,12568.832942,-1913.689305,-3893.942105,-1970.865067,-15712.538745,-4351.571721,-1984.946666,14785.053108,9941.407733,-14441.015058,7207.923497,14287.123297,-5637.691097,-11008.055330,4490.465461,0.008000,-0.006000,1.002000,192.000000,0.000000,0.000000,0.000000,0.000000,0.000000,0.000000,0.000000,0.000000,0.000000,1769695219.170164,0.000000
108.000000,9322.376170,12531.147901,-1945.071154,-3940.433734,-2006.829024,-15759.231539,-4389.927315,-2021.000030,14725.955096,9871.782049,-14503.421128,7136.040287,14231.735674,-5713.463511,-11059.196122,4433.401457,0.008000,-0.006000,1.002000,192.000000,0.000000,0.000000,0.000000,0.000000,0.000000,0.000000,0.000000,0.000000,0.000000,1769695219.170182,0.000000
110.000000,9385.832773,12596.012663,-1883.492098,-3880.084023,-1946.680480,-15704.290951,-4329.219977,-1959.935064,14755.325288,9905.332018,-14470.899340,7176.049909,14255.160303,-5688.586019,-11029.803578,4432.082705,0.004000,-0.004000,1.006000,192.000000,0.000000,16.000000,127.500000,112.000000,15.500000,56.000000,0.000000,0.000000,0.000000,1769695219.170200,0.000000
112.000000,9322.554984,12528.890375,-1945.048803,-3945.462876,-2006.963135,-15774.877760,-4386.909829,-2024.643365,14760.309727,9910.294105,-14466.585453,7174.708804,14259.898872,-5687.513135,-11028.887156,4432.194463,0.004000,-0.004000,1.006000,192.000000,0.000000,0.000000,0.000000,0.000000,0.000000,0.000000,0.000000,0.000000,0.000000,1769695219.170219,0.000000
114.000000,9350.204092,12559.244044,-1922.384134,-3921.591213,-1994.848489,-15763.165446,-4368.179067,-2001.330495,14713.706340,9863.891883,-14517.100396,7131.793455,14241.168111,-5732.686011,-11083.671282,4374.616370,0.004000,-0.004000,1.006000,192.000000,0.000000,0.000000,0.000000,0.000000,0.000000,0.000000,0.000000,0.000000,0.000000,1769695219.170237,0.000000
116.000000,9374.276921,12581.998120,-1893.215107,-3896.691370,-1968.764003,-15739.249079,-4346.944910,-1976.810631,14778.057012,9929.226032,-14455.275471,7193.260752,14265.844436,-5664.200266,-11023.343923,4418.962231,0.004000,-0.004000,1.006000,192.000000,0.000000,0.000000,0.000000,0.000000,0.000000,0.000000,0.000000,0.000000,0.000000,1769695219.170256,0.000000
118.000000,9346.761924,12552.896148,-1922.227671,-3927.827350,-1999.564707,-15767.233463,-4378.147945,-2002.269268,14752.732486,9895.609009,-14485.316215,7164.337595,14247.292488,-5696.833813,-11048.757857,4408.278097,0.004000,-0.004000,1.006000,192.000000,0.000000,0.000000,0.000000,0.000000,0.000000,0.000000,0.000000,0.000000,0.000000,1769695219.170275,0.000000
120.000000,9390.459584,12598.046672,-1879.468784,-3876.328930,-1951.061422,-15711.488213,-4333.444456,-1956.112916,14765.227111,9919.167747,-14464.104410,7191.696130,14256.412000,-5683.556877,-11028.216604,4416.972925,0.004000,-0.006000,1.004000,192.000000,0.000000,16.000000,127.500000,104.000000,15.500000,48.000000,0.000000,0.000000,0.000000,1769695219.170294,0.000000
122.000000,9341.933947,12544.581299,-1935.370497,-3919.803073,-1999.162376,-15757.443399,-4381.433652,-2007.432521,14771.485599,9924.845090,-14458.561177,7191.539668,14271.946463,-5664.513190,-11023.656848,4445.381993,0.004000,-0.006000,1.004000,192.000000,0.000000,0.000000,0.000000,0.000000,0.000000,0.000000,0.000000,0.000000,0.000000,1769695219.170316,0.000000
124.000000,9371.550008,12577.125439,-1914.851596,-3878.899381,-1972.340282,-15716.606762,-4347.146076,-1975.156602,14733.867614,9887.361215,-14498.839021,7160.314281,14226.840642,-5701.170051,-11065.499314,4429.445199,0.004000,-0.006000,1.004000,192.000000,0.000000,0.000000,0.000000,0.000000,0.000000,0.000000,0.000000,0.000000,0.000000,1769695219.170335,0.000000
126.000000,9361.648185,12567.693003,-1923.457017,-3881.559239,-1982.577381,-15710.616494,-4349.805933,-1983.493803,14782.750879,9947.062724,-14446.848863,7213.511433,14264.816256,-5640.954452,-11018.538298,4488.453804,0.004000,-0.006000,1.004000,192.000000,0.000000,0.000000,0.000000,0.000000,0.000000,0.000000,0.000000,0.000000,0.000000,1769695219.170354,0.000000
128.000000,9308.629848,12515.300514,-1975.916562,-3934.845797,-2026.811484,-15755.878777,-4399.918544,-2034.098152,14714.265134,9871.536180,-14516.429843,7138.677792,14229.276982,-5702.131176,-11090.041529,4453.473324,0.004000,-0.006000,1.004000,192.000000,0.000000,0.000000,0.000000,0.000000,0.000000,0.000000,0.000000,0.000000,0.000000,1769695219.170372,0.000000
130.000000,9385.519849,12597.219658,-1894.399750,-3859.788640,-1944.668823,-15669.712802,-4325.867215,-1954.995329,14748.642117,9904.817927,-14481.427012,7176.631054,14245.325535,-5671.822211,-11056.759781,4475.892124,0.002000,-0.008000,1.002000,192.000000,0.000000,8.000000,127.500000,96.000000,15.500000,40.000000,0.000000,0.000000,0.000000,1769695219.170391,0.000000
132.000000,9334.289650,12542.882567,-1938.030355,-3915.220966,-1981.683312,-15711.935247,-4377.142117,-2008.639515,14767.551692,9925.783864,-14464.685555,7187.561058,14266.447933,-5662.032147,-11035.190348,4495.963990,0.002000,-0.008000,1.002000,192.000000,0.000000,0.000000,0.000000,0.000000,0.000000,0.000000,0.000000,0.000000,0.000000,1769695219.170409,0.000000
134.000000,9361.335261,12571.157524,-1903.586317,-3894.590306,-1956.068213,-15698.010111,-4348.196608,-1978.151736,14733.197061,9886.176573,-14502.571762,7153.944034,14236.496596,-5693.816327,-11065.432258,4445.024365,0.002000,-0.008000,1.002000,192.000000,0.000000,0.000000,0.000000,0.000000,0.000000,0.000000,0.000000,0.000000,0.000000,1769695219.170428,0.000000
136.000000,9356.976671,12565.189608,-1901.261735,-3902.122844,-1964.248951,-15716.919686,-4348.040145,-1977.883515,14786.304806,9937.093846,-14441.976183,7205.822433,14297.092175,-5659.685214,-11010.290505,4459.150667,0.002000,-0.008000,1.002000,192.000000,0.000000,0.000000,0.000000,0.000000,0.000000,0.000000,0.000000,0.000000,0.000000,1769695219.170446,0.000000
138.000000,9322.644391,12528.577450,-1941.137247,-3945.373469,-2014.540376,-15769.200417,-4386.015759,-2014.205100,14739.723771,9879.783974,-14489.965378,7150.568920,14249.907643,-5709.015514,-11063.800581,4399.292695,0.002000,-0.008000,1.002000,192.000000,0.000000,0.000000,0.000000,0.000000,0.000000,0.000000,0.000000,0.000000,0.000000,1769695219.170465,0.000000
140.000000,9375.081584,12588.278960,-1883.670912,-3886.186050,-1967.333492,-15724.541631,-4327.565947,-1958.057518,14747.479826,9904.236782,-14476.129648,7175.759336,14251.919300,-5696.207964,-11055.128104,4383.646474,0.006000,-0.016000,1.002000,192.000000,0.000000,24.000000,127.500000,64.000000,15.500000,40.000000,0.000000,0.000000,0.000000,1769695219.170484,0.000000
142.000000,9317.972877,12526.722256,-1942.120724,-3945.373469,-2026.967946,-15782.097373,-4390.866088,-2017.714324,14748.060971,9903.074491,-14476.464924,7170.976063,14253.908605,-5689.301275,-11047.617918,4400.097358,0.006000,-0.016000,1.002000,192.000000,0.000000,0.000000,0.000000,0.000000,0.000000,0.000000,0.000000,0.000000,0.000000,1769695219.170503,0.000000
144.000000,9365.045651,12570.218750,-1905.128587,-3900.066483,-1990.512251,-15756.661088,-4351.549369,-1970.552143,14736.192195,9878.666386,-14494.614541,7155.910987,14233.210889,-5724.549976,-11071.154305,4384.629951,0.006000,-0.016000,1.002000,192.000000,0.000000,0.000000,0.000000,0.000000,0.000000,0.000000,0.000000,0.000000,0.000000,1769695219.170521,0.000000
146.000000,9359.614177,12564.072021,-1908.458997,-3887.281285,-1977.011797,-15744.926422,-4347.056669,-1969.121631,14785.544847,9942.570024,-14435.069494,7216.461863,14282.049451,-5664.312025,-11007.407130,4447.125429,0.006000,-0.016000,1.002000,192.000000,0.000000,0.000000,0.000000,0.000000,0.000000,0.000000,0.000000,0.000000,0.000000,1769695219.170539,0.000000
148.000000,9319.917479,12525.403503,-1957.856352,-3925.212196,-2012.573423,-15772.620234,-4386.820422,-2011.746408,14727.854994,9876.051232,-14499.934256,7151.105362,14234.574346,-5713.999953,-11060.403116,4422.739675,0.006000,-0.016000,1.002000,192.000000,0.000000,0.000000,0.000000,0.000000,0.000000,0.000000,0.000000,0.000000,0.000000,1769695219.170558,0.000000
150.000000,9372.444078,12583.339224,-1908.436645,-3870.495125,-1962.304349,-15720.585373,-4337.378363,-1960.046823,14742.160111,9906.494308,-14479.482410,7182.107232,14244.610279,-5696.140909,-11041.202967,4439.235263,0.006000,-0.015000,1.002000,192.000000,0.000000,24.000000,127.500000,72.000000,15.500000,40.000000,0.000000,0.000000,0.000000,1769695219.170577,0.000000
152.000000,9337.642412,12547.755247,-1936.532788,-3898.390102,-1992.054521,-15736.052780,-4366.234465,-1990.109919,14758.052201,9922.520509,-14468.887683,7186.130546,14270.806524,-5672.984501,-11045.293337,4455.775554,0.006000,-0.015000,1.002000,192.000000,0.000000,0.000000,0.000000,0.000000,0.000000,0.000000,0.000000,0.000000,0.000000,1769695219.170596,0.000000
154.000000,9376.757965,12585.954378,-1901.597011,-3868.125840,-1961.767907,-15686.431907,-4340.485256,-1957.096393,14744.998782,9912.819852,-14477.202532,7182.442508,14252.165169,-5673.163315,-11065.342851,4456.379051,0.006000,-0.015000,1.002000,192.000000,0.000000,0.000000,0.000000,0.000000,0.000000,0.000000,0.000000,0.000000,0.000000,1769695219.170623,0.000000
156.000000,9362.318738,12567.447134,-1909.844805,-3886.633085,-1975.134251,-15705.609704,-4348.889512,-1969.881591,14782.907341,9949.186140,-14440.344505,7216.774788,14282.988224,-5650.744516,-11038.587813,4489.951371,0.006000,-0.015000,1.002000,192.000000,0.000000,0.000000,0.000000,0.000000,0.000000,0.000000,0.000000,0.000000,0.000000,1769695219.170639,0.000000
158.000000,9340.928118,12544.089561,-1930.743686,-3921.255937,-2000.794053,-15742.288916,-4368.514343,-1994.602620,14735.074608,9888.657616,-14491.820573,7159.710784,14240.274041,-5702.309990,-11084.945331,4449.762934,0.006000,-0.015000,1.002000,192.000000,0.000000,0.000000,0.000000,0.000000,0.000000,0.000000,0.000000,0.000000,0.000000,1769695219.170657,0.000000
160.000000,9391.487764,12596.906733,-1881.256924,-3878.385291,-1954.995329,-15705.810869,-4320.122817,-1943.752401,14775.643024,9922.632268,-14451.520378,7200.167441,14280.194256,-5670.369347,-11048.310822,4441.291623,0.005000,-0.012500,1.002000,192.000000,0.000000,16.000000,127.500000,88.000000,15.500000,40.000000,0.000000,0.000000,0.000000,1769695219.170675,0.000000
162.000000,9330.243984,12531.907860,-1934.454076,-3939.137332,-2006.225527,-15765.087696,-4374.750480,-2004.660905,14766.367050,9914.719750,-14459.276433,7186.242305,14275.433335,-5688.407205,-11045.785075,4419.923356,0.005000,-0.012500,1.002000,192.000000,0.000000,0.000000,0.000000,0.000000,0.000000,0.000000,0.000000,0.000000,0.000000,1769695219.170693,0.000000
164.000000,9349.332374,12556.673593,-1917.153825,-3916.651477,-1998.402417,-15754.783542,-4357.293768,-1985.930143,14713.773395,9862.751944,-14512.607695,7141.605871,14235.758988,-5724.237052,-11086.085270,4365.943893,0.005000,-0.012500,1.002000,192.000000,0.000000,0.000000,0.000000,0.000000,0.000000,0.000000,0.000000,0.000000,0.000000,1769695219.170712,0.000000
166.000000,9356.417877,12564.563759,-1913.689305,-3906.660248,-1998.268306,-15755.454094,-4355.438573,-1980.252800,14768.557521,9927.907279,-14449.978107,7200.905049,14276.841495,-5672.336301,-11024.886194,4414.983620,0.005000,-0.012500,1.002000,192.000000,0.000000,0.000000,0.000000,0.000000,0.000000,0.000000,0.000000,0.000000,0.000000,1769695219.170730,0.000000
168.000000,9331.205110,12540.043895,-1945.048803,-3925.659230,-2029.404286,-15781.650338,-4382.908867,-2007.209004,14719.584849,9878.755793,-14501.118899,7152.938205,14217.944648,-5717.330362,-11072.137782,4394.352960,0.005000,-0.012500,1.002000,192.000000,0.000000,0.000000,0.000000,0.000000,0.000000,0.000000,0.000000,0.000000,0.000000,1769695219.170749,0.000000
170.000000,9372.086450,12583.987425,-1904.256869,-3877.021834,-1983.583210,-15728.632001,-4334.919671,-1963.511343,14750.743181,9911.523451,-14472.531017,7187.672816,14249.348849,-5688.518964,-11036.173825,4423.007896,0.003500,-0.011250,1.003000,192.000000,0.000000,8.000000,127.500000,88.000000,15.500000,48.000000,0.000000,0.000000,0.000000,1769695219.170767,0.000000
172.000000,9313.547231,12525.023523,-1962.818439,-3929.436675,-2039.104943,-15776.956472,-4387.043939,-2019.390705,14744.931727,9903.141547,-14481.091735,7174.306473,14266.179713,-5684.607409,-11034.206871,4438.788228,0.003500,-0.011250,1.003000,192.000000,0.000000,0.000000,0.000000,0.000000,0.000000,0.000000,0.000000,0.000000,0.000000,1769695219.170786,0.000000
174.000000,9337.463598,12549.521035,-1940.623157,-3908.694256,-2015.948536,-15740.679591,-4368.357881,-1995.630800,14702.552820,9862.439020,-14524.454120,7142.902272,14183.701776,-5734.407095,-11075.177619,4410.937954,0.003500,-0.011250,1.003000,192.000000,0.000000,0.000000,0.000000,0.000000,0.000000,0.000000,0.000000,0.000000,0.000000,1769695219.170805,0.000000
176.000000,9357.513113,12566.486009,-1919.456055,-3892.288076,-1985.639570,-15712.695207,-4356.310291,-1979.805765,14766.434105,9926.342657,-14460.684593,7199.876869,14267.677279,-5668.894132,-11018.359484,4466.638501,0.003500,-0.011250,1.003000,192.000000,0.000000,0.000000,0.000000,0.000000,0.000000,0.000000,0.000000,0.000000,0.000000,1769695219.170824,0.000000
178.000000,9339.788179,12546.324735,-1934.767000,-3918.037286,-2001.174033,-15731.425969,-4381.478355,-2006.002010,14733.174709,9888.299988,-14495.508611,7158.257921,14235.066084,-5694.464528,-11062.615938,4455.619091,0.003500,-0.011250,1.003000,192.000000,0.000000,0.000000,0.000000,0.000000,0.000000,0.000000,0.000000,0.000000,0.000000,1769695219.650368,0.000000
180.000000,9384.491668,12590.357672,-1892.343389,-3885.381387,-1971.289750,-15701.586390,-4345.737916,-1965.500649,14755.682916,9915.256192,-14470.765230,7182.822488,14259.898872,-5678.058347,-11047.729677,4451.014632,0.002750,-0.009625,1.002500,192.000000,0.000000,8.000000,127.500000,96.000000,15.500000,40.000000,0.000000,0.000000,0.000000,1769695219.650435,0.000000
182.000000,9352.148694,12552.985555,-1925.289860,-3918.797245,-2009.712399,-15742.423027,-4367.039128,-1990.042864,14773.698422,9928.443721,-14451.721543,7188.388072,14267.833742,-5680.695853,-11043.505197,4446.432524,0.002750,-0.009625,1.002500,192.000000,0.000000,0.000000,0.000000,0.000000,0.000000,0.000000,0.000000,0.000000,0.000000,1769695219.650489,0.000000
184.000000,9373.293444,12577.460715,-1918.249061,-3896.177279,-2010.964097,-15730.353085,-4345.357936,-1966.372367,14739.075570,9889.596389,-14483.908055,7161.901255,14240.028172,-5707.964982,-11089.460384,4400.477338,0.002750,-0.009625,1.002500,192.000000,0.000000,0.000000,0.000000,0.000000,0.000000,0.000000,0.000000,0.000000,0.000000,1769695219.650533,0.000000
186.000000,9383.999930,12587.608407,-1907.453168,-3883.883820,-1998.111844,-15728.587297,-4330.404619,-1954.056556,14784.404908,9947.174483,-14436.164729,7215.210165,14265.687974,-5651.303309,-11040.890043,4427.679411,0.002750,-0.009625,1.002500,192.000000,0.000000,0.000000,0.000000,0.000000,0.000000,0.000000,0.000000,0.000000,0.000000,1769695219.650577,0.000000
188.000000,9347.074848,12549.141055,-1940.176122,-3925.994507,-2027.660850,-15775.235388,-4372.403547,-1993.641495,14735.409884,9893.820869,-14487.886666,7162.974139,14228.695837,-5699.136042,-11085.615884,4388.809727,0.002750,-0.009625,1.002500,192.000000,0.000000,0.000000,0.000000,0.000000,0.000000,0.000000,0.000000,0.000000,0.000000,1769695219.650625,0.000000
190.000000,9402.864802,12605.489803,-1883.514450,-3868.975206,-1957.856352,-15715.757396,-4324.973145,-1942.590111,14772.424373,9931.774131,-14450.089866,7205.576564,14270.493599,-5684.741519,-11030.541185,4414.223661,0.002750,-0.009625,1.002500,192.000000,0.000000,0.000000,127.500000,104.000000,15.500000,40.000000,0.000000,0.000000,0.000000,1769695219.650661,0.000000
192.000000,9346.717220,12544.491892,-1932.978860,-3918.149044,-1998.827100,-15775.570664,-4374.683425,-2001.799882,14767.283471,9919.883003,-14457.555349,7190.086805,14277.132067,-5676.180801,-11016.660752,4432.820312,0.002750,-0.009625,1.002500,192.000000,0.000000,0.000000,0.000000,0.000000,0.000000,0.000000,0.000000,0.000000,0.000000,1769695219.650678,0.000000
194.000000,9354.652089,12557.411201,-1923.702887,-3904.961515,-1988.388835,-15758.583338,-4367.687329,-1993.015646,14723.630515,9874.240741,-14507.377387,7146.970290,14229.344038,-5715.497519,-11048.109656,4404.880632,0.002750,-0.009625,1.002500,192.000000,0.000000,0.000000,0.000000,0.000000,0.000000,0.000000,0.000000,0.000000,0.000000,1769695219.650695,0.000000
196.000000,9368.376061,12571.313986,-1914.561023,-3896.601963,-1970.842716,-15739.897280,-4358.880741,-1979.582248,14769.630405,9927.527300,-14458.918805,7194.445395,14271.208855,-5667.597731,-10997.147679,4448.354775,0.002750,-0.009625,1.002500,192.000000,0.000000,0.000000,0.000000,0.000000,0.000000,0.000000,0.000000,0.000000,0.000000,1769695219.650712,0.000000
198.000000,9346.784275,12548.135227,-1942.500704,-3920.697143,-2007.186652,-15755.990536,-4381.232486,-1996.591925,14734.135834,9888.747023,-14494.055747,7156.603891,14237.815349,-5709.686066,-11046.589738,4431.769780,0.002750,-0.009625,1.002500,192.000000,0.000000,0.000000,0.000000,0.000000,0.000000,0.000000,0.000000,0.000000,0.000000,1769695219.650730,0.000000
200.000000,9391.733633,12594.984483,-1901.641715,-3870.852753,-1974.508402,-15705.162669,-4333.645622,-1948.178047,14758.007498,9921.827605,-14462.450381,7192.232572,14232.719151,-5675.934932,-11041.739409,4449.114734,0.003375,-0.007812,1.004250,192.000000,0.000000,16.000000,127.500000,104.000000,15.500000,56.000000,0.000000,0.000000,0.000000,1769695219.650748,0.000000
202.000000,9352.953357,12554.907805,-1930.453113,-3904.201556,-2010.964097,-15734.130530,-4366.905018,-1984.343169,14763.863655,9931.014172,-14451.118046,7195.853555,14249.639422,-5669.117650,-11045.092171,4477.344987,0.003375,-0.007812,1.004250,192.000000,0.000000,0.000000,0.000000,0.000000,0.000000,0.000000,0.000000,0.000000,0.000000,1769695219.650766,0.000000
204.000000,9377.182648,12579.539428,-1909.241308,-3889.069425,-1987.628876,-15703.307474,-4354.030413,-1964.584227,14736.080436,9896.637189,-14479.013023,7171.043118,14234.373180,-5696.230316,-11082.218418,4455.216760,0.003375,-0.007812,1.004250,192.000000,0.000000,0.000000,0.000000,0.000000,0.000000,0.000000,0.000000,0.000000,0.000000,1769695219.650783,0.000000
206.000000,9388.023244,12587.340187,-1896.947848,-3883.436785,-1964.293654,-15691.729270,-4344.620329,-1958.705718,14796.966588,9948.180312,-14423.580697,7218.920555,14301.696634,-5648.039955,-11020.125272,4492.834746,0.003375,-0.007812,1.004250,192.000000,0.000000,0.000000,0.000000,0.000000,0.000000,0.000000,0.000000,0.000000,0.000000,1769695219.650801,0.000000
208.000000,9352.148694,12549.878663,-1937.538616,-3926.530948,-2005.376161,-15740.903108,-4381.344245,-1998.134196,14751.100809,9897.799480,-14482.790468,7161.275406,14260.904701,-5694.129252,-11067.488619,4440.956347,0.003375,-0.007812,1.004250,192.000000,0.000000,0.000000,0.000000,0.000000,0.000000,0.000000,0.000000,0.000000,0.000000,1769695219.650819,0.000000
210.000000,9399.444985,12598.560762,-1897.506642,-3888.063596,-1975.804803,-15705.229724,-4337.020735,-1949.295634,14764.087172,9914.630343,-14466.294881,7184.275351,14268.012556,-5680.002949,-11058.369107,4414.536585,0.003687,-0.005906,1.008125,192.000000,0.000000,16.000000,127.500000,112.000000,15.500000,80.000000,0.000000,0.000000,0.000000,1769695219.650837,0.000000
212.000000,9360.396488,12556.204206,-1937.158637,-3923.647573,-2017.736675,-15748.525053,-4372.582361,-1983.717320,14782.639120,9932.623498,-14444.457226,7198.289895,14278.629634,-5675.979635,-11045.762723,4423.164359,0.003687,-0.005906,1.008125,192.000000,0.000000,0.000000,0.000000,0.000000,0.000000,0.000000,0.000000,0.000000,0.000000,1769695219.650856,0.000000
214.000000,9398.908543,12600.080681,-1905.240346,-3883.302675,-1986.980675,-15723.424044,-4339.345317,-1942.567759,14752.397210,9904.460300,-14472.307500,7176.988682,14237.100093,-5695.872688,-11077.301035,4393.414187,0.003687,-0.005906,1.008125,192.000000,0.000000,0.000000,0.000000,0.000000,0.000000,0.000000,0.000000,0.000000,0.000000,1769695219.650876,0.000000
216.000000,9400.495517,12602.114690,-1899.630058,-3876.999483,-1979.761062,-15730.062512,-4337.713639,-1943.774753,14803.873277,9962.820704,-14413.947095,7232.868044,14291.772460,-5635.478274,-11014.336170,4440.218740,0.003687,-0.005906,1.008125,192.000000,0.000000,0.000000,0.000000,0.000000,0.000000,0.000000,0.000000,0.000000,0.000000,1769695219.650894,0.000000
218.000000,9359.345956,12559.601672,-1942.008965,-3910.594155,-2011.992277,-15763.724239,-4378.282056,-1990.176975,14752.598375,9906.650771,-14475.660262,7174.038252,14242.978602,-5694.509231,-11067.421564,4415.497710,0.003687,-0.005906,1.008125,192.000000,0.000000,0.000000,0.000000,0.000000,0.000000,0.000000,0.000000,0.000000,0.000000,1769695219.650912,0.000000
220.000000,9401.881325,12604.573381,-1888.610648,-3857.240541,-1951.374346,-15693.539762,-4329.398791,-1946.792239,14772.357317,9932.332925,-14459.902282,7200.994456,14284.172867,-5673.677406,-11034.855072,4443.996184,0.003687,-0.005906,1.008125,192.000000,0.000000,0.000000,0.000000,0.000000,0.000000,0.000000,0.000000,0.000000,0.000000,1769695219.650930,0.000000
222.000000,9343.856197,12540.468578,-1937.940948,-3912.695219,-1997.553050,-15754.560024,-4383.914695,-2007.119597,14762.611957,9921.224108,-14468.217131,7183.224819,14255.942614,-5664.602597,-11027.322534,4456.580216,0.004000,-0.010000,1.008000,192.000000,0.000000,16.000000,127.500000,88.000000,15.500000,64.000000,0.000000,0.000000,0.000000,1769695219.650948,0.000000
224.000000,9377.160296,12576.074907,-1901.999343,-3877.223000,-1972.183820,-15708.716596,-4350.565893,-1973.726091,14740.796654,9890.468108,-14491.708814,7160.828371,14242.151587,-5691.648208,-11046.299165,4445.449048,0.004000,-0.010000,1.008000,192.000000,0.000000,0.000000,0.000000,0.000000,0.000000,0.000000,0.000000,0.000000,0.000000,1769695219.650966,0.000000
226.000000,9360.195322,12557.098276,-1911.811758,-3886.163698,-1991.451024,-15711.756433,-4353.628082,-1983.650265,14778.884027,9931.014172,-14448.592299,7197.686398,14275.388631,-5659.461696,-11010.290505,4486.084519,0.004000,-0.010000,1.008000,192.000000,0.000000,0.000000,0.000000,0.000000,0.000000,0.000000,0.000000,0.000000,0.000000,1769695219.650983,0.000000
228.000000,9328.902880,12523.257735,-1942.880683,-3919.981887,-2031.505350,-15752.771885,-4375.555143,-2005.242050,14729.956058,9879.471049,-14490.568875,7146.009165,14245.102018,-5705.819214,-11066.706308,4468.136068,0.004000,-0.010000,1.008000,192.000000,0.000000,0.000000,0.000000,0.000000,0.000000,0.000000,0.000000,0.000000,0.000000,1769695219.651001,0.000000
