Sample_index,EXG Channel 0,EXG Channel 1,EXG Channel 2,EXG Channel 3,EXG Channel 4,EXG Channel 5,EXG Channel 6,EXG Channel 7,EXG Channel 8,EXG Channel 9,EXG Channel 10,EXG Channel 11,EXG Channel 12,EXG Channel 13,EXG Channel 14,EXG Channel 15,Accel Channel 0,Accel Channel 1,Accel Channel 2,Not Used,Digital Channel 0 (D11),Digital Channel 1 (D12),Digital Channel 2 (D13),Digital Channel 3 (D17),Not Used,Digital Channel 4 (D18),Analog Channel 0,Analog Channel 1,Analog Channel 2,Timestamp,Marker Channel
90.000000,7506.006361,11249.118894,-2882.168041,-4893.690931,-603.474749,-9416.521718,-5331.360439,1800.298905,12685.307882,7678.830049,-14870.794400,8040.190702,10113.493814,-5276.598665,-12458.236511,4029.639546,0.004000,-0.014000,0.998000,192.000000,0.000000,0.000000,0.000000,0.000000,0.000000,0.000000,0.000000,0.000000,0.000000,1769696630.009853,101.000000
92.000000,7812.024094,11553.639061,-2579.056034,-4600.838375,-293.791329,-9126.105502,-5042.888825,2101.533365,12794.496154,7791.505193,-14760.309727,8138.068990,10226.079551,-5134.106294,-12352.110428,4053.242988,0.004000,-0.014000,0.998000,192.000000,0.000000,0.000000,0.000000,0.000000,0.000000,0.000000,0.000000,0.000000,0.000000,1769696630.009933,0.000000
94.000000,7584.237466,11320.152738,-2809.279002,-4825.071076,-520.616832,-9393.499421,-5269.691976,1870.617493,12892.910885,7880.889819,-14670.835694,8231.029896,10308.468081,-5050.331956,-12263.239892,4187.107585,0.006000,-0.015000,1.001000,192.000000,0.000000,32.000000,127.500000,64.000000,15.500000,48.000000,0.000000,0.000000,0.000000,1769696630.009982,0.000000
96.000000,7662.602682,11406.005789,-2724.923518,-4745.252996,-435.143761,-9280.377243,-5194.053673,1951.530808,12692.326330,7682.987473,-14870.079144,8035.921518,10122.613325,-5263.545247,-12460.829313,3960.930283,0.006000,-0.015000,1.001000,192.000000,0.000000,0.000000,0.000000,0.000000,0.000000,0.000000,0.000000,0.000000,0.000000,1769696630.010034,0.000000
98.000000,7705.898011,11449.032897,-2679.616532,-4691.429995,-382.304237,-9239.384143,-5136.408524,1996.189594,12926.460853,7929.102532,-14629.775540,8263.819905,10361.821695,-4999.906421,-12208.589877,4185.453556,0.006000,-0.015000,1.001000,192.000000,0.000000,0.000000,0.000000,0.000000,0.000000,0.000000,0.000000,0.000000,0.000000,1769696630.010084,0.000000
100.000000,7502.027750,11245.922595,-2885.677264,-4906.587888,-604.525281,-9454.452628,-5342.648070,1793.012237,12697.981322,7676.706633,-14894.509601,8023.270431,10092.751395,-5256.996185,-12463.399764,3994.010865,0.006000,-0.015000,1.001000,192.000000,0.000000,0.000000,0.000000,0.000000,0.000000,0.000000,0.000000,0.000000,0.000000,1769696630.010126,0.000000
102.000000,7745.058268,11493.266999,-2636.611776,-4644.580739,-368.244990,-9196.044111,-5092.152070,2044.648176,12762.488456,7781.849239,-14784.382556,8119.517043,10215.954210,-5152.591187,-12367.980166,4034.445171,0.006000,-0.015000,1.001000,192.000000,0.000000,0.000000,0.000000,0.000000,0.000000,0.000000,0.000000,0.000000,0.000000,1769696630.010183,0.000000
104.000000,7527.173463,11274.912807,-2848.036927,-4871.339187,-584.118138,-9397.768604,-5296.491718,1831.144313,12828.291992,7825.725713,-14726.245669,8180.291436,10253.415734,-5103.193832,-12307.876326,4145.667451,0.005000,-0.016500,1.003500,192.000000,0.000000,16.000000,127.500000,56.000000,15.500000,56.000000,0.000000,0.000000,0.000000,1769696630.010226,0.000000
106.000000,7631.243185,11380.547152,-2746.202379,-4755.937130,-480.830727,-9338.491778,-5200.178051,1932.978860,12637.206928,7649.705726,-14914.246191,7997.320056,10054.619319,-5299.106872,-12499.900162,3951.877827,0.005000,-0.016500,1.003500,192.000000,0.000000,0.000000,0.000000,0.000000,0.000000,0.000000,0.000000,0.000000,0.000000,1769696630.010290,0.000000
108.000000,7675.700805,11421.473196,-2699.844861,-4707.992638,-429.712287,-9271.972987,-5145.908015,1976.117727,12905.204344,7909.187127,-14649.243909,8246.944338,10310.189165,-5021.520558,-12241.066961,4196.741187,0.005000,-0.016500,1.003500,192.000000,0.000000,0.000000,0.000000,0.000000,0.000000,0.000000,0.000000,0.000000,0.000000,1769696630.010334,0.000000
110.000000,7459.738250,11204.035426,-2915.069808,-4931.286565,-640.489237,-9427.474073,-5360.507114,1759.775193,12662.218530,7649.459857,-14899.851668,8006.283105,10088.102232,-5268.574389,-12486.712633,3994.279086,0.005000,-0.016500,1.003500,192.000000,0.000000,0.000000,0.000000,0.000000,0.000000,0.000000,0.000000,0.000000,0.000000,1769696630.010375,0.000000
112.000000,7711.709465,11461.929853,-2663.031538,-4672.654530,-359.684272,-9187.036358,-5110.435797,2011.411132,12717.829671,7720.203128,-14839.054923,8055.725164,10156.587977,-5216.830101,-12409.822632,4018.754246,0.005000,-0.016500,1.003500,192.000000,0.000000,0.000000,0.000000,0.000000,0.000000,0.000000,0.000000,0.000000,0.000000,1769696630.010389,0.000000
114.000000,7473.484573,11221.894469,-2894.886183,-4900.329399,-599.987876,-9460.465248,-5342.089277,1774.415585,12818.524279,7811.286487,-14756.241710,8152.575273,10236.160187,-5119.778826,-12313.061930,4175.305864,0.007500,-0.016250,1.003750,192.000000,0.000000,40.000000,127.500000,64.000000,15.500000,48.000000,0.000000,0.000000,0.000000,1769696630.010401,0.000000
116.000000,7604.510499,11351.467532,-2771.862182,-4783.697997,-474.259314,-9296.559906,-5228.408304,1902.446378,12606.160355,7600.554240,-14964.738782,7942.066543,10038.257842,-5309.500433,-12525.001171,3945.507580,0.007500,-0.016250,1.003750,192.000000,0.000000,0.000000,0.000000,0.000000,0.000000,0.000000,0.000000,0.000000,0.000000,1769696630.010413,0.000000
118.000000,7665.307244,11409.470309,-2708.115006,-4725.739923,-407.606412,-9237.975983,-5164.281149,1961.477335,12893.872010,7891.842174,-14662.766714,8222.089198,10335.468988,-5019.531252,-12230.136958,4205.123091,0.007500,-0.016250,1.003750,192.000000,0.000000,0.000000,0.000000,0.000000,0.000000,0.000000,0.000000,0.000000,0.000000,1769696630.010426,0.000000
120.000000,7465.460296,11208.304609,-2910.554756,-4919.350734,-608.190967,-9444.126122,-5365.692719,1762.055071,12648.516911,7643.782514,-14913.866212,7994.146108,10111.370398,-5261.645348,-12480.811772,4018.933060,0.007500,-0.016250,1.003750,192.000000,0.000000,0.000000,0.000000,0.000000,0.000000,0.000000,0.000000,0.000000,0.000000,1769696630.010438,0.000000
122.000000,7755.943567,11496.709168,-2620.585575,-4629.649774,-311.650373,-9150.401849,-5074.561247,2054.661757,12754.821808,7746.354669,-14807.516612,8089.163374,10182.650111,-5184.285961,-12386.867390,4049.353784,0.007500,-0.016250,1.003750,192.000000,0.000000,0.000000,0.000000,0.000000,0.000000,0.000000,0.000000,0.000000,0.000000,1769696630.010451,0.000000
124.000000,7559.248216,11303.411282,-2799.019551,-4822.075942,-519.163968,-9370.857104,-5252.145857,1865.878924,12887.166487,7866.741165,-14675.909540,8219.362285,10304.958857,-5011.439921,-12246.252566,4220.299926,0.008750,-0.016125,1.005875,192.000000,0.000000,40.000000,127.500000,64.000000,15.500000,64.000000,0.000000,0.000000,0.000000,1769696630.010464,0.000000
126.000000,7595.301580,11343.532663,-2762.563856,-4775.472555,-483.669398,-9313.524880,-5212.002124,1910.470654,12652.361411,7652.298528,-14904.478479,8010.149957,10091.499697,-5297.095215,-12463.220950,3990.099310,0.008750,-0.016125,1.005875,192.000000,0.000000,0.000000,0.000000,0.000000,0.000000,0.000000,0.000000,0.000000,0.000000,1769696630.010478,0.000000
128.000000,7653.438467,11396.819222,-2700.716579,-4729.472665,-422.090342,-9298.370397,-5147.383231,1965.388890,12871.587321,7859.387441,-14687.443040,8206.286515,10306.210554,-5089.603971,-12245.492607,4163.079460,0.008750,-0.016125,1.005875,192.000000,0.000000,0.000000,0.000000,0.000000,0.000000,0.000000,0.000000,0.000000,0.000000,1769696630.010490,0.000000
130.000000,7490.606009,11238.233595,-2862.543209,-4880.123422,-582.173536,-9429.597489,-5310.796834,1803.361094,12671.226283,7671.811601,-14882.104383,8028.836015,10103.882564,-5256.929130,-12429.268650,4032.835845,0.008750,-0.016125,1.005875,192.000000,0.000000,0.000000,0.000000,0.000000,0.000000,0.000000,0.000000,0.000000,0.000000,1769696630.010503,0.000000
132.000000,7767.879399,11516.535165,-2596.825671,-4604.928744,-313.997306,-9204.336608,-5045.034593,2078.488717,12803.548611,7778.831754,-14782.013271,8125.037923,10205.650056,-5141.370611,-12330.675105,4063.770659,0.008750,-0.016125,1.005875,192.000000,0.000000,0.000000,0.000000,0.000000,0.000000,0.000000,0.000000,0.000000,0.000000,1769696630.010534,0.000000
134.000000,7546.865350,11289.977883,-2809.614278,-4822.120645,-515.118303,-9416.164090,-5254.693956,1859.128697,12847.983879,7870.853886,-14689.030014,8219.272878,10295.660531,-5050.421363,-12249.314755,4213.192071,0.012375,-0.016063,1.008938,192.000000,0.000000,64.000000,127.500000,64.000000,15.500000,80.000000,0.000000,0.000000,0.000000,1769696630.010547,0.000000
136.000000,7633.165435,11379.384861,-2744.771867,-4762.933226,-466.436203,-9304.070092,-5192.153775,1936.465733,12653.993088,7655.293662,-14905.976046,8008.183003,10109.828128,-5270.630750,-12465.500827,3988.758205,0.012375,-0.016063,1.008938,192.000000,0.000000,0.000000,0.000000,0.000000,0.000000,0.000000,0.000000,0.000000,0.000000,1769696630.010560,0.000000
138.000000,7725.947526,11465.573188,-2647.385317,-4655.041355,-361.606522,-9207.465852,-5096.533012,2024.777475,12943.470531,7939.853721,-14624.433473,8277.677986,10373.735174,-4973.151383,-12204.946542,4230.738191,0.012375,-0.016063,1.008938,192.000000,0.000000,0.000000,0.000000,0.000000,0.000000,0.000000,0.000000,0.000000,0.000000,1769696630.010572,0.000000
140.000000,7503.860593,11248.873025,-2862.811430,-4883.923219,-581.279466,-9411.224355,-5317.345895,1804.791606,12723.462310,7702.008808,-14854.209406,8052.484161,10139.064209,-5229.280022,-12434.588365,4052.863008,0.012375,-0.016063,1.008938,192.000000,0.000000,0.000000,0.000000,0.000000,0.000000,0.000000,0.000000,0.000000,0.000000,1769696630.010584,0.000000
142.000000,7776.261303,11528.068665,-2593.204688,-4620.239689,-308.521129,-9146.758514,-5047.470933,2077.639351,12797.491288,7804.670370,-14775.464210,8126.267269,10225.163129,-5129.412428,-12356.714887,4061.021395,0.012375,-0.016063,1.008938,192.000000,0.000000,0.000000,0.000000,0.000000,0.000000,0.000000,0.000000,0.000000,0.000000,1769696630.010597,0.000000
144.000000,7560.365803,11303.523040,-2823.785284,-4817.873814,-532.597367,-9397.858011,-5261.511238,1856.960578,12888.440536,7870.362147,-14701.010549,8217.283573,10312.983133,-5035.915081,-12271.398279,4189.700388,0.013188,-0.010031,1.007469,192.000000,0.000000,56.000000,127.500000,112.000000,15.500000,56.000000,0.000000,0.000000,0.000000,1769696630.010610,0.000000
146.000000,7677.287779,11421.562603,-2691.351198,-4718.587365,-417.932918,-9278.365586,-5150.221902,1979.582248,12705.469156,7696.622037,-14865.385278,8047.790295,10114.700808,-5260.170133,-12444.847816,3992.580353,0.013188,-0.010031,1.007469,192.000000,0.000000,0.000000,0.000000,0.000000,0.000000,0.000000,0.000000,0.000000,0.000000,1769696630.010622,0.000000
148.000000,7719.823148,11465.550836,-2642.155009,-4658.975263,-361.226542,-9259.567769,-5089.246343,2030.454818,12950.041944,7939.786665,-14613.011731,8283.847068,10372.081145,-4975.498316,-12183.064185,4219.607022,0.013188,-0.010031,1.007469,192.000000,0.000000,0.000000,0.000000,0.000000,0.000000,0.000000,0.000000,0.000000,0.000000,1769696630.010635,0.000000
150.000000,7482.693491,11234.120874,-2879.977570,-4899.278867,-597.506833,-9482.928751,-5327.091256,1790.732359,12709.827746,7697.493756,-14862.948938,8058.675594,10153.458733,-5207.129444,-12420.931449,4044.279938,0.013188,-0.010031,1.007469,192.000000,0.000000,0.000000,0.000000,0.000000,0.000000,0.000000,0.000000,0.000000,0.000000,1769696630.010648,0.000000
152.000000,7764.861913,11518.882098,-2608.716799,-4622.631326,-322.781542,-9210.952724,-5059.607930,2064.474173,12765.550645,7771.835658,-14802.733338,8108.341170,10188.908599,-5160.011966,-12355.820817,4047.140962,0.013188,-0.010031,1.007469,192.000000,0.000000,0.000000,0.000000,0.000000,0.000000,0.000000,0.000000,0.000000,0.000000,1769696630.010661,0.000000
154.000000,7568.680652,11315.168299,-2813.615240,-4814.610459,-511.407913,-9421.103826,-5254.202217,1863.286121,12880.438612,7867.925807,-14694.305026,8222.066846,10302.611924,-5076.952884,-12246.140807,4213.035609,0.015594,-0.007016,1.008734,192.000000,0.000000,72.000000,127.500000,112.000000,15.500000,72.000000,0.000000,0.000000,0.000000,1769696630.010674,0.000000
156.000000,7630.729095,11382.379995,-2754.651338,-4764.162572,-454.433317,-9336.055438,-5204.760159,1928.217939,12652.272004,7672.392746,-14906.288970,8011.647524,10092.706691,-5279.370282,-12464.919682,3981.225667,0.015594,-0.007016,1.008734,192.000000,0.000000,0.000000,0.000000,0.000000,0.000000,0.000000,0.000000,0.000000,0.000000,1769696630.010686,0.000000
158.000000,7750.266224,11502.408862,-2634.913043,-4633.114294,-327.475408,-9219.066408,-5083.725462,2049.073821,12979.255674,7957.131619,-14616.766824,8298.532164,10381.267712,-4995.100796,-12181.030176,4227.676002,0.015594,-0.007016,1.008734,192.000000,0.000000,0.000000,0.000000,0.000000,0.000000,0.000000,0.000000,0.000000,0.000000,1769696630.010699,0.000000
160.000000,7492.997645,11242.122798,-2902.731645,-4905.358542,-596.478653,-9490.908324,-5346.179646,1784.205649,12698.785984,7709.563698,-14861.473723,8060.486085,10135.554985,-5223.043886,-12432.375542,4040.435438,0.015594,-0.007016,1.008734,192.000000,0.000000,0.000000,0.000000,0.000000,0.000000,0.000000,0.000000,0.000000,0.000000,1769696630.010712,0.000000
162.000000,7775.657806,11526.884023,-2623.826578,-4623.883024,-328.235367,-9173.379442,-5076.438794,2063.580103,12768.612834,7782.676254,-14804.141498,8111.649229,10194.697701,-5160.459001,-12376.116201,4040.122514,0.015594,-0.007016,1.008734,192.000000,0.000000,0.000000,0.000000,0.000000,0.000000,0.000000,0.000000,0.000000,0.000000,1769696630.010724,0.000000
164.000000,7562.735088,11314.229526,-2835.229377,-4828.468541,-541.627472,-9403.513003,-5281.985436,1853.026671,12863.428934,7874.564275,-14705.369139,8212.433244,10290.564333,-5035.937433,-12283.177648,4185.274742,0.015594,-0.007016,1.008734,192.000000,0.000000,0.000000,0.000000,0.000000,0.000000,0.000000,0.000000,0.000000,0.000000,1769696630.010736,0.000000
166.000000,7658.467610,11413.024236,-2749.063402,-4742.280214,-466.190334,-9332.412104,-5199.485147,1946.747535,12687.341891,7700.175965,-14887.804078,8042.381172,10108.241154,-5234.264461,-12466.797229,3995.530784,0.016000,-0.008000,1.010000,192.000000,0.000000,64.000000,127.500000,96.000000,15.500000,72.000000,0.000000,0.000000,0.000000,1769696630.010749,0.000000
168.000000,7732.608346,11482.761679,-2660.997529,-4706.740940,-379.689083,-9160.191913,-5119.644716,2015.166225,12928.047827,7915.892651,-14650.652069,8254.812152,10325.231889,-5043.805247,-12225.800720,4195.176565,0.016000,-0.008000,1.010000,192.000000,0.000000,0.000000,0.000000,0.000000,0.000000,0.000000,0.000000,0.000000,0.000000,1769696630.010761,0.000000
170.000000,7531.286184,11282.557104,-2873.964950,-4860.409184,-575.445661,-9513.014199,-5313.389637,1820.124903,12735.398142,7744.454771,-14848.286193,8077.272246,10167.294463,-5196.959400,-12410.470833,4066.251703,0.016000,-0.008000,1.010000,192.000000,0.000000,0.000000,0.000000,0.000000,0.000000,0.000000,0.000000,0.000000,0.000000,1769696630.010774,0.000000
172.000000,7774.271998,11524.201813,-2612.896575,-4625.447646,-335.454981,-9228.744713,-5070.627340,2061.724909,12768.411668,7769.622835,-14794.887876,8117.818310,10194.094204,-5170.785507,-12362.302823,4059.836752,0.016000,-0.008000,1.010000,192.000000,0.000000,0.000000,0.000000,0.000000,0.000000,0.000000,0.000000,0.000000,0.000000,1769696630.010786,0.000000
174.000000,7559.628196,11305.758215,-2832.413057,-4852.362556,-526.808265,-9443.992012,-5277.850363,1845.292967,12879.857466,7861.332042,-14702.105785,8206.241811,10275.946292,-5077.735195,-12253.092200,4193.589591,0.016000,-0.008000,1.010000,192.000000,0.000000,0.000000,0.000000,0.000000,0.000000,0.000000,0.000000,0.000000,0.000000,1769696630.010807,0.000000
176.000000,7641.323822,11388.034986,-2751.343280,-4762.933226,-454.679186,-9341.978650,-5208.716417,1923.993459,12650.752086,7656.657118,-14913.128604,7999.309361,10104.709578,-5297.788119,-12470.217046,3963.970120,0.018000,-0.016000,1.014000,192.000000,0.000000,72.000000,127.500000,64.000000,15.500000,88.000000,0.000000,0.000000,0.000000,1769696630.010819,0.000000
178.000000,7738.308041,11488.439022,-2661.176343,-4680.097661,-343.568664,-9260.953577,-5111.978067,2021.312955,12921.610525,7912.003447,-14644.773560,8257.986099,10346.734267,-4981.242714,-12204.611266,4190.102719,0.018000,-0.016000,1.014000,192.000000,0.000000,0.000000,0.000000,0.000000,0.000000,0.000000,0.000000,0.000000,0.000000,1769696630.010832,0.000000
180.000000,7499.546707,11251.085848,-2900.049436,-4910.410036,-598.333847,-9525.173548,-5353.354556,1784.026835,12712.845232,7702.969933,-14868.112191,8045.532768,10120.132282,-5273.335311,-12434.878938,4022.755208,0.018000,-0.016000,1.014000,192.000000,0.000000,0.000000,0.000000,0.000000,0.000000,0.000000,0.000000,0.000000,0.000000,1769696630.010845,0.000000
182.000000,7788.778280,11541.122084,-2630.487398,-4635.617690,-322.870949,-9229.191748,-5080.998550,2067.893990,12778.000567,7773.444983,-14800.632274,8114.644362,10195.703530,-5171.567818,-12372.249350,4032.478217,0.018000,-0.016000,1.014000,192.000000,0.000000,0.000000,0.000000,0.000000,0.000000,0.000000,0.000000,0.000000,0.000000,1769696630.010859,0.000000
184.000000,7594.608676,11343.689125,-2810.597755,-4838.146846,-510.782064,-9392.426538,-5269.803735,1876.004264,12892.486202,7867.523476,-14687.219523,8215.920116,10303.349531,-5049.929625,-12277.366194,4178.837440,0.018000,-0.016000,1.014000,192.000000,0.000000,0.000000,0.000000,0.000000,0.000000,0.000000,0.000000,0.000000,0.000000,1769696630.010873,0.000000
186.000000,7687.189601,11440.047495,-2743.721335,-4749.321014,-430.315784,-9300.337350,-5191.460871,1963.041957,12688.705348,7702.120567,-14886.485325,8035.139207,10123.216823,-5244.814485,-12474.687394,3967.881676,0.014000,-0.012000,1.012000,192.000000,0.000000,56.000000,127.500000,80.000000,15.500000,80.000000,0.000000,0.000000,0.000000,1769696630.010886,0.000000
188.000000,7760.100992,11510.231973,-2639.137523,-4660.182257,-353.828115,-9256.349117,-5098.365855,2043.240016,12969.532665,7948.369735,-14608.787252,8288.093899,10368.616625,-5009.025932,-12201.683188,4204.765463,0.014000,-0.012000,1.012000,192.000000,0.000000,0.000000,0.000000,0.000000,0.000000,0.000000,0.000000,0.000000,0.000000,1769696630.010899,0.000000
190.000000,7524.848881,11273.079964,-2879.552886,-4915.908565,-599.451435,-9495.199859,-5331.651012,1806.847967,12734.414665,7717.476215,-14844.173472,8070.007929,10125.317887,-5236.723153,-12427.704028,4039.474313,0.014000,-0.012000,1.012000,192.000000,0.000000,0.000000,0.000000,0.000000,0.000000,0.000000,0.000000,0.000000,0.000000,1769696630.010912,0.000000
192.000000,7772.394451,11524.447682,-2633.124904,-4643.597262,-356.063289,-9258.338423,-5079.880962,2056.069917,12772.837314,7767.275902,-14803.090966,8102.574420,10177.576265,-5174.987635,-12382.888780,4018.329563,0.014000,-0.012000,1.012000,192.000000,0.000000,0.000000,0.000000,0.000000,0.000000,0.000000,0.000000,0.000000,0.000000,1769696630.010924,0.000000
194.000000,7586.182068,11335.016648,-2819.069066,-4832.380096,-530.608062,-9445.780152,-5260.594816,1866.258903,12881.757364,7864.394231,-14701.904619,8208.298172,10310.010351,-5042.285328,-12270.683023,4177.116356,0.014000,-0.012000,1.012000,192.000000,0.000000,0.000000,0.000000,0.000000,0.000000,0.000000,0.000000,0.000000,0.000000,1769696630.010938,0.000000
196.000000,7652.454990,11403.033007,-2754.360766,-4786.223744,-463.910456,-9330.288688,-5211.555089,1929.603747,12694.919133,7677.108965,-14893.369662,8020.856443,10117.405369,-5284.086500,-12462.885673,3966.227647,0.008000,-0.014000,1.006000,192.000000,0.000000,32.000000,127.500000,72.000000,15.500000,56.000000,0.000000,0.000000,0.000000,1769696630.010950,0.000000
198.000000,7745.907634,11489.891886,-2656.683642,-4700.884783,-374.704644,-9281.830106,-5113.788559,2022.542301,12943.045848,7915.020933,-14634.916441,8257.874341,10329.635183,-5023.174587,-12214.580144,4173.830649,0.008000,-0.014000,1.006000,192.000000,0.000000,0.000000,0.000000,0.000000,0.000000,0.000000,0.000000,0.000000,0.000000,1769696630.010962,0.000000
200.000000,7497.602105,11242.525130,-2898.864794,-4928.202024,-606.156958,-9540.260975,-5352.058155,1775.309655,12727.105645,7686.519049,-14869.788572,8040.101295,10123.328581,-5257.219703,-12439.550452,4013.322772,0.008000,-0.014000,1.006000,192.000000,0.000000,0.000000,0.000000,0.000000,0.000000,0.000000,0.000000,0.000000,0.000000,1769696630.010974,0.000000
202.000000,7770.136925,11515.886964,-2639.785724,-4652.493257,-326.938966,-9242.222815,-5084.150146,2045.609301,12758.912177,7757.888169,-14808.500088,8095.243048,10189.087413,-5193.830156,-12368.851884,4029.728953,0.008000,-0.014000,1.006000,192.000000,0.000000,0.000000,0.000000,0.000000,0.000000,0.000000,0.000000,0.000000,0.000000,1769696630.010986,0.000000
204.000000,7564.478524,11307.658113,-2832.502464,-4873.127326,-506.155253,-9437.666468,-5286.902820,1835.212330,12909.406472,7854.671223,-14703.648055,8183.375976,10304.243601,-5069.889733,-12250.074714,4172.847172,0.008000,-0.014000,1.006000,192.000000,0.000000,0.000000,0.000000,0.000000,0.000000,0.000000,0.000000,0.000000,0.000000,1769696630.010998,0.000000
206.000000,7641.256766,11389.152573,-2773.091528,-4791.632866,-440.396421,-9337.821226,-5231.403438,1912.929346,12642.124312,7634.595947,-14938.475482,7985.898314,10075.294682,-5298.413968,-12493.619322,3933.258824,0.008000,-0.012000,1.004000,192.000000,0.000000,32.000000,127.500000,80.000000,15.500000,48.000000,0.000000,0.000000,0.000000,1769696630.011010,0.000000
208.000000,7758.670480,11503.280580,-2664.685567,-4682.444594,-358.097298,-9281.003091,-5117.990687,2032.399420,12949.773723,7922.978154,-14636.972801,8261.852951,10350.578767,-5011.574031,-12235.479025,4163.951178,0.008000,-0.012000,1.004000,192.000000,0.000000,0.000000,0.000000,0.000000,0.000000,0.000000,0.000000,0.000000,0.000000,1769696630.011021,0.000000
210.000000,7576.526115,11321.784415,-2840.437334,-4857.548160,-554.949111,-9473.205742,-5288.042758,1853.764278,12772.837314,7742.376058,-14811.003484,8105.793071,10157.660861,-5214.214947,-12420.551469,4051.477200,0.008000,-0.012000,1.004000,192.000000,0.000000,0.000000,0.000000,0.000000,0.000000,0.000000,0.000000,0.000000,0.000000,1769696630.490826,0.000000
212.000000,7774.339053,11522.748950,-2642.937320,-4673.615655,-361.047728,-9271.123620,-5091.012131,2048.313862,12803.816832,7781.245742,-14769.518646,8135.029153,10201.626742,-5163.856466,-12378.083155,4034.512226,0.008000,-0.012000,1.004000,192.000000,0.000000,0.000000,0.000000,0.000000,0.000000,0.000000,0.000000,0.000000,0.000000,1769696630.490897,0.000000
214.000000,7580.549429,11328.042904,-2833.530645,-4849.903864,-553.160972,-9469.338890,-5269.177886,1860.514505,12881.735013,7850.334984,-14713.728692,8197.211706,10282.294188,-5109.519376,-12311.653770,4130.378858,0.008000,-0.012000,1.004000,192.000000,0.000000,0.000000,0.000000,0.000000,0.000000,0.000000,0.000000,0.000000,0.000000,1769696630.490948,0.000000
216.000000,7631.243185,11380.591855,-2779.797051,-4799.724197,-510.245622,-9371.751174,-5226.284889,1910.537709,12665.884217,7642.910796,-14909.149994,8006.484271,10064.498790,-5312.495567,-12502.403558,3927.134446,0.008000,-0.016000,1.002000,192.000000,0.000000,32.000000,127.500000,64.000000,15.500000,40.000000,0.000000,0.000000,0.000000,1769696630.490998,0.000000
218.000000,7732.273070,11482.247589,-2680.130622,-4693.732225,-396.519947,-9310.149766,-5120.404675,2013.065161,12910.613467,7898.123014,-14650.741476,8258.723707,10326.975325,-5054.355270,-12239.658802,4152.283567,0.008000,-0.016000,1.002000,192.000000,0.000000,0.000000,0.000000,0.000000,0.000000,0.000000,0.000000,0.000000,0.000000,1769696630.491053,0.000000
220.000000,7488.773166,11238.300650,-2918.869605,-4942.305975,-633.537845,-9534.851853,-5363.837524,1766.570123,12696.684920,7667.587121,-14879.757450,8038.827245,10090.136241,-5246.580273,-12454.503769,3994.413196,0.008000,-0.016000,1.002000,192.000000,0.000000,0.000000,0.000000,0.000000,0.000000,0.000000,0.000000,0.000000,0.000000,1769696630.491070,0.000000
222.000000,7789.538239,11544.966584,-2621.837273,-4648.380536,-330.247024,-9291.307246,-5072.057852,2062.171943,12760.499151,7739.358573,-14830.471853,8087.531696,10203.727806,-5198.881650,-12378.463135,4004.002095,0.008000,-0.016000,1.002000,192.000000,0.000000,0.000000,0.000000,0.000000,0.000000,0.000000,0.000000,0.000000,0.000000,1769696630.491088,0.000000
224.000000,7602.767063,11351.579291,-2789.430653,-4822.165349,-496.164023,-9451.323384,-5246.513217,1878.105328,12908.177126,7888.400005,-14672.512075,8234.449713,10319.286325,-5057.037480,-12239.189415,4177.697501,0.008000,-0.016000,1.002000,192.000000,0.000000,0.000000,0.000000,0.000000,0.000000,0.000000,0.000000,0.000000,0.000000,1769696630.491107,0.000000
226.000000,7639.446275,11391.968893,-2755.768926,-4796.438491,-452.667529,-9381.965921,-5220.495787,1914.561023,12697.936618,7678.315959,-14886.619435,8028.746608,10115.550174,-5278.610322,-12430.743865,3968.418118,0.010000,-0.008000,1.008000,192.000000,0.000000,40.000000,127.500000,96.000000,15.500000,64.000000,0.000000,0.000000,0.000000,1769696630.491123,0.000000
228.000000,7760.391564,11515.797557,-2653.979081,-4659.914036,-320.836940,-9259.947748,-5107.060684,2029.314879,12928.248993,7912.182261,-14650.853235,8252.062887,10335.513691,-5029.857758,-12196.072900,4169.784983,0.010000,-0.008000,1.008000,192.000000,0.000000,0.000000,0.000000,0.000000,0.000000,0.000000,0.000000,0.000000,0.000000,1769696630.491140,0.000000
230.000000,7549.480504,11303.388930,-2888.650046,-4888.035940,-546.455448,-9466.947254,-5333.796779,1819.677868,12756.051154,7730.797855,-14853.672964,8085.855315,10158.130247,-5200.356865,-12410.314370,4037.663822,0.010000,-0.008000,1.008000,192.000000,0.000000,0.000000,0.000000,0.000000,0.000000,0.000000,0.000000,0.000000,0.000000,1769696630.491158,0.000000
232.000000,7834.979336,11590.430032,-2601.988924,-4602.648866,-293.612515,-9233.438579,-5052.857703,2109.088255,12800.575829,7805.720902,-14769.920977,8155.235130,10239.714115,-5136.073248,-12368.538960,4045.531636,0.010000,-0.008000,1.008000,192.000000,0.000000,0.000000,0.000000,0.000000,0.000000,0.000000,0.000000,0.000000,0.000000,1769696630.491176,0.000000
234.000000,7649.817485,11397.042739,-2766.341301,-4780.814622,-487.536250,-9393.789994,-5218.774702,1924.440494,12950.578386,7941.239529,-14630.177871,8287.736271,10372.327014,-4997.604191,-12231.053380,4223.786798,0.010000,-0.008000,1.008000,192.000000,0.000000,0.000000,0.000000,0.000000,0.000000,0.000000,0.000000,0.000000,0.000000,1769696630.491194,0.000000
236.000000,7661.909778,11413.985361,-2757.132382,-4769.795212,-477.925000,-9382.658825,-5208.694066,1932.822398,12707.436109,7693.135165,-14871.710822,8052.126533,10103.301418,-5254.872770,-12466.484304,3979.750452,0.008000,-0.008000,1.007000,192.000000,0.000000,24.000000,127.500000,96.000000,15.500000,56.000000,0.000000,0.000000,0.000000,1769696630.491211,0.000000
238.000000,7741.884320,11493.468165,-2668.485364,-4672.900399,-375.486955,-9278.834972,-5111.978067,2015.255632,12943.448179,7915.065636,-14650.964993,8254.767448,10343.426209,-5010.702313,-12229.488758,4168.175658,0.008000,-0.008000,1.007000,192.000000,0.000000,0.000000,0.000000,0.000000,0.000000,0.000000,0.000000,0.000000,0.000000,1769696630.491229,0.000000
240.000000,7524.871233,11276.768002,-2878.122375,-4897.624838,-594.355237,-9517.305734,-5329.192320,1797.862565,12727.820900,7714.346971,-14866.972252,8066.319891,10133.386866,-5242.154627,-12415.388216,4035.965089,0.008000,-0.008000,1.007000,192.000000,0.000000,0.000000,0.000000,0.000000,0.000000,0.000000,0.000000,0.000000,0.000000,1769696630.491248,0.000000
242.000000,7746.131151,11500.732482,-2672.575733,-4686.803184,-374.615237,-9313.077845,-5119.063570,2016.306164,12733.699409,7737.369268,-14832.036475,8086.279999,10180.057309,-5184.867106,-12385.392175,4004.337371,0.008000,-0.008000,1.007000,192.000000,0.000000,0.000000,0.000000,0.000000,0.000000,0.000000,0.000000,0.000000,0.000000,1769696630.491267,0.000000
244.000000,7556.096620,11304.171241,-2849.869770,-4884.526716,-539.772277,-9512.008370,-5301.319695,1829.602042,12883.299635,7859.007461,-14709.370102,8193.054282,10294.609999,-5092.934381,-12272.918197,4148.640233,0.008000,-0.008000,1.007000,192.000000,0.000000,0.000000,0.000000,0.000000,0.000000,0.000000,0.000000,0.000000,0.000000,1769696630.491284,0.000000
246.000000,7629.008011,11379.474268,-2781.965170,-4820.153692,-466.615017,-9428.614012,-5235.404400,1901.015866,12646.974641,7624.671772,-14940.755360,7981.159744,10086.895238,-5297.564602,-12492.971121,3919.266632,0.009000,-0.010000,1.003500,192.000000,0.000000,40.000000,127.500000,80.000000,15.500000,32.000000,0.000000,0.000000,0.000000,1769696630.491300,0.000000
248.000000,7725.165215,11472.256359,-2681.672893,-4716.687467,-360.198362,-9318.777540,-5132.519321,1992.143928,12922.504595,7889.584647,-14664.264281,8238.025992,10330.305735,-5050.242549,-12217.664685,4154.921073,0.009000,-0.010000,1.003500,192.000000,0.000000,0.000000,0.000000,0.000000,0.000000,0.000000,0.000000,0.000000,0.000000,1769696630.491317,0.000000
250.000000,7503.145337,11254.617423,-2885.654913,-4938.595586,-577.546725,-9559.081144,-5351.119381,1771.219286,12693.712138,7688.150726,-14885.077165,8026.399675,10116.667761,-5236.879615,-12422.071388,3998.950600,0.009000,-0.010000,1.003500,192.000000,0.000000,0.000000,0.000000,0.000000,0.000000,0.000000,0.000000,0.000000,0.000000,1769696630.491339,0.000000
252.000000,7754.066021,11507.415653,-2663.836201,-4674.643835,-332.616309,-9290.301417,-5107.395960,2028.465513,12755.000622,7731.893090,-14838.965516,8084.022472,10198.452794,-5222.350982,-12384.140478,3993.183850,0.009000,-0.010000,1.003500,192.000000,0.000000,0.000000,0.000000,0.000000,0.000000,0.000000,0.000000,0.000000,0.000000,1769696630.491356,0.000000
254.000000,7569.574722,11326.902965,-2835.028211,-4863.024338,-534.184341,-9485.253332,-5285.673474,1851.305586,12882.852600,7868.730470,-14701.703453,8197.167003,10297.180450,-5062.714823,-12273.924026,4154.786963,0.009000,-0.010000,1.003500,192.000000,0.000000,0.000000,0.000000,0.000000,0.000000,0.000000,0.000000,0.000000,0.000000,1769696630.491374,0.000000
0.000000,7630.147949,11384.257541,-2794.169223,-4802.160538,-510.335029,-9437.889986,-5237.371354,1912.750532,12660.542150,7644.184845,-14929.601840,8020.722332,10071.249017,-5302.392578,-12510.405482,3935.203425,0.007500,-0.012000,0.998750,192.000000,0.000000,24.000000,127.500000,72.000000,15.500000,8.000000,0.000000,0.000000,0.000000,1769696630.491392,0.000000
2.000000,7749.372154,11503.347636,-2674.654445,-4681.505821,-381.276057,-9336.770694,-5109.049989,2033.517007,12918.011894,7908.561278,-14653.289575,8255.728573,10333.077351,-5060.122020,-12257.406087,4149.489599,0.007500,-0.012000,0.998750,192.000000,0.000000,0.000000,0.000000,0.000000,0.000000,0.000000,0.000000,0.000000,0.000000,1769696630.491409,0.000000
4.000000,7457.123096,11215.770092,-2950.720841,-5003.147424,-659.197647,-9612.747683,-5394.347655,1746.319443,12690.717005,7695.951485,-14893.302607,8021.437588,10126.301363,-5230.196444,-12470.664080,3991.462766,0.007500,-0.012000,0.998750,192.000000,0.000000,0.000000,0.000000,0.000000,0.000000,0.000000,0.000000,0.000000,0.000000,1769696630.491427,0.000000
6.000000,7727.601555,11490.182458,-2685.718559,-4707.366789,-382.013664,-9318.866947,-5118.124797,2018.966021,12672.992071,7706.322695,-14867.441638,8062.318929,10167.763849,-5168.796202,-12430.520347,3968.440469,0.007500,-0.012000,0.998750,192.000000,0.000000,0.000000,0.000000,0.000000,0.000000,0.000000,0.000000,0.000000,0.000000,1769696630.491443,0.000000
8.000000,7512.309553,11262.261720,-2879.865811,-4867.807611,-595.673990,-9555.527217,-5318.463483,1806.311525,12853.124780,7859.879179,-14744.104712,8173.340043,10278.919074,-5131.692306,-12312.190212,4127.651945,0.007500,-0.012000,0.998750,192.000000,0.000000,0.000000,0.000000,0.000000,0.000000,0.000000,0.000000,0.000000,0.000000,1769696630.491460,0.000000
10.000000,7558.130629,11311.480261,-2838.313918,-4897.267210,-533.714954,-9459.749992,-5293.004846,1838.587444,12612.105919,7557.370670,-14993.907809,7933.841101,9992.280304,-5345.196169,-12549.498683,3879.748747,0.006750,-0.013000,0.998375,192.000000,0.000000,24.000000,127.500000,72.000000,15.500000,24.000000,0.000000,0.000000,0.000000,1769696630.491477,0.000000
12.000000,7709.787215,11466.221388,-2690.032445,-4699.700141,-363.975807,-9342.291575,-5134.754495,1999.832928,12880.304501,7892.043339,-14691.779279,8207.292343,10338.173549,-5024.470988,-12239.703505,4139.051335,0.006750,-0.013000,0.998375,192.000000,0.000000,0.000000,0.000000,0.000000,0.000000,0.000000,0.000000,0.000000,0.000000,1769696630.491494,0.000000
14.000000,7484.124003,11240.938156,-2939.500265,-5011.082293,-599.451435,-9562.210388,-5379.304931,1770.168754,12683.072708,7717.878546,-14890.933322,8002.215088,10161.572416,-5234.242110,-12446.546548,3990.591048,0.006750,-0.013000,0.998375,192.000000,0.000000,0.000000,0.000000,0.000000,0.000000,0.000000,0.000000,0.000000,0.000000,1769696630.491510,0.000000
16.000000,7786.140774,11539.088075,-2616.472854,-4630.096809,-301.346219,-9256.684393,-5078.763375,2075.225362,12783.096764,7777.133021,-14824.034551,8091.219734,10206.722940,-5185.448251,-12402.290094,3962.651368,0.006750,-0.013000,0.998375,192.000000,0.000000,0.000000,0.000000,0.000000,0.000000,0.000000,0.000000,0.000000,0.000000,1769696630.491527,0.000000
18.000000,7618.502691,11383.341120,-2807.356752,-4795.566773,-448.286587,-9455.279643,-5225.390819,1914.762189,12947.337383,7941.083067,-14655.860025,8245.133846,10364.906235,-5000.331104,-12220.324543,4185.073577,0.006750,-0.013000,0.998375,192.000000,0.000000,0.000000,0.000000,0.000000,0.000000,0.000000,0.000000,0.000000,0.000000,1769696630.491540,0.000000
20.000000,7628.091589,11385.241018,-2822.265365,-4821.964183,-455.081517,-9421.819082,-5228.229490,1921.758285,12768.769296,7712.357666,-14905.730177,8039.587204,10230.818120,-5214.729037,-12464.338537,3981.717406,0.007375,-0.013500,0.999188,192.000000,0.000000,32.000000,127.500000,72.000000,15.500000,32.000000,0.000000,0.000000,0.000000,1769696630.491557,0.000000
22.000000,7795.349693,11554.957814,-2617.523386,-4703.924621,-300.139225,-9261.937053,-5059.473820,2090.268086,12959.004993,7934.779875,-14663.996060,8267.642053,10386.922704,-4944.317632,-12214.378979,4178.546867,0.007375,-0.013500,0.999188,192.000000,0.000000,0.000000,0.000000,0.000000,0.000000,0.000000,0.000000,0.000000,0.000000,1769696630.491572,0.000000
24.000000,7563.807972,11322.164395,-2793.610429,-4845.299404,-526.204768,-9484.269856,-5263.321729,1870.393976,12819.463053,7853.419525,-14764.154227,8135.945575,10212.556745,-5088.061701,-12346.343678,4113.525643,0.007375,-0.013500,0.999188,192.000000,0.000000,0.000000,0.000000,0.000000,0.000000,0.000000,0.000000,0.000000,0.000000,1769696630.491588,0.000000
26.000000,7814.102806,11576.862523,-2662.092765,-4581.146488,-286.638771,-9240.881710,-5033.746962,2116.263165,12878.628120,7838.466208,-14790.976321,8119.002952,10303.103662,-5100.444567,-12340.196948,4073.046633,0.007375,-0.013500,0.999188,192.000000,0.000000,0.000000,0.000000,0.000000,0.000000,0.000000,0.000000,0.000000,0.000000,1769696630.491610,0.000000
28.000000,7616.222813,11365.415021,-2795.085644,-4874.848410,-470.504221,-9444.059067,-5222.730961,1914.941003,12934.887461,7991.441547,-14640.347915,8299.694455,10489.137231,-4860.744460,-12213.753130,4244.193941,0.007375,-0.013500,0.999188,192.000000,0.000000,0.000000,0.000000,0.000000,0.000000,0.000000,0.000000,0.000000,0.000000,1769696630.491627,0.000000
30.000000,7650.197464,11426.234117,-2808.630801,-4738.055734,-467.240866,-9445.221358,-5190.745615,1960.650320,12724.378732,7737.302212,-14887.982892,8041.397696,10129.542366,-5203.687275,-12483.002243,3951.699013,0.007687,-0.013750,0.998594,192.000000,0.000000,32.000000,127.500000,72.000000,15.500000,24.000000,0.000000,0.000000,0.000000,1769696630.491645,0.000000
32.000000,7759.564550,11520.066741,-2606.280459,-4743.420153,-313.393809,-9318.039932,-5069.487401,2062.082536,13036.923174,7954.225892,-14666.678270,8304.097748,10438.398771,-4937.030964,-12203.605438,4172.914228,0.007687,-0.013750,0.998594,192.000000,0.000000,0.000000,0.000000,0.000000,0.000000,0.000000,0.000000,0.000000,0.000000,1769696630.491662,0.000000
34.000000,7547.334736,11308.306314,-2896.562564,-4880.369291,-502.735436,-9484.336911,-5291.440224,1843.884807,12849.615556,7868.752822,-14817.954876,8091.689121,10285.222266,-5103.663218,-12361.498161,4064.642377,0.007687,-0.013750,0.998594,192.000000,0.000000,0.000000,0.000000,0.000000,0.000000,0.000000,0.000000,0.000000,0.000000,1769696630.491678,0.000000
36.000000,7846.110504,11601.896477,-2658.918817,-4574.172744,-244.058698,-9248.526007,-5033.836369,2123.415723,13101.564419,7874.318406,-14819.474795,8156.665642,10399.126756,-5071.588465,-12352.691573,4043.430572,0.007687,-0.013750,0.998594,192.000000,0.000000,0.000000,0.000000,0.000000,0.000000,0.000000,0.000000,0.000000,0.000000,1769696630.491696,0.000000
38.000000,7644.229548,11410.923172,-2724.297669,-4803.658104,-470.794793,-9457.447762,-5221.613374,1933.895282,13006.211878,7931.471816,-14613.123490,8350.947005,10439.002268,-5017.385485,-12197.704577,4212.767388,0.007687,-0.013750,0.998594,192.000000,0.000000,0.000000,0.000000,0.000000,0.000000,0.000000,0.000000,0.000000,0.000000,1769696630.491712,0.000000
40.000000,7645.727115,11407.011617,-2771.638664,-4768.811735,-457.249636,-9380.244837,-5220.898118,1938.030355,12706.296171,7682.875715,-14865.787609,8079.216847,10138.907747,-5228.520063,-12463.869150,3951.162571,0.005844,-0.009875,1.002297,192.000000,0.000000,16.000000,127.500000,104.000000,15.500000,56.000000,0.000000,0.000000,0.000000,1769696630.491728,0.000000
42.000000,7801.921106,11559.048183,-2616.428151,-4623.994782,-279.754434,-9277.292702,-5067.989834,2086.222420,12976.618168,7946.000450,-14598.371339,8326.248327,10369.264825,-4990.317522,-12191.803717,4187.599324,0.005844,-0.009875,1.002297,192.000000,0.000000,0.000000,0.000000,0.000000,0.000000,0.000000,0.000000,0.000000,0.000000,1769696630.491745,0.000000
44.000000,7530.258004,11295.565819,-2904.788006,-4912.846376,-576.563248,-9603.471709,-5331.494550,1820.303717,12843.692344,7775.166068,-14835.344533,8142.740505,10216.803577,-5163.565894,-12396.478641,4089.005779,0.005844,-0.009875,1.002297,192.000000,0.000000,0.000000,0.000000,0.000000,0.000000,0.000000,0.000000,0.000000,0.000000,1769696630.491762,0.000000
46.000000,7802.166975,11570.224055,-2693.876945,-4664.116164,-328.995327,-9329.707543,-5083.501945,2074.018368,12798.139488,7785.202001,-14817.731359,8126.602546,10298.476851,-5109.877003,-12401.306617,4038.692002,0.005844,-0.009875,1.002297,192.000000,0.000000,0.000000,0.000000,0.000000,0.000000,0.000000,0.000000,0.000000,0.000000,1769696630.491793,0.000000
48.000000,7599.056673,11353.926224,-2825.349906,-4799.679494,-505.283535,-9511.784853,-5250.961214,1886.911915,13011.308075,7940.658383,-14678.167066,8270.838353,10390.878962,-5011.372866,-12258.434267,4209.392275,0.005844,-0.009875,1.002297,192.000000,0.000000,0.000000,0.000000,0.000000,0.000000,0.000000,0.000000,0.000000,0.000000,1769696630.491808,0.000000
50.000000,7650.152761,11406.430472,-2775.349054,-4850.082678,-489.994942,-9477.653739,-5239.070086,1921.780637,12716.756787,7684.529744,-14892.386185,8033.328716,10117.092445,-5259.477229,-12506.002188,3953.285987,0.005844,-0.009875,1.002297,192.000000,0.000000,0.000000,0.000000,0.000000,0.000000,0.000000,0.000000,0.000000,0.000000,1769696630.491827,0.000000
52.000000,7831.447760,11589.379500,-2679.862401,-4600.726616,-325.821379,-9321.169176,-5053.349442,2109.892918,12997.137069,7944.212311,-14612.765862,8319.788673,10388.353215,-5001.783967,-12240.284650,4152.730602,0.006000,-0.012000,1.008000,192.000000,0.000000,24.000000,127.500000,80.000000,15.500000,64.000000,0.000000,0.000000,0.000000,1769696630.491846,0.000000
54.000000,7578.470716,11341.923337,-2847.366374,-4880.369291,-565.275617,-9562.277444,-5293.362474,1867.600008,12851.046068,7816.606202,-14775.978300,8187.622808,10300.823784,-5129.948870,-12386.599170,4067.816325,0.006000,-0.012000,1.008000,192.000000,0.000000,0.000000,0.000000,0.000000,0.000000,0.000000,0.000000,0.000000,0.000000,1769696630.491863,0.000000
56.000000,7819.757798,11584.573875,-2602.167738,-4611.231936,-311.560966,-9315.916516,-5053.640014,2109.624697,12848.609727,7784.754966,-14766.635271,8175.575218,10244.296222,-5163.878818,-12371.399983,4015.155615,0.006000,-0.012000,1.008000,192.000000,0.000000,0.000000,0.000000,0.000000,0.000000,0.000000,0.000000,0.000000,0.000000,1769696630.491882,0.000000
58.000000,7638.395743,11394.137012,-2785.072063,-4818.700828,-462.368186,-9520.971420,-5234.353868,1919.254889,12997.092366,7945.508712,-14641.711371,8297.325170,10382.050023,-5013.049246,-12210.981513,4197.389388,0.006000,-0.012000,1.008000,192.000000,0.000000,0.000000,0.000000,0.000000,0.000000,0.000000,0.000000,0.000000,0.000000,1769696630.491902,0.000000
60.000000,7660.322804,11420.847347,-2794.705664,-4812.196471,-450.700575,-9452.552730,-5229.481188,1936.175160,12770.445677,7690.631770,-14874.437734,8062.765963,10151.178855,-5235.762028,-12448.222929,3958.650405,0.006000,-0.012000,1.008000,192.000000,0.000000,0.000000,0.000000,0.000000,0.000000,0.000000,0.000000,0.000000,0.000000,1769696630.491919,0.000000
62.000000,7773.646149,11534.975354,-2655.186076,-4667.737146,-310.912765,-9342.336278,-5097.449433,2060.003824,12990.476250,7943.899386,-14640.884357,8280.740175,10430.016867,-4992.843269,-12219.877508,4158.877332,0.008000,-0.008000,1.008000,192.000000,0.000000,32.000000,127.500000,96.000000,15.500000,64.000000,0.000000,0.000000,0.000000,1769696630.491937,0.000000
64.000000,7528.715733,11285.194610,-2901.681113,-4939.579062,-583.916972,-9592.586409,-5346.067887,1814.179339,12776.413593,7751.160294,-14826.806167,8119.561746,10189.981483,-5215.757217,-12426.586440,4035.741572,0.008000,-0.008000,1.008000,192.000000,0.000000,0.000000,0.000000,0.000000,0.000000,0.000000,0.000000,0.000000,0.000000,1769696630.491955,0.000000
66.000000,7812.046446,11570.827552,-2632.722572,-4643.306690,-303.737855,-9342.962127,-5070.627340,2098.761749,12814.188041,7768.549951,-14797.883010,8113.415016,10243.066876,-5154.669899,-12405.039359,3984.578429,0.008000,-0.008000,1.008000,192.000000,0.000000,0.000000,0.000000,0.000000,0.000000,0.000000,0.000000,0.000000,0.000000,1769696630.491971,0.000000
68.000000,7613.853528,11369.103058,-2837.151627,-4816.912689,-507.272840,-9563.327976,-5251.475305,1907.184947,12980.350909,7925.101569,-14627.696827,8307.674027,10364.369793,-5025.879148,-12225.376037,4217.617717,0.008000,-0.008000,1.008000,192.000000,0.000000,0.000000,0.000000,0.000000,0.000000,0.000000,0.000000,0.000000,0.000000,1769696630.491988,0.000000
70.000000,7615.552260,11375.897989,-2822.690049,-4815.482177,-526.450637,-9540.909176,-5255.431563,1903.027523,12676.031909,7623.688295,-14933.066360,8015.469672,10116.354837,-5332.053343,-12524.576488,3923.357001,0.008000,-0.008000,1.008000,192.000000,0.000000,0.000000,0.000000,0.000000,0.000000,0.000000,0.000000,0.000000,0.000000,1769696630.492006,0.000000
72.000000,7806.279696,11566.759535,-2627.268747,-4630.499140,-331.297556,-9346.292537,-5064.055927,2088.994037,12975.701746,7940.770142,-14625.014618,8299.381530,10370.158895,-5004.265011,-12212.993170,4180.737338,0.004000,-0.012000,1.002000,192.000000,0.000000,16.000000,127.500000,80.000000,15.500000,40.000000,0.000000,0.000000,0.000000,1769696630.492022,0.000000
74.000000,7526.480559,11289.307331,-2919.853082,-4918.300202,-620.998516,-9603.672874,-5348.459524,1808.993734,12795.814907,7767.722937,-14810.936428,8132.570461,10194.898867,-5196.199441,-12407.855679,4047.945624,0.004000,-0.012000,1.002000,192.000000,0.000000,0.000000,0.000000,0.000000,0.000000,0.000000,0.000000,0.000000,0.000000,1769696630.972569,0.000000
76.000000,7822.305897,11588.530134,-2624.273613,-4623.056009,-316.947736,-9327.293554,-5055.271692,2111.032857,12795.546686,7772.416803,-14799.648797,8130.625860,10188.260399,-5156.033356,-12409.174431,3990.367531,0.004000,-0.012000,1.002000,192.000000,0.000000,0.000000,0.000000,0.000000,0.000000,0.000000,0.000000,0.000000,0.000000,1769696630.972669,0.000000
78.000000,7638.529854,11400.708425,-2807.624973,-4803.009904,-499.069750,-9559.461124,-5237.214892,1925.446323,12988.688110,7958.517427,-14611.044778,8324.259022,10392.622398,-4949.659699,-12236.015467,4199.870431,0.004000,-0.012000,1.002000,192.000000,0.000000,0.000000,0.000000,0.000000,0.000000,0.000000,0.000000,0.000000,0.000000,1769696630.972753,0.000000
80.000000,7651.650328,11412.554850,-2788.983618,-4783.273313,-460.334177,-9519.920888,-5230.621127,1937.113933,12713.493432,7692.017578,-14894.286083,8063.749440,10159.761925,-5275.615189,-12489.193677,3928.475550,0.004000,-0.012000,1.002000,192.000000,0.000000,0.000000,0.000000,0.000000,0.000000,0.000000,0.000000,0.000000,0.000000,1769696630.972837,0.000000
82.000000,7818.260231,11579.880009,-2611.577822,-4628.398076,-292.852556,-9345.130246,-5057.417459,2104.416740,13000.199258,7958.651538,-14609.033121,8315.675952,10396.913933,-5004.980267,-12193.323635,4174.478850,0.004000,-0.014000,1.004000,192.000000,0.000000,16.000000,127.500000,72.000000,15.500000,48.000000,0.000000,0.000000,0.000000,1769696630.972921,0.000000
84.000000,7536.136512,11298.046863,-2901.815224,-4906.498481,-583.224068,-9637.625174,-5335.450808,1823.567071,12814.232744,7792.466318,-14790.641044,8150.496560,10226.079551,-5172.193667,-12374.417469,4065.491744,0.004000,-0.014000,1.004000,192.000000,0.000000,0.000000,0.000000,0.000000,0.000000,0.000000,0.000000,0.000000,0.000000,1769696630.973006,0.000000
86.000000,7772.863838,11533.991877,-2653.174419,-4661.121030,-322.625079,-9386.771546,-5092.599105,2063.267179,12781.330977,7759.609253,-14813.864507,8118.913545,10193.781280,-5186.118804,-12398.892629,3992.915629,0.004000,-0.014000,1.004000,192.000000,0.000000,0.000000,0.000000,0.000000,0.000000,0.000000,0.000000,0.000000,0.000000,1769696630.973077,0.000000
88.000000,7637.345211,11390.806602,-2788.670693,-4798.539555,-466.905590,-9538.785760,-5219.892290,1929.067305,12953.528816,7920.966497,-14650.361496,8274.392280,10361.285253,-5032.897596,-12234.048514,4195.400083,0.004000,-0.014000,1.004000,192.000000,0.000000,0.000000,0.000000,0.000000,0.000000,0.000000,0.000000,0.000000,0.000000,1769696630.973101,0.000000
90.000000,7651.069182,11405.849326,-2778.791222,-4791.565811,-485.211669,-9555.460162,-5216.651287,1938.745611,12736.359267,7698.588991,-14866.435810,8066.409298,10148.340183,-5261.086555,-12459.711726,3971.301493,0.004000,-0.014000,1.004000,192.000000,0.000000,0.000000,0.000000,0.000000,0.000000,0.000000,0.000000,0.000000,0.000000,1769696630.973135,0.000000
92.000000,7781.625722,11538.953965,-2654.783744,-4650.481600,-307.135321,-9373.963997,-5080.417404,2065.502353,12948.142046,7929.706029,-14635.721104,8280.315492,10401.272524,-5007.863642,-12212.657894,4164.822896,0.002000,-0.006000,1.000000,192.000000,0.000000,8.000000,127.500000,104.000000,15.500000,32.000000,0.000000,0.000000,0.000000,1769696630.973159,0.000000
94.000000,7519.484463,11281.707738,-2892.159270,-4912.622859,-589.057873,-9629.042104,-5341.128152,1804.769254,12791.053985,7759.586902,-14831.209461,8113.415016,10200.263286,-5184.688292,-12388.230847,4065.603502,0.002000,-0.006000,1.000000,192.000000,0.000000,0.000000,0.000000,0.000000,0.000000,0.000000,0.000000,0.000000,0.000000,1769696630.973183,0.000000
96.000000,7794.321512,11558.601148,-2624.050096,-4637.137608,-299.245155,-9326.041857,-5072.370776,2075.247714,12769.350442,7777.892980,-14809.416510,8123.227432,10216.982391,-5167.432745,-12368.606015,4013.300420,0.002000,-0.006000,1.000000,192.000000,0.000000,0.000000,0.000000,0.000000,0.000000,0.000000,0.000000,0.000000,0.000000,1769696630.973209,0.000000
98.000000,7646.442371,11410.565544,-2784.915600,-4779.361758,-453.494543,-9523.988905,-5220.607545,1923.345259,12963.721211,7957.489247,-14636.838691,8298.286295,10389.135526,-4970.893856,-12186.953388,4238.002507,0.002000,-0.006000,1.000000,192.000000,0.000000,0.000000,0.000000,0.000000,0.000000,0.000000,0.000000,0.000000,0.000000,1769696630.973236,0.000000
100.000000,7663.161476,11427.418760,-2767.883571,-4763.939054,-457.517857,-9528.973344,-5205.833042,1949.697965,12716.801490,7720.672515,-14882.059679,8067.839809,10136.672573,-5221.322801,-12444.981926,3981.985626,0.002000,-0.006000,1.000000,192.000000,0.000000,0.000000,0.000000,0.000000,0.000000,0.000000,0.000000,0.000000,0.000000,1769696630.973260,0.000000
102.000000,7821.903565,11585.959683,-2606.995715,-4603.699398,-287.644599,-9386.212753,-5037.926738,2115.033819,12988.062261,7985.495983,-14596.583199,8329.534033,10403.507698,-4959.405060,-12182.907722,4197.389388,0.006000,-0.008000,1.006000,192.000000,0.000000,24.000000,127.500000,96.000000,15.500000,56.000000,0.000000,0.000000,0.000000,1769696630.973283,0.000000
104.000000,7545.993632,11309.937991,-2880.178735,-4880.659864,-560.537047,-9655.618329,-5305.611230,1842.051964,12807.929553,7792.846297,-14781.901512,8157.894988,10239.356487,-5159.587283,-12367.935463,4073.717186,0.006000,-0.008000,1.006000,192.000000,0.000000,0.000000,0.000000,0.000000,0.000000,0.000000,0.000000,0.000000,0.000000,1769696630.973306,0.000000
106.000000,7777.892980,11547.626441,-2640.612738,-4639.216320,-338.338356,-9451.569253,-5067.788669,2084.166060,12783.074413,7783.123289,-14791.780983,8137.644307,10213.048483,-5178.608618,-12392.052995,3991.954504,0.006000,-0.008000,1.006000,192.000000,0.000000,0.000000,0.000000,0.000000,0.000000,0.000000,0.000000,0.000000,0.000000,1769696630.973329,0.000000
108.000000,7597.626161,11363.470419,-2815.716304,-4818.834939,-491.045474,-9609.909011,-5236.007897,1905.396808,12916.626086,7908.091892,-14659.011621,8270.905408,10345.057886,-5032.003526,-12247.683078,4173.629483,0.006000,-0.008000,1.006000,192.000000,0.000000,0.000000,0.000000,0.000000,0.000000,0.000000,0.000000,0.000000,0.000000,1769696630.973353,0.000000
110.000000,7639.647441,11406.162251,-2778.970036,-4787.408386,-458.926017,-9580.628226,-5211.175109,1943.797105,12689.152383,7684.127412,-14892.140316,8051.143056,10125.697866,-5275.324616,-12479.090688,3947.720402,0.006000,-0.008000,1.006000,192.000000,0.000000,0.000000,0.000000,0.000000,0.000000,0.000000,0.000000,0.000000,0.000000,1769696630.973377,0.000000
112.000000,7769.868704,11536.897604,-2649.687546,-4657.053012,-325.307289,-9441.779189,-5081.870268,2073.169002,12959.809656,7957.086916,-14621.952429,8305.327094,10390.096651,-4995.391368,-12219.989266,4167.862733,0.010000,-0.012000,1.006000,192.000000,0.000000,40.000000,127.500000,80.000000,15.500000,56.000000,0.000000,0.000000,0.000000,1769696630.973400,0.000000
114.000000,7543.400829,11313.067235,-2875.864849,-4886.426614,-562.168725,-9655.484218,-5308.427549,1848.712784,12775.407764,7761.464448,-14812.612809,8131.341115,10209.159280,-5179.480336,-12405.486394,4052.058345,0.010000,-0.012000,1.006000,192.000000,0.000000,0.000000,0.000000,0.000000,0.000000,0.000000,0.000000,0.000000,0.000000,1769696630.973423,0.000000
116.000000,7785.112594,11562.736221,-2625.927642,-4621.066704,-336.974899,-9421.260288,-5058.691509,2099.499357,12796.865439,7804.960943,-14779.778097,8159.727831,10247.716039,-5158.603806,-12372.651681,4032.701735,0.010000,-0.012000,1.006000,192.000000,0.000000,0.000000,0.000000,0.000000,0.000000,0.000000,0.000000,0.000000,0.000000,1769696630.973446,0.000000
118.000000,7618.949726,11388.683187,-2775.930199,-4776.076052,-487.715064,-9609.819604,-5201.273286,1939.818494,12929.053656,7943.742924,-14637.196319,8305.103577,10367.879017,-4987.568258,-12216.122415,4219.808187,0.010000,-0.012000,1.006000,192.000000,0.000000,0.000000,0.000000,0.000000,0.000000,0.000000,0.000000,0.000000,0.000000,1769696630.973469,0.000000
120.000000,7581.287036,11356.831951,-2819.180825,-4822.746494,-540.733402,-9656.579454,-5251.832932,1894.198584,12661.682089,7671.141049,-14904.076148,8047.276204,10104.061378,-5276.911590,-12470.306453,3960.863228,0.010000,-0.012000,1.006000,192.000000,0.000000,0.000000,0.000000,0.000000,0.000000,0.000000,0.000000,0.000000,0.000000,1769696630.973492,0.000000
122.000000,7754.066021,11529.007438,-2627.782837,-4636.332945,-340.797048,-9426.043561,-5064.972349,2070.978531,12905.740786,7921.547642,-14656.597633,8273.587617,10349.818808,-5029.366020,-12223.230269,4148.908454,0.008000,-0.011000,1.007000,192.000000,0.000000,24.000000,127.500000,88.000000,15.500000,64.000000,0.000000,0.000000,0.000000,1769696630.973518,0.000000
124.000000,7501.178384,11272.320005,-2879.731700,-4891.656922,-562.861629,-9697.505498,-5319.402256,1812.234737,12755.984098,7766.158314,-14813.752748,8130.737618,10213.920202,-5167.320987,-12350.925785,4069.090375,0.008000,-0.011000,1.007000,192.000000,0.000000,0.000000,0.000000,0.000000,0.000000,0.000000,0.000000,0.000000,0.000000,1769696630.973541,0.000000
126.000000,7741.817265,11514.769377,-2653.688509,-4651.755649,-347.770792,-9483.800469,-5091.101538,2046.950405,12736.940412,7755.027146,-14835.121016,8104.787243,10199.123347,-5194.925391,-12379.066632,3992.714464,0.008000,-0.011000,1.007000,192.000000,0.000000,0.000000,0.000000,0.000000,0.000000,0.000000,0.000000,0.000000,0.000000,1769696630.973564,0.000000
128.000000,7598.497879,11368.097230,-2804.071045,-4798.718369,-460.602398,-9599.560153,-5232.878653,1900.859404,12913.183917,7923.089912,-14662.744363,8275.196943,10372.483477,-5018.458369,-12224.370208,4183.352492,0.008000,-0.011000,1.007000,192.000000,0.000000,0.000000,0.000000,0.000000,0.000000,0.000000,0.000000,0.000000,0.000000,1769696630.973588,0.000000
130.000000,7576.436708,11353.166265,-2832.435409,-4817.985573,-493.794739,-9656.601805,-5264.148744,1878.015921,12664.118429,7678.762994,-14919.118872,8036.793236,10127.508357,-5260.885389,-12478.755412,3946.446353,0.008000,-0.011000,1.007000,192.000000,0.000000,0.000000,0.000000,0.000000,0.000000,0.000000,0.000000,0.000000,0.000000,1769696630.973611,0.000000
132.000000,7758.849294,11528.336886,-2652.682680,-4645.251291,-328.347126,-9495.311617,-5081.490288,2057.075746,12913.563897,7929.706029,-14671.685060,8267.060908,10353.529197,-5013.228060,-12240.955203,4153.199989,0.006000,-0.011500,1.007500,192.000000,0.000000,16.000000,127.500000,80.000000,15.500000,64.000000,0.000000,0.000000,0.000000,1769696630.973634,0.000000
134.000000,7518.277468,11288.681482,-2895.713198,-4890.069948,-578.217277,-9726.249841,-5319.491663,1818.649688,12760.029764,7774.473163,-14820.547679,8131.184653,10227.688876,-5166.158696,-12394.578742,4056.349880,0.006000,-0.011500,1.007500,192.000000,0.000000,0.000000,0.000000,0.000000,0.000000,0.000000,0.000000,0.000000,0.000000,1769696630.973658,0.000000
136.000000,7752.300233,11526.794616,-2660.371680,-4661.366899,-357.024414,-9487.935542,-5095.549535,2054.102964,12755.000622,7773.467335,-14822.179356,8125.596717,10227.577117,-5178.474507,-12414.292981,3984.734891,0.006000,-0.011500,1.007500,192.000000,0.000000,0.000000,0.000000,0.000000,0.000000,0.000000,0.000000,0.000000,0.000000,1769696630.973681,0.000000
138.000000,7596.888554,11365.370317,-2802.640534,-4816.577413,-492.654800,-9635.747628,-5233.057467,1905.419160,12913.072158,7919.603040,-14660.285671,8277.476821,10355.429096,-5030.371848,-12238.854139,4167.549809,0.006000,-0.011500,1.007500,192.000000,0.000000,0.000000,0.000000,0.000000,0.000000,0.000000,0.000000,0.000000,0.000000,1769696630.973705,0.000000
140.000000,7607.125653,11377.797887,-2781.696949,-4798.986590,-489.369093,-9627.388075,-5220.093455,1923.032334,12669.102868,7675.119659,-14899.203467,8041.643565,10117.852404,-5286.321674,-12481.772897,3923.088780,0.006000,-0.011500,1.007500,192.000000,0.000000,0.000000,0.000000,0.000000,0.000000,0.000000,0.000000,0.000000,0.000000,1769696630.973729,0.000000
142.000000,7756.547064,11530.862633,-2611.488415,-4622.273698,-315.450169,-9489.880143,-5048.342651,2078.578124,12925.767949,7939.831369,-14634.782330,8290.329074,10381.088898,-4997.738301,-12200.185621,4137.620823,0.006000,-0.011750,1.006750,192.000000,0.000000,24.000000,127.500000,80.000000,15.500000,56.000000,0.000000,0.000000,0.000000,1769696630.973753,0.000000
144.000000,7524.759474,11299.589133,-2846.986395,-4840.829055,-543.773239,-9682.529829,-5275.592837,1842.454295,12759.850950,7779.032919,-14805.616713,8136.258499,10233.634440,-5147.673803,-12338.252346,4092.067968,0.006000,-0.011750,1.006750,192.000000,0.000000,0.000000,0.000000,0.000000,0.000000,0.000000,0.000000,0.000000,0.000000,1769696630.973777,0.000000
146.000000,7734.932927,11512.064816,-2638.601081,-4631.415562,-336.058478,-9510.108472,-5075.030634,2056.159324,12746.283441,7785.917257,-14812.188126,8130.849377,10225.230184,-5153.395850,-12339.548747,4049.219674,0.006000,-0.011750,1.006750,192.000000,0.000000,0.000000,0.000000,0.000000,0.000000,0.000000,0.000000,0.000000,0.000000,1769696630.973800,0.000000
148.000000,7573.888609,11346.773666,-2809.256650,-4809.201337,-499.047398,-9656.512398,-5240.925281,1896.165537,12895.526039,7926.085046,-14664.800723,8271.173629,10365.688546,-5013.317467,-12200.275028,4201.502109,0.006000,-0.011750,1.006750,192.000000,0.000000,0.000000,0.000000,0.000000,0.000000,0.000000,0.000000,0.000000,0.000000,1769696630.973823,0.000000
150.000000,7587.769042,11365.459724,-2800.740635,-4801.221764,-481.769500,-9639.949756,-5237.930147,1909.911860,12629.026190,7656.008918,-14928.081921,8024.879757,10100.194526,-5263.746412,-12473.860380,3958.181019,0.006000,-0.011750,1.006750,192.000000,0.000000,0.000000,0.000000,0.000000,0.000000,0.000000,0.000000,0.000000,0.000000,1769696630.973846,0.000000
152.000000,7761.397393,11535.556499,-2622.329011,-4624.531224,-310.957469,-9462.096925,-5051.516599,2086.557697,12901.672769,7928.744904,-14656.284709,8271.553608,10379.613683,-5003.326238,-12212.367322,4172.556600,0.007000,-0.010875,1.003375,192.000000,0.000000,32.000000,127.500000,88.000000,15.500000,32.000000,0.000000,0.000000,0.000000,1769696630.973870,0.000000
154.000000,7547.155922,11321.627953,-2848.059278,-4833.587090,-533.804361,-9693.124556,-5270.630750,1868.292912,12791.523372,7817.209699,-14767.574044,8170.300206,10277.130935,-5155.072231,-12326.696494,4113.749160,0.007000,-0.010875,1.003375,192.000000,0.000000,0.000000,0.000000,0.000000,0.000000,0.000000,0.000000,0.000000,0.000000,1769696630.973895,0.000000
156.000000,7762.939663,11542.709058,-2635.807113,-4621.334925,-320.412257,-9483.644007,-5062.312491,2084.300170,12758.018107,7775.501344,-14804.677940,8129.843549,10203.772510,-5168.371519,-12383.224056,3991.798042,0.007000,-0.010875,1.003375,192.000000,0.000000,0.000000,0.000000,0.000000,0.000000,0.000000,0.000000,0.000000,0.000000,1769696630.973918,0.000000
158.000000,7647.023517,11421.339085,-2745.084792,-4735.373525,-423.051467,-9590.865325,-5169.019719,1973.100242,12930.506519,7954.471762,-14613.838746,8312.770225,10388.286160,-5006.813110,-12199.984455,4216.008391,0.007000,-0.010875,1.003375,192.000000,0.000000,0.000000,0.000000,0.000000,0.000000,0.000000,0.000000,0.000000,0.000000,1769696630.973941,0.000000
160.000000,7647.939938,11423.686018,-2761.870952,-4774.667892,-457.741375,-9621.375456,-5190.879725,1965.858277,12722.791758,7736.966936,-14849.046153,8093.723129,10188.372158,-5215.198423,-12428.441635,3994.592010,0.007000,-0.010875,1.003375,192.000000,0.000000,0.000000,0.000000,0.000000,0.000000,0.000000,0.000000,0.000000,0.000000,1769696630.973964,0.000000
162.000000,7817.612030,11593.626332,-2586.297999,-4595.697474,-292.852556,-9425.283602,-5021.341744,2134.010450,12949.237281,7982.232628,-14597.164344,8325.913051,10412.537803,-4981.935618,-12194.910609,4156.820972,0.007500,-0.011437,1.002687,192.000000,0.000000,32.000000,127.500000,80.000000,15.500000,40.000000,0.000000,0.000000,0.000000,1769696630.973988,0.000000
164.000000,7537.231748,11314.833023,-2850.205046,-4868.701681,-575.468013,-9770.729812,-5286.634599,1858.569903,12814.478614,7814.929821,-14767.216416,8179.486773,10256.299109,-5154.401678,-12345.762532,4073.672482,0.007500,-0.011437,1.002687,192.000000,0.000000,0.000000,0.000000,0.000000,0.000000,0.000000,0.000000,0.000000,0.000000,1769696630.974011,0.000000
166.000000,7763.029070,11534.885947,-2612.471892,-4645.675975,-356.890304,-9528.615717,-5063.295968,2077.371130,12750.329107,7778.116498,-14793.390309,8121.238127,10214.121367,-5195.193612,-12372.919902,3986.344217,0.007500,-0.011437,1.002687,192.000000,0.000000,0.000000,0.000000,0.000000,0.000000,0.000000,0.000000,0.000000,0.000000,1769696630.974041,0.000000
168.000000,7577.755460,11352.942747,-2795.175051,-4793.599819,-513.643088,-9685.100279,-5226.329592,1897.707808,12905.606676,7920.474758,-14649.869758,8271.620664,10356.837256,-5059.406764,-12203.381920,4176.289341,0.007500,-0.011437,1.002687,192.000000,0.000000,0.000000,0.000000,0.000000,0.000000,0.000000,0.000000,0.000000,0.000000,1769696630.974064,0.000000
170.000000,7613.317086,11393.712329,-2771.146926,-4773.103270,-479.087291,-9636.887567,-5211.197461,1930.296651,12649.858016,7680.908761,-14907.115985,8036.346201,10110.051645,-5330.198149,-12445.160740,3954.537684,0.007500,-0.011437,1.002687,192.000000,0.000000,0.000000,0.000000,0.000000,0.000000,0.000000,0.000000,0.000000,0.000000,1769696630.974087,0.000000
172.000000,7746.667593,11522.570136,-2648.145276,-4646.882969,-359.550161,-9554.208464,-5082.563172,2058.059222,12897.135365,7930.488340,-14658.743400,8276.739213,10348.053020,-5028.628412,-12205.751205,4164.554675,0.006750,-0.012719,1.004344,192.000000,0.000000,24.000000,127.500000,72.000000,15.500000,56.000000,0.000000,0.000000,0.000000,1769696630.974110,0.000000
174.000000,7523.932460,11298.829174,-2872.512087,-4898.407149,-583.715806,-9765.477153,-5312.517919,1828.417400,12746.194034,7759.586902,-14823.565164,8114.130272,10197.491669,-5170.182010,-12369.231864,4064.329453,0.006750,-0.012719,1.004344,192.000000,0.000000,0.000000,0.000000,0.000000,0.000000,0.000000,0.000000,0.000000,0.000000,1769696630.974133,0.000000
176.000000,7757.642300,11537.456398,-2636.388259,-4631.214396,-344.261568,-9519.362094,-5079.858611,2065.569409,12756.341726,7779.278788,-14814.847984,8120.277002,10196.575248,-5228.005973,-12365.186198,4021.414104,0.006750,-0.012719,1.004344,192.000000,0.000000,0.000000,0.000000,0.000000,0.000000,0.000000,0.000000,0.000000,0.000000,1769696630.974157,0.000000
178.000000,7631.109074,11406.497527,-2770.543429,-4767.984720,-466.749128,-9651.796180,-5199.351036,1936.555140,12922.012856,7946.693354,-14641.979592,8296.945190,10386.363910,-5045.705145,-12194.485926,4219.919946,0.006750,-0.012719,1.004344,192.000000,0.000000,0.000000,0.000000,0.000000,0.000000,0.000000,0.000000,0.000000,0.000000,1769696630.974180,0.000000
180.000000,7599.481356,11376.792059,-2817.862072,-4820.556023,-522.516730,-9716.482129,-5251.654118,1899.250078,12667.493542,7678.762994,-14900.991607,8039.564853,10114.678456,-5309.701599,-12469.188865,3951.251978,0.006750,-0.012719,1.004344,192.000000,0.000000,0.000000,0.000000,0.000000,0.000000,0.000000,0.000000,0.000000,0.000000,1769696630.974204,0.000000
182.000000,7804.357446,11579.812953,-2624.251261,-4637.741105,-325.955489,-9522.670153,-5061.843105,2099.477005,12899.504650,7930.041305,-14665.426572,8265.272768,10345.571976,-5047.359174,-12255.305023,4111.268116,0.011375,-0.013359,1.004172,192.000000,0.000000,64.000000,127.500000,72.000000,15.500000,48.000000,0.000000,0.000000,0.000000,1769696630.974218,0.000000
184.000000,7576.928446,11356.496675,-2859.749241,-4864.387794,-558.793611,-9710.625972,-5293.898916,1873.009130,12809.091843,7832.878272,-14769.406887,8172.289511,10238.060086,-5163.431783,-12377.412603,4044.212883,0.011375,-0.013359,1.004172,192.000000,0.000000,0.000000,0.000000,0.000000,0.000000,0.000000,0.000000,0.000000,0.000000,1769696630.974229,0.000000
186.000000,7825.099865,11607.886744,-2603.955877,-4616.641059,-305.838919,-9493.568181,-5048.566168,2119.995906,12804.666198,7832.498292,-14763.774248,8175.999901,10236.339001,-5165.912827,-12381.860600,3992.178022,0.011375,-0.013359,1.004172,192.000000,0.000000,0.000000,0.000000,0.000000,0.000000,0.000000,0.000000,0.000000,0.000000,1769696630.974241,0.000000
188.000000,7674.024424,11453.726763,-2739.049821,-4746.839970,-447.906607,-9667.017718,-5180.664978,1969.948646,12965.464647,7993.967294,-14606.976760,8330.986897,10412.493099,-5001.403988,-12203.448975,4192.337894,0.011375,-0.013359,1.004172,192.000000,0.000000,0.000000,0.000000,0.000000,0.000000,0.000000,0.000000,0.000000,0.000000,1769696630.974252,0.000000
190.000000,7655.897159,11437.253527,-2746.582359,-4764.922531,-456.400270,-9647.258776,-5197.697007,1949.563855,12730.972496,7753.820152,-14847.123903,8103.714359,10176.749251,-5215.868976,-12420.238545,3990.523993,0.011375,-0.013359,1.004172,192.000000,0.000000,0.000000,0.000000,0.000000,0.000000,0.000000,0.000000,0.000000,0.000000,1769696630.974263,0.000000
192.000000,7798.993027,11576.706061,-2602.480662,-4613.556518,-302.195585,-9496.339798,-5051.717764,2090.066921,12947.762066,7972.241398,-14630.781368,8305.036522,10405.094672,-5002.387464,-12192.429565,4178.368053,0.011375,-0.013359,1.004172,192.000000,0.000000,0.000000,0.000000,0.000000,0.000000,0.000000,0.000000,0.000000,0.000000,1769696630.974273,0.000000
194.000000,7533.163730,11312.575497,-2871.506258,-4872.993216,-562.258132,-9741.471379,-5316.384770,1825.109342,12783.163820,7816.114463,-14802.889800,8148.350793,10270.447763,-5147.137361,-12352.445704,4097.275924,0.010000,-0.014000,1.006000,192.000000,0.000000,40.000000,127.500000,72.000000,15.500000,56.000000,0.000000,0.000000,0.000000,1769696631.452806,0.000000
196.000000,7762.291463,11543.960755,-2643.764334,-4633.114294,-352.442307,-9522.916022,-5090.810965,2053.432411,12768.501075,7781.625722,-14825.822690,8116.968944,10184.460602,-5204.670752,-12378.686652,4039.474313,0.010000,-0.014000,1.006000,192.000000,0.000000,0.000000,0.000000,0.000000,0.000000,0.000000,0.000000,0.000000,0.000000,1769696631.452858,0.000000
198.000000,7642.061429,11418.880393,-2769.224676,-4776.992473,-466.570314,-9637.915747,-5202.614391,1936.175160,12920.023551,7944.704049,-14661.291499,8277.230951,10355.406744,-5035.803322,-12225.085464,4226.916042,0.010000,-0.014000,1.006000,192.000000,0.000000,0.000000,0.000000,0.000000,0.000000,0.000000,0.000000,0.000000,0.000000,1769696631.452902,0.000000
200.000000,7610.634877,11390.806602,-2799.824214,-4787.520145,-499.628544,-9700.388873,-5230.487016,1907.855500,12693.041586,7725.522843,-14884.697185,8075.349996,10135.152654,-5230.978755,-12449.720496,4013.948621,0.010000,-0.014000,1.006000,192.000000,0.000000,0.000000,0.000000,0.000000,0.000000,0.000000,0.000000,0.000000,0.000000,1769696631.452944,0.000000
202.000000,7783.525620,11561.328061,-2621.122017,-4628.263966,-323.049763,-9525.553528,-5052.857703,2079.449842,12893.603789,7922.240546,-14680.715165,8255.795629,10348.656517,-5068.280407,-12248.890072,4152.931768,0.010000,-0.014000,1.006000,192.000000,0.000000,0.000000,0.000000,0.000000,0.000000,0.000000,0.000000,0.000000,0.000000,1769696631.452986,0.000000
204.000000,7532.269661,11309.021569,-2873.853192,-4897.960114,-574.551591,-9790.198182,-5312.830843,1824.461141,12783.812020,7789.873515,-14801.727510,8148.887235,10225.744274,-5189.337455,-12364.113315,4079.908619,0.012000,-0.012000,1.006000,192.000000,0.000000,48.000000,127.500000,80.000000,15.500000,56.000000,0.000000,0.000000,0.000000,1769696631.453027,0.000000
206.000000,7811.085321,11588.284265,-2605.431092,-4618.719771,-299.915707,-9530.090932,-5050.041384,2101.645124,12775.228950,7791.326379,-14804.007388,8137.644307,10213.272001,-5197.629952,-12386.353300,3988.042949,0.012000,-0.012000,1.006000,192.000000,0.000000,0.000000,0.000000,0.000000,0.000000,0.000000,0.000000,0.000000,0.000000,1769696631.453057,0.000000
208.000000,7678.718290,11454.732591,-2735.227672,-4751.153857,-429.354659,-9668.045898,-5172.283074,1970.730957,12983.323691,7999.778748,-14598.214876,8342.363935,10424.428931,-5001.426339,-12181.968949,4211.605097,0.012000,-0.012000,1.006000,192.000000,0.000000,0.000000,0.000000,0.000000,0.000000,0.000000,0.000000,0.000000,0.000000,1769696631.453068,0.000000
210.000000,7649.281043,11428.066960,-2769.068214,-4786.737834,-480.651913,-9708.502556,-5206.481243,1939.058535,12707.860793,7722.617116,-14871.956691,8077.696929,10151.804704,-5255.588026,-12458.169455,3950.648481,0.012000,-0.012000,1.006000,192.000000,0.000000,0.000000,0.000000,0.000000,0.000000,0.000000,0.000000,0.000000,0.000000,1769696631.453080,0.000000
212.000000,7823.043504,11601.538849,-2595.328104,-4603.073550,-300.765073,-9534.851853,-5026.862625,2112.820996,12956.076915,7976.287064,-14624.880508,8313.865461,10414.080073,-4987.367092,-12213.440205,4145.354527,0.012000,-0.012000,1.006000,192.000000,0.000000,0.000000,0.000000,0.000000,0.000000,0.000000,0.000000,0.000000,0.000000,1769696631.453090,0.000000
214.000000,7555.984861,11332.446198,-2849.601549,-4877.217695,-568.449565,-9777.234170,-5298.369264,1844.085973,12813.271619,7819.087245,-14775.732431,8169.741412,10247.872501,-5180.776737,-12355.753762,4071.303197,0.008000,-0.014000,1.004000,192.000000,0.000000,32.000000,127.500000,72.000000,15.500000,48.000000,0.000000,0.000000,0.000000,1769696631.453101,0.000000
216.000000,7798.791861,11580.237637,-2621.636107,-4637.115256,-314.176120,-9494.484603,-5075.432965,2083.495508,12796.351349,7789.627646,-14808.053053,8137.867825,10211.819138,-5195.730054,-12381.726489,4000.090539,0.008000,-0.014000,1.004000,192.000000,0.000000,0.000000,0.000000,0.000000,0.000000,0.000000,0.000000,0.000000,0.000000,1769696631.453114,0.000000
218.000000,7688.955389,11468.165990,-2733.864216,-4727.282194,-427.588871,-9618.469729,-5172.953626,1975.760099,12959.943767,8002.125681,-14601.880563,8338.675897,10411.397864,-4966.848191,-12178.996167,4247.189074,0.008000,-0.014000,1.004000,192.000000,0.000000,0.000000,0.000000,0.000000,0.000000,0.000000,0.000000,0.000000,0.000000,1769696631.453136,0.000000
220.000000,7636.540548,11416.801681,-2794.526851,-4782.155726,-494.219422,-9717.689123,-5226.039019,1921.959450,12710.341836,7732.138959,-14873.051926,8083.575437,10169.239064,-5245.887368,-12458.571787,4005.834938,0.008000,-0.014000,1.004000,192.000000,0.000000,0.000000,0.000000,0.000000,0.000000,0.000000,0.000000,0.000000,0.000000,1769696631.453147,0.000000
222.000000,7813.812234,11592.955779,-2599.552584,-4593.797576,-295.423006,-9519.272687,-5034.775142,2100.974572,12940.698915,7967.659291,-14640.906708,8300.879097,10374.226913,-4978.269932,-12223.833766,4201.144481,0.008000,-0.014000,1.004000,192.000000,0.000000,0.000000,0.000000,0.000000,0.000000,0.000000,0.000000,0.000000,0.000000,1769696631.453160,0.000000
224.000000,7543.669050,11320.420959,-2868.131145,-4877.038881,-563.755699,-9766.348871,-5306.684113,1831.300775,12810.120024,7818.573155,-14778.034661,8163.080593,10245.302051,-5151.875931,-12352.825684,4116.274907,0.010000,-0.010000,1.008000,192.000000,0.000000,40.000000,127.500000,88.000000,15.500000,64.000000,0.000000,0.000000,0.000000,1769696631.453172,0.000000
226.000000,7793.785071,11574.359128,-2622.664287,-4638.478713,-315.383114,-9545.379525,-5075.120041,2079.561601,12754.866511,7776.395413,-14828.571955,8116.231336,10195.211791,-5189.337455,-12408.727397,3990.300475,0.010000,-0.010000,1.008000,192.000000,0.000000,0.000000,0.000000,0.000000,0.000000,0.000000,0.000000,0.000000,0.000000,1769696631.453184,0.000000
228.000000,7670.984587,11447.580033,-2749.130458,-4759.848685,-446.520799,-9714.448120,-5193.718397,1960.985596,12980.552075,7982.590256,-14614.241077,8324.884871,10407.575715,-5015.418531,-12200.677359,4217.349496,0.010000,-0.010000,1.008000,192.000000,0.000000,0.000000,0.000000,0.000000,0.000000,0.000000,0.000000,0.000000,0.000000,1769696631.453194,0.000000
230.000000,7655.561883,11434.414856,-2768.308254,-4778.713558,-475.734529,-9747.998088,-5209.275211,1951.486105,12726.144520,7743.225425,-14853.292984,8101.613295,10179.409108,-5253.174037,-12447.708839,3980.041025,0.010000,-0.010000,1.008000,192.000000,0.000000,0.000000,0.000000,0.000000,0.000000,0.000000,0.000000,0.000000,0.000000,1769696631.453205,0.000000
232.000000,7832.967679,11608.981980,-2581.000636,-4607.655657,-299.848652,-9567.217179,-5016.692581,2132.602290,12944.722229,7955.477590,-14624.075845,8306.779958,10377.579674,-5046.420401,-12225.174871,4132.994012,0.010000,-0.010000,1.008000,192.000000,0.000000,0.000000,0.000000,0.000000,0.000000,0.000000,0.000000,0.000000,0.000000,1769696631.453216,0.000000
234.000000,7545.859521,11321.337381,-2875.820145,-4884.817288,-582.531164,-9844.289403,-5298.950410,1840.085011,12803.816832,7827.491501,-14759.281547,8191.087328,10259.741278,-5147.606748,-12347.796541,4074.834773,0.008000,-0.008000,1.008000,192.000000,0.000000,32.000000,127.500000,96.000000,15.500000,64.000000,0.000000,0.000000,0.000000,1769696631.453227,0.000000
236.000000,7785.626684,11564.792581,-2637.192921,-4659.489353,-345.490914,-9586.730252,-5078.137526,2074.130127,12765.282424,7776.417765,-14815.295019,8133.665697,10198.452794,-5202.010894,-12406.760443,3980.376301,0.008000,-0.008000,1.008000,192.000000,0.000000,0.000000,0.000000,0.000000,0.000000,0.000000,0.000000,0.000000,0.000000,1769696631.453238,0.000000
238.000000,7670.716366,11449.435228,-2746.895283,-4742.391973,-444.419735,-9679.288826,-5188.465737,1957.901056,12948.231452,7973.448393,-14636.905746,8320.101597,10380.418346,-4997.805357,-12218.670513,4208.073522,0.008000,-0.008000,1.008000,192.000000,0.000000,0.000000,0.000000,0.000000,0.000000,0.000000,0.000000,0.000000,0.000000,1769696631.453248,0.000000
240.000000,7650.197464,11433.185510,-2766.721280,-4765.235456,-469.833668,-9702.467585,-5216.472473,1938.477390,12706.519688,7728.808550,-14873.007223,8089.789222,10140.137093,-5236.499636,-12459.957595,3999.375284,0.008000,-0.008000,1.008000,192.000000,0.000000,0.000000,0.000000,0.000000,0.000000,0.000000,0.000000,0.000000,0.000000,1769696631.453260,0.000000
242.000000,7846.222263,11623.667076,-2579.145441,-4572.250494,-276.625189,-9484.381614,-5018.525424,2131.507055,12974.628863,8000.292838,-14606.574429,8342.006307,10432.676725,-4971.787926,-12197.302246,4225.284365,0.008000,-0.008000,1.008000,192.000000,0.000000,0.000000,0.000000,0.000000,0.000000,0.000000,0.000000,0.000000,0.000000,1769696631.453270,0.000000
244.000000,7556.387193,11332.535605,-2858.542247,-4859.693928,-553.697414,-9765.566560,-5292.557811,1846.790534,12820.893564,7836.789827,-14762.924881,8192.719006,10234.573213,-5160.704870,-12355.910224,4136.704402,0.006000,-0.014000,1.002000,192.000000,0.000000,24.000000,127.500000,72.000000,15.500000,40.000000,0.000000,0.000000,0.000000,1769696631.453281,0.000000
246.000000,7747.338146,11529.856805,-2663.299759,-4666.261931,-354.655129,-9605.326904,-5102.925611,2036.802713,12761.035593,7779.569361,-14821.061769,8131.676392,10211.059178,-5192.913734,-12399.496126,4035.138075,0.006000,-0.014000,1.002000,192.000000,0.000000,0.000000,0.000000,0.000000,0.000000,0.000000,0.000000,0.000000,0.000000,1769696631.453292,0.000000
248.000000,7658.199389,11440.092199,-2751.142115,-4761.368604,-438.094191,-9701.908791,-5188.644551,1949.295634,12913.988580,7938.982003,-14667.281767,8283.601199,10364.079221,-5028.941337,-12237.580089,4194.707178,0.006000,-0.014000,1.002000,192.000000,0.000000,0.000000,0.000000,0.000000,0.000000,0.000000,0.000000,0.000000,0.000000,1769696631.453303,0.000000
250.000000,7630.483226,11414.767672,-2789.855336,-4813.738741,-482.864735,-9697.572553,-5237.192540,1918.561985,12722.121206,7738.866835,-14861.429019,8098.059368,10160.991271,-5218.819406,-12445.764237,3992.267429,0.006000,-0.014000,1.002000,192.000000,0.000000,0.000000,0.000000,0.000000,0.000000,0.000000,0.000000,0.000000,0.000000,1769696631.453315,0.000000
252.000000,7831.179539,11614.860489,-2588.689636,-4595.764529,-282.816623,-9538.294022,-5034.953956,2122.923985,12934.082798,7955.745811,-14643.745380,8303.069568,10359.161837,-5037.412648,-12245.179682,4146.181541,0.006000,-0.014000,1.002000,192.000000,0.000000,0.000000,0.000000,0.000000,0.000000,0.000000,0.000000,0.000000,0.000000,1769696631.453326,0.000000
254.000000,7596.575629,11376.657948,-2826.556900,-4833.855311,-531.166855,-9789.147650,-5268.239113,1887.493061,12830.303649,7852.994842,-14750.430256,8215.897765,10277.846191,-5129.971222,-12346.544844,4117.705419,0.010000,-0.008000,1.004000,192.000000,0.000000,40.000000,127.500000,96.000000,15.500000,48.000000,0.000000,0.000000,0.000000,1769696631.453337,0.000000
0.000000,7807.732559,11589.804183,-2628.989831,-4643.597262,-320.322850,-9571.329900,-5065.866419,2096.012485,12812.511660,7803.821004,-14791.736280,8165.271063,10226.683048,-5160.414298,-12383.067594,4017.524900,0.010000,-0.008000,1.004000,192.000000,0.000000,0.000000,0.000000,0.000000,0.000000,0.000000,0.000000,0.000000,0.000000,1769696631.453348,0.000000
2.000000,7664.167305,11444.093161,-2762.943836,-4760.295720,-462.345834,-9715.297486,-5195.528888,1952.581340,12952.768857,7990.167497,-14615.783348,8339.368801,10406.346370,-4984.394310,-12214.691903,4204.229022,0.010000,-0.008000,1.004000,192.000000,0.000000,0.000000,0.000000,0.000000,0.000000,0.000000,0.000000,0.000000,0.000000,1769696631.453359,0.000000
4.000000,7636.205272,11417.583992,-2780.847583,-4788.615380,-486.351608,-9732.441274,-5223.513272,1924.105218,12715.080406,7734.798817,-14867.687508,8094.147813,10145.859140,-5228.385953,-12463.645633,3963.880713,0.010000,-0.008000,1.004000,192.000000,0.000000,0.000000,0.000000,0.000000,0.000000,0.000000,0.000000,0.000000,0.000000,1769696631.453370,0.000000
6.000000,7806.592620,11589.670073,-2605.118168,-4606.247497,-304.698980,-9502.620638,-5043.402915,2099.231136,12938.843720,7966.586407,-14640.124397,8307.361103,10383.324073,-5032.852892,-12230.606345,4170.589646,0.010000,-0.008000,1.004000,192.000000,0.000000,0.000000,0.000000,0.000000,0.000000,0.000000,0.000000,0.000000,0.000000,1769696631.453381,0.000000
8.000000,7570.602902,11353.792114,-2843.119543,-4839.063268,-541.493361,-9774.775478,-5278.856191,1863.219066,12801.425195,7802.524603,-14802.442766,8166.746279,10227.375952,-5173.713586,-12386.442707,4093.431424,0.011000,-0.012000,1.004000,192.000000,0.000000,48.000000,127.500000,64.000000,15.500000,48.000000,0.000000,0.000000,0.000000,1769696631.453392,0.000000
10.000000,7786.811326,11574.806163,-2632.320241,-4627.258137,-335.633795,-9577.677796,-5068.548628,2080.343912,12783.588503,7823.490539,-14784.114335,8177.475116,10237.836568,-5138.442533,-12371.154114,4064.597674,0.011000,-0.012000,1.004000,192.000000,0.000000,0.000000,0.000000,0.000000,0.000000,0.000000,0.000000,0.000000,0.000000,1769696631.453403,0.000000
12.000000,7693.984532,11476.883170,-2729.662088,-4723.281231,-433.623842,-9663.195570,-5153.842885,1988.545297,12958.960290,7996.381282,-14618.487909,8343.861502,10384.978102,-4980.438051,-12208.187545,4236.415534,0.011000,-0.012000,1.004000,192.000000,0.000000,0.000000,0.000000,0.000000,0.000000,0.000000,0.000000,0.000000,0.000000,1769696631.453414,0.000000
14.000000,7636.652307,11419.528594,-2788.693045,-4791.185831,-488.787948,-9721.734789,-5218.752351,1931.525997,12732.268898,7751.897902,-14847.012144,8119.762912,10183.253608,-5220.585194,-12446.121865,4005.901993,0.011000,-0.012000,1.004000,192.000000,0.000000,0.000000,0.000000,0.000000,0.000000,0.000000,0.000000,0.000000,0.000000,1769696631.453425,0.000000
16.000000,7820.204833,11604.779852,-2593.651723,-4601.777148,-299.871004,-9548.061734,-5030.394200,2116.553738,12946.063333,7969.514486,-14629.619077,8315.094807,10372.081145,-4996.978342,-12240.597575,4148.997861,0.011000,-0.012000,1.004000,192.000000,0.000000,0.000000,0.000000,0.000000,0.000000,0.000000,0.000000,0.000000,0.000000,1769696631.453435,0.000000
18.000000,7594.720435,11378.379032,-2819.091418,-4825.071076,-525.534216,-9762.370260,-5254.939825,1889.728235,12817.920782,7847.317499,-14761.404963,8202.218497,10257.729621,-5134.463922,-12357.877178,4086.234163,0.013500,-0.013000,1.009000,192.000000,0.000000,64.000000,127.500000,72.000000,15.500000,88.000000,0.000000,0.000000,0.000000,1769696631.453446,0.000000
20.000000,7815.823891,11604.489279,-2595.462214,-4596.837413,-305.302478,-9514.355304,-5037.971442,2114.363267,12816.780843,7851.631385,-14763.751896,8199.871564,10257.662565,-5135.626213,-12357.363088,4042.268281,0.013500,-0.013000,1.009000,192.000000,0.000000,0.000000,0.000000,0.000000,0.000000,0.000000,0.000000,0.000000,0.000000,1769696631.453456,0.000000
22.000000,7657.372374,11444.540196,-2749.957472,-4752.360851,-449.270064,-9686.329625,-5182.319007,1961.879666,12969.532665,7998.057663,-14612.542345,8349.740010,10403.105367,-4956.544036,-12204.879487,4211.783911,0.013500,-0.013000,1.009000,192.000000,0.000000,0.000000,0.000000,0.000000,0.000000,0.000000,0.000000,0.000000,0.000000,1769696631.453467,0.000000
24.000000,7657.372374,11442.573242,-2765.447231,-4760.787459,-455.573255,-9724.931088,-5191.259705,1959.711547,12718.164947,7745.594710,-14862.859531,8111.112787,10151.201207,-5229.056505,-12453.654403,3979.951618,0.013500,-0.013000,1.009000,192.000000,0.000000,0.000000,0.000000,0.000000,0.000000,0.000000,0.000000,0.000000,0.000000,1769696631.453478,0.000000
26.000000,7833.079437,11617.274477,-2573.378691,-4578.911314,-270.433756,-9511.136652,-5004.197956,2140.760677,12981.692014,7990.793346,-14609.390749,8340.017002,10418.326905,-4980.996845,-12207.271124,4178.837440,0.013500,-0.013000,1.009000,192.000000,0.000000,0.000000,0.000000,0.000000,0.000000,0.000000,0.000000,0.000000,0.000000,1769696631.453490,0.000000
28.000000,7565.126725,11347.734791,-2822.779456,-4835.777561,-530.384544,-9764.873655,-5260.147781,1879.334674,12832.516471,7853.240711,-14742.987125,8219.138768,10266.670318,-5119.018867,-12331.479768,4129.864768,0.013750,-0.010500,1.012500,192.000000,0.000000,56.000000,127.500000,96.000000,15.500000,96.000000,0.000000,0.000000,0.000000,1769696631.453501,0.000000
30.000000,7813.968696,11595.123898,-2568.774232,-4590.645980,-287.018751,-9520.345571,-5017.251374,2126.768485,12793.557381,7808.760739,-14783.399079,8167.997976,10251.269967,-5141.482370,-12367.667242,4045.352822,0.013750,-0.010500,1.012500,192.000000,0.000000,0.000000,0.000000,0.000000,0.000000,0.000000,0.000000,0.000000,0.000000,1769696631.453512,0.000000
32.000000,7673.756203,11450.731629,-2712.138320,-4724.287060,-411.160339,-9621.531918,-5147.025603,1988.925277,13006.480099,8019.381227,-14570.722231,8376.048014,10444.165521,-4935.823969,-12154.096324,4285.455261,0.013750,-0.010500,1.012500,192.000000,0.000000,0.000000,0.000000,0.000000,0.000000,0.000000,0.000000,0.000000,0.000000,1769696631.453523,0.000000
34.000000,7609.539641,11391.231285,-2781.495784,-4778.221819,-457.339043,-9726.048675,-5214.930202,1927.145055,12712.822880,7728.585032,-14868.514522,8097.210002,10158.353765,-5225.994316,-12446.725362,4024.833921,0.013750,-0.010500,1.012500,192.000000,0.000000,0.000000,0.000000,0.000000,0.000000,0.000000,0.000000,0.000000,0.000000,1769696631.453534,0.000000
36.000000,7843.495350,11620.023742,-2553.507990,-4549.831694,-241.309433,-9486.192106,-4982.963798,2160.296102,12956.747467,7968.866285,-14623.494699,8325.376609,10395.796346,-4967.608150,-12209.238077,4207.693542,0.013750,-0.010500,1.012500,192.000000,0.000000,0.000000,0.000000,0.000000,0.000000,0.000000,0.000000,0.000000,0.000000,1769696631.453545,0.000000
38.000000,7559.874065,11336.044828,-2833.508293,-4828.222672,-520.862701,-9753.966004,-5256.213874,1879.737005,12855.181140,7867.478772,-14728.167919,8239.434152,10308.803357,-5096.510660,-12314.671256,4166.208704,0.012875,-0.011250,1.010250,192.000000,0.000000,48.000000,127.500000,80.000000,15.500000,64.000000,0.000000,0.000000,0.000000,1769696631.453555,0.000000
40.000000,7796.489632,11575.297901,-2593.115281,-4590.422462,-285.632942,-9520.680847,-5023.912194,2117.671325,12791.411613,7810.168899,-14786.908303,8174.077651,10226.101902,-5132.452265,-12378.127858,4049.242026,0.012875,-0.011250,1.010250,192.000000,0.000000,0.000000,0.000000,0.000000,0.000000,0.000000,0.000000,0.000000,0.000000,1769696631.453566,0.000000
42.000000,7662.982662,11437.678210,-2722.755399,-4728.064505,-417.843511,-9667.621215,-5150.825399,1982.353864,12994.164287,8007.288934,-14587.597798,8367.286130,10444.679611,-4942.082458,-12179.420850,4257.314415,0.012875,-0.011250,1.010250,192.000000,0.000000,0.000000,0.000000,0.000000,0.000000,0.000000,0.000000,0.000000,0.000000,1769696631.453577,0.000000
44.000000,7616.915717,11389.912533,-2765.089603,-4783.362720,-466.726776,-9706.401492,-5205.386007,1933.202378,12739.600270,7739.023297,-14851.549548,8109.972848,10197.134041,-5225.346115,-12446.904176,3995.240211,0.012875,-0.011250,1.010250,192.000000,0.000000,0.000000,0.000000,0.000000,0.000000,0.000000,0.000000,0.000000,0.000000,1769696631.453594,0.000000
46.000000,7801.183498,11573.867389,-2579.324255,-4590.266000,-285.454128,-9548.709935,-5014.949145,2116.330220,12937.882595,7941.463046,-14648.975688,8295.246457,10384.128736,-5019.955935,-12237.021296,4150.495428,0.012875,-0.011250,1.010250,192.000000,0.000000,0.000000,0.000000,0.000000,0.000000,0.000000,0.000000,0.000000,0.000000,1769696631.453605,0.000000
48.000000,7569.082984,11342.593890,-2812.967040,-4824.378171,-514.693620,-9773.926112,-5242.109924,1891.046988,12854.935271,7853.821856,-14735.432236,8224.190262,10287.412737,-5098.455262,-12322.673180,4131.295279,0.011437,-0.011625,1.008125,192.000000,0.000000,40.000000,127.500000,80.000000,15.500000,56.000000,0.000000,0.000000,0.000000,1769696631.453616,0.000000
50.000000,7781.670425,11558.221168,-2603.620601,-4618.429198,-310.219861,-9563.819714,-5040.541892,2106.227232,12806.342579,7808.179594,-14776.604149,8178.615055,10249.325365,-5123.891547,-12372.964605,4042.961185,0.011437,-0.011625,1.008125,192.000000,0.000000,0.000000,0.000000,0.000000,0.000000,0.000000,0.000000,0.000000,0.000000,1769696631.453627,0.000000
52.000000,7656.098325,11430.436245,-2724.945870,-4737.586348,-420.145741,-9646.096485,-5165.152867,1980.498669,12981.736717,7981.584428,-14602.349949,8349.538845,10424.473634,-4947.357469,-12198.486888,4232.794551,0.011437,-0.011625,1.008125,192.000000,0.000000,0.000000,0.000000,0.000000,0.000000,0.000000,0.000000,0.000000,0.000000,1769696631.453638,0.000000
54.000000,7622.771874,11398.741472,-2761.938007,-4768.230589,-443.056279,-9695.180916,-5207.151795,1945.920521,12733.520595,7727.355686,-14858.053906,8104.653133,10192.328416,-5225.435522,-12451.240415,4006.058455,0.011437,-0.011625,1.008125,192.000000,0.000000,0.000000,0.000000,0.000000,0.000000,0.000000,0.000000,0.000000,0.000000,1769696631.453649,0.000000
56.000000,7795.215582,11571.520456,-2591.952991,-4585.303913,-269.249114,-9528.213385,-5030.751828,2117.425456,12958.669717,7970.229741,-14624.455824,8324.527243,10397.539782,-4985.444842,-12212.657894,4204.631353,0.011437,-0.011625,1.008125,192.000000,0.000000,0.000000,0.000000,0.000000,0.000000,0.000000,0.000000,0.000000,0.000000,1769696631.453660,0.000000
58.000000,7560.388155,11334.010820,-2828.926185,-4819.125512,-488.787948,-9728.820292,-5259.521933,1879.155860,12835.735123,7845.551711,-14754.274756,8212.612058,10287.591551,-5105.049027,-12327.210585,4159.234960,0.011719,-0.012813,1.007062,192.000000,0.000000,48.000000,127.500000,72.000000,15.500000,56.000000,0.000000,0.000000,0.000000,1769696631.933587,0.000000
60.000000,7790.231143,11564.278491,-2597.250354,-4595.116329,-283.822451,-9525.978211,-5034.931604,2108.820034,12802.743948,7818.304934,-14780.515704,8182.750128,10258.556635,-5128.674821,-12348.623556,4095.331323,0.011719,-0.012813,1.007062,192.000000,0.000000,0.000000,0.000000,0.000000,0.000000,0.000000,0.000000,0.000000,0.000000,1769696631.933662,0.000000
62.000000,7655.695993,11424.378923,-2733.372478,-4733.227758,-422.515025,-9680.696986,-5165.734013,1974.329588,12983.033119,7982.389090,-14608.451975,8345.604938,10442.533844,-4951.358432,-12190.954350,4261.673005,0.011719,-0.012813,1.007062,192.000000,0.000000,0.000000,0.000000,0.000000,0.000000,0.000000,0.000000,0.000000,0.000000,1769696631.933701,0.000000
64.000000,7642.664926,11410.520841,-2746.962338,-4759.803982,-446.900779,-9690.397643,-5190.745615,1957.185800,12747.803360,7745.862931,-14842.430036,8122.936859,10177.732727,-5215.019609,-12428.553394,4026.420894,0.011719,-0.012813,1.007062,192.000000,0.000000,0.000000,0.000000,0.000000,0.000000,0.000000,0.000000,0.000000,0.000000,1769696631.933744,0.000000
66.000000,7823.602298,11593.402814,-2572.864601,-4588.477861,-272.646579,-9533.086065,-5011.931659,2138.592558,12973.935959,7971.324977,-14612.944676,8335.569004,10403.507698,-4943.937653,-12216.457691,4171.237847,0.011719,-0.012813,1.007062,192.000000,0.000000,0.000000,0.000000,0.000000,0.000000,0.000000,0.000000,0.000000,0.000000,1769696631.933783,0.000000
68.000000,7542.149132,11313.603677,-2861.112697,-4867.338224,-555.664367,-9813.309886,-5290.277933,1858.748717,12823.620477,7823.445836,-14767.998727,8200.743282,10273.599359,-5160.414298,-12372.204646,4072.621950,0.011719,-0.012813,1.007062,192.000000,0.000000,0.000000,0.000000,0.000000,0.000000,0.000000,0.000000,0.000000,0.000000,1769696631.933844,0.000000
70.000000,7786.297236,11560.322232,-2612.784816,-4626.520530,-310.510434,-9577.722499,-5053.170628,2103.410912,12794.853782,7803.955114,-14785.746012,8176.558694,10237.903623,-5166.158696,-12396.702158,4009.947659,0.014000,-0.012000,1.008000,192.000000,0.000000,56.000000,127.500000,80.000000,15.500000,64.000000,0.000000,0.000000,0.000000,1769696631.933870,0.000000
72.000000,7664.033194,11437.924080,-2724.610594,-4745.007127,-433.266215,-9698.354864,-5163.588245,1980.588076,12982.831953,7975.683567,-14610.329522,8344.219130,10402.390111,-4982.941447,-12211.026217,4205.413664,0.014000,-0.012000,1.008000,192.000000,0.000000,0.000000,0.000000,0.000000,0.000000,0.000000,0.000000,0.000000,0.000000,1769696631.933886,0.000000
74.000000,7620.693162,11394.494640,-2766.609522,-4789.867078,-479.780195,-9731.815425,-5209.409321,1936.845712,12748.160988,7743.091314,-14848.263842,8120.791092,10169.306120,-5207.263554,-12438.969307,4001.476348,0.014000,-0.012000,1.008000,192.000000,0.000000,0.000000,0.000000,0.000000,0.000000,0.000000,0.000000,0.000000,0.000000,1769696631.933905,0.000000
76.000000,7799.931800,11572.302767,-2587.080310,-4607.052160,-293.344294,-9527.498129,-5026.281479,2118.140712,12920.448234,7937.216215,-14655.904729,8296.140527,10373.064622,-5014.569165,-12247.012525,4139.587777,0.014000,-0.012000,1.008000,192.000000,0.000000,0.000000,0.000000,0.000000,0.000000,0.000000,0.000000,0.000000,0.000000,1769696631.933921,0.000000
78.000000,7554.152018,11325.137177,-2833.798866,-4844.338279,-524.953070,-9763.107868,-5266.339215,1874.238476,12842.083018,7834.755818,-14750.139684,8210.801567,10295.347607,-5132.027582,-12343.147378,4115.716114,0.014000,-0.012000,1.008000,192.000000,0.000000,0.000000,0.000000,0.000000,0.000000,0.000000,0.000000,0.000000,0.000000,1769696631.933935,0.000000
80.000000,7754.915387,11526.615802,-2634.510712,-4640.289204,-331.208149,-9572.983929,-5074.114212,2076.521763,12764.231892,7770.472201,-14818.111338,8143.925148,10206.857050,-5183.838926,-12400.345492,4027.583185,0.018000,-0.002000,1.006000,192.000000,0.000000,72.000000,127.500000,120.000000,15.500000,56.000000,0.000000,0.000000,0.000000,1769696631.933946,0.000000
82.000000,7673.487982,11442.886167,-2717.972126,-4729.539720,-407.651115,-9621.353104,-5152.233559,1995.407283,12985.223590,7978.097555,-14598.818374,8348.376554,10412.940134,-4940.316670,-12190.395557,4246.987909,0.018000,-0.002000,1.006000,192.000000,0.000000,0.000000,0.000000,0.000000,0.000000,0.000000,0.000000,0.000000,0.000000,1769696631.933958,0.000000
84.000000,7625.118807,11394.293474,-2773.091528,-4789.062415,-462.547000,-9652.377326,-5213.142063,1940.980785,12740.449636,7734.687058,-14844.575804,8117.058351,10175.519905,-5222.149816,-12438.924603,4017.435493,0.018000,-0.002000,1.006000,192.000000,0.000000,0.000000,0.000000,0.000000,0.000000,0.000000,0.000000,0.000000,0.000000,1769696631.933969,0.000000
86.000000,7825.815120,11595.168602,-2570.383557,-4574.508020,-258.542628,-9530.694429,-5004.756749,2141.632395,12954.512293,7947.654479,-14632.122473,8311.071493,10385.469840,-5014.613869,-12234.137921,4164.845248,0.018000,-0.002000,1.006000,192.000000,0.000000,0.000000,0.000000,0.000000,0.000000,0.000000,0.000000,0.000000,0.000000,1769696631.933980,0.000000
88.000000,7561.237521,11329.115788,-2834.871749,-4846.841675,-523.924890,-9798.513031,-5265.512200,1878.239438,12867.295786,7854.782981,-14725.016323,8236.394314,10307.059921,-5096.957695,-12324.327210,4140.459495,0.018000,-0.002000,1.006000,192.000000,0.000000,0.000000,0.000000,0.000000,0.000000,0.000000,0.000000,0.000000,0.000000,1769696631.933991,0.000000
90.000000,7745.393544,11516.333999,-2645.708936,-4669.145306,-353.023452,-9613.217069,-5086.362968,2068.005749,12762.331994,7755.027146,-14824.727455,8130.692915,10208.309914,-5181.693158,-12426.318219,3982.343254,0.012000,-0.002000,1.010000,192.000000,0.000000,48.000000,127.500000,120.000000,15.500000,72.000000,0.000000,0.000000,0.000000,1769696631.934009,0.000000
92.000000,7653.371412,11419.863870,-2736.255853,-4751.377374,-429.399363,-9668.537637,-5167.142173,1978.285847,12974.181828,7961.378451,-14617.504432,8333.311478,10404.491175,-5005.181432,-12219.050493,4186.191164,0.012000,-0.002000,1.010000,192.000000,0.000000,0.000000,0.000000,0.000000,0.000000,0.000000,0.000000,0.000000,0.000000,1769696631.934020,0.000000
94.000000,7621.386066,11388.057338,-2762.697966,-4783.295665,-478.282628,-9751.037926,-5201.362693,1945.138209,12732.380656,7725.925174,-14852.309507,8110.643400,10184.482954,-5235.069124,-12442.880862,3976.867077,0.012000,-0.002000,1.010000,192.000000,0.000000,0.000000,0.000000,0.000000,0.000000,0.000000,0.000000,0.000000,0.000000,1769696631.934031,0.000000
96.000000,7813.231088,11582.361052,-2562.962778,-4584.990988,-278.770957,-9544.351345,-5001.068711,2135.887997,12946.175092,7947.140389,-14631.831900,8313.753702,10382.094727,-5006.589592,-12223.654952,4143.611091,0.012000,-0.002000,1.010000,192.000000,0.000000,0.000000,0.000000,0.000000,0.000000,0.000000,0.000000,0.000000,0.000000,1769696631.934042,0.000000
98.000000,7516.064646,11281.998310,-2857.312901,-4881.464527,-557.988949,-9797.998941,-5296.067035,1836.039345,12836.249213,7824.026981,-14750.340849,8203.403140,10270.559522,-5142.644661,-12329.937497,4119.985297,0.012000,-0.002000,1.010000,192.000000,0.000000,0.000000,0.000000,0.000000,0.000000,0.000000,0.000000,0.000000,0.000000,1769696631.934053,0.000000
100.000000,7733.256547,11502.162993,-2644.636052,-4673.101565,-342.786353,-9576.828429,-5099.841070,2046.771592,12747.982174,7732.273070,-14847.325068,8101.121557,10174.514076,-5206.570650,-12432.263783,3981.762109,0.012000,-0.006000,1.006000,192.000000,0.000000,48.000000,127.500000,104.000000,15.500000,56.000000,0.000000,0.000000,0.000000,1769696631.934063,0.000000
102.000000,7662.513275,11430.570356,-2719.335582,-4749.455124,-392.876612,-9650.432724,-5169.332644,1974.217829,12981.401441,7964.708860,-14615.045740,8326.874176,10417.768111,-4971.385595,-12198.464536,4228.793589,0.012000,-0.006000,1.006000,192.000000,0.000000,0.000000,0.000000,0.000000,0.000000,0.000000,0.000000,0.000000,0.000000,1769696631.934074,0.000000
104.000000,7626.616374,11395.925152,-2762.899132,-4782.334540,-442.072802,-9662.100334,-5215.041961,1937.560968,12733.721761,7719.800796,-14859.663231,8096.561801,10183.566533,-5235.091476,-12447.597080,4010.908784,0.012000,-0.006000,1.006000,192.000000,0.000000,0.000000,0.000000,0.000000,0.000000,0.000000,0.000000,0.000000,0.000000,1769696631.934085,0.000000
106.000000,7817.544975,11591.458212,-2576.887915,-4586.846183,-262.945922,-9507.605077,-5025.119188,2131.998793,12964.324709,7958.226855,-14623.651162,8319.073417,10420.740893,-4979.052243,-12228.281764,4173.584780,0.012000,-0.006000,1.006000,192.000000,0.000000,0.000000,0.000000,0.000000,0.000000,0.000000,0.000000,0.000000,0.000000,1769696631.934096,0.000000
108.000000,7533.633117,11308.507479,-2857.379956,-4858.799858,-542.968576,-9776.943597,-5297.028160,1850.322109,12844.139379,7841.684859,-14747.010439,8213.282611,10274.716946,-5109.452320,-12353.742105,4110.530509,0.012000,-0.006000,1.006000,192.000000,0.000000,0.000000,0.000000,0.000000,0.000000,0.000000,0.000000,0.000000,0.000000,1769696631.934112,0.000000
110.000000,7764.683099,11541.211491,-2626.419380,-4628.398076,-311.113931,-9558.611758,-5069.129773,2078.175792,12782.850895,7772.573265,-14821.888783,8138.918357,10214.926030,-5163.364728,-12419.903269,3996.044874,0.006000,-0.010000,1.004000,192.000000,0.000000,24.000000,127.500000,88.000000,15.500000,48.000000,0.000000,0.000000,0.000000,1769696631.934128,0.000000
112.000000,7640.385048,11410.878469,-2751.477391,-4760.094554,-436.753087,-9691.224657,-5184.643589,1953.296596,12976.752278,7982.187925,-14605.546249,8344.129723,10399.059701,-4964.948292,-12202.219630,4216.477778,0.006000,-0.010000,1.004000,192.000000,0.000000,0.000000,0.000000,0.000000,0.000000,0.000000,0.000000,0.000000,0.000000,1769696631.934142,0.000000
114.000000,7596.352112,11375.473306,-2786.994313,-4804.395712,-489.190279,-9732.530681,-5225.346115,1916.796198,12701.445842,7700.578296,-14884.205447,8079.730937,10139.667706,-5256.973834,-12471.289929,3967.077013,0.006000,-0.010000,1.004000,192.000000,0.000000,0.000000,0.000000,0.000000,0.000000,0.000000,0.000000,0.000000,0.000000,1769696631.934153,0.000000
116.000000,7767.745288,11546.106523,-2611.667229,-4627.816931,-320.412257,-9563.842066,-5040.743058,2093.464386,12899.549353,7906.639028,-14676.825962,8274.615797,10353.238625,-5030.394200,-12262.301119,4112.341000,0.006000,-0.010000,1.004000,192.000000,0.000000,0.000000,0.000000,0.000000,0.000000,0.000000,0.000000,0.000000,0.000000,1769696631.934168,0.000000
118.000000,7539.243405,11313.693084,-2830.244938,-4847.333413,-537.604158,-9782.889161,-5256.795020,1867.242380,12831.957678,7828.296164,-14758.543939,8204.498375,10260.188313,-5086.698244,-12342.141550,4098.080587,0.006000,-0.010000,1.004000,192.000000,0.000000,0.000000,0.000000,0.000000,0.000000,0.000000,0.000000,0.000000,0.000000,1769696631.934183,0.000000
120.000000,7741.794913,11517.697456,-2628.989831,-4657.835324,-330.470542,-9578.504810,-5069.286235,2068.117507,12771.004471,7769.421669,-14814.579763,8147.926110,10210.992123,-5171.992501,-12395.316350,3996.268391,0.008000,-0.008000,1.006000,192.000000,0.000000,32.000000,127.500000,96.000000,15.500000,56.000000,0.000000,0.000000,0.000000,1769696631.934194,0.000000
122.000000,7631.265537,11401.736605,-2738.066344,-4758.664043,-440.239959,-9696.410262,-5183.861278,1957.901056,12956.300432,7954.024727,-14624.791101,8326.963583,10406.525184,-5003.236831,-12213.775481,4211.605097,0.008000,-0.008000,1.006000,192.000000,0.000000,0.000000,0.000000,0.000000,0.000000,0.000000,0.000000,0.000000,0.000000,1769696631.934208,0.000000
124.000000,7615.753426,11386.760937,-2765.849562,-4782.736872,-464.290436,-9668.761154,-5222.865072,1937.583320,12742.528348,7732.317773,-14847.481531,8113.482072,10173.664710,-5243.227511,-12455.911929,3993.876755,0.008000,-0.008000,1.006000,192.000000,0.000000,0.000000,0.000000,0.000000,0.000000,0.000000,0.000000,0.000000,0.000000,1769696631.934219,0.000000
126.000000,7792.332207,11566.088982,-2591.282438,-4607.186271,-281.944905,-9532.728438,-5048.253244,2115.905537,12934.663944,7928.431979,-14652.350802,8294.821774,10385.559247,-5011.842252,-12270.101877,4123.941555,0.008000,-0.008000,1.006000,192.000000,0.000000,0.000000,0.000000,0.000000,0.000000,0.000000,0.000000,0.000000,0.000000,1769696631.934231,0.000000
128.000000,7626.683429,11397.914457,-2760.149868,-4786.469613,-447.660738,-9721.064236,-5210.012819,1947.798067,12895.324873,7876.307711,-14712.544049,8251.012355,10329.076389,-5065.262921,-12321.063855,4121.304050,0.008000,-0.008000,1.006000,192.000000,0.000000,0.000000,0.000000,0.000000,0.000000,0.000000,0.000000,0.000000,0.000000,1769696631.934242,0.000000
130.000000,7780.619893,11551.560348,-2602.190089,-4627.749876,-303.559041,-9569.720575,-5050.421363,2107.233060,12835.712771,7833.638231,-14740.707247,8215.137805,10276.862714,-5114.503815,-12361.453457,4022.062304,0.004000,-0.016000,1.002000,192.000000,0.000000,16.000000,127.500000,64.000000,15.500000,40.000000,0.000000,0.000000,0.000000,1769696631.934254,0.000000
132.000000,7678.695938,11449.010545,-2695.776844,-4716.866281,-393.122481,-9650.365669,-5129.680649,2009.354771,13008.491756,7995.286047,-14574.074992,8377.411470,10442.913823,-4957.639272,-12180.337272,4206.508900,0.004000,-0.016000,1.002000,192.000000,0.000000,0.000000,0.000000,0.000000,0.000000,0.000000,0.000000,0.000000,0.000000,1769696631.934266,0.000000
134.000000,7580.929408,11354.261500,-2789.073025,-4806.630886,-491.805433,-9749.026269,-5221.747484,1912.415256,12733.744113,7721.857157,-14852.331859,8114.309086,10170.468410,-5226.284889,-12441.360943,3982.611475,0.004000,-0.016000,1.002000,192.000000,0.000000,0.000000,0.000000,0.000000,0.000000,0.000000,0.000000,0.000000,0.000000,1769696631.934278,0.000000
136.000000,7772.126230,11545.368915,-2585.381578,-4603.900564,-297.680533,-9546.564167,-5020.045342,2110.228194,12918.011894,7911.288191,-14663.169046,8288.183306,10357.261939,-5018.681886,-12245.738476,4123.427465,0.004000,-0.016000,1.002000,192.000000,0.000000,0.000000,0.000000,0.000000,0.000000,0.000000,0.000000,0.000000,0.000000,1769696631.934289,0.000000
138.000000,7514.589431,11289.463793,-2838.380973,-4853.681308,-534.072582,-9795.428490,-5265.489848,1859.642787,12825.743893,7811.800577,-14758.275718,8207.672323,10270.850095,-5129.568890,-12334.810178,4100.785148,0.004000,-0.016000,1.002000,192.000000,0.000000,0.000000,0.000000,0.000000,0.000000,0.000000,0.000000,0.000000,0.000000,1769696631.934301,0.000000
140.000000,7709.206070,11487.366138,-2638.645785,-4650.705117,-352.777583,-9602.018845,-5067.945131,2060.182638,12753.905386,7764.057251,-14818.737187,8151.055354,10224.179652,-5179.346225,-12393.572914,4005.901993,0.003000,-0.016000,1.006000,192.000000,0.000000,8.000000,127.500000,64.000000,15.500000,72.000000,0.000000,0.000000,0.000000,1769696631.934313,0.000000
142.000000,7650.711554,11428.178719,-2700.023675,-4707.925583,-402.331400,-9645.627099,-5124.226823,2000.369370,12950.511330,7954.516465,-14624.746397,8336.105446,10412.627210,-4991.636275,-12202.599609,4216.991868,0.003000,-0.016000,1.006000,192.000000,0.000000,0.000000,0.000000,0.000000,0.000000,0.000000,0.000000,0.000000,0.000000,1769696631.934324,0.000000
144.000000,7550.598091,11328.735808,-2797.097301,-4805.155671,-497.885108,-9732.664792,-5230.442313,1900.904107,12717.762615,7720.203128,-14863.708897,8114.063217,10164.232274,-5204.849566,-12439.081066,4031.628851,0.003000,-0.016000,1.006000,192.000000,0.000000,0.000000,0.000000,0.000000,0.000000,0.000000,0.000000,0.000000,0.000000,1769696631.934336,0.000000
146.000000,7770.494553,11546.330040,-2575.345644,-4602.112425,-276.960466,-9496.071577,-5018.570127,2110.697581,12920.716455,7923.671058,-14659.369249,8293.212449,10366.828485,-4991.680979,-12241.044610,4180.849097,0.003000,-0.016000,1.006000,192.000000,0.000000,0.000000,0.000000,0.000000,0.000000,0.000000,0.000000,0.000000,0.000000,1769696631.934347,0.000000
148.000000,7505.760492,11276.432726,-2835.475246,-4865.550085,-521.890881,-9745.070010,-5280.912552,1848.601025,12817.250230,7809.408940,-14768.401059,8184.784136,10269.978377,-5095.795404,-12346.298974,4129.730657,0.003000,-0.016000,1.006000,192.000000,0.000000,0.000000,0.000000,0.000000,0.000000,0.000000,0.000000,0.000000,0.000000,1769696631.934358,0.000000
150.000000,7745.550006,11514.389397,-2605.900479,-4627.660469,-282.213125,-9516.232850,-5056.255168,2086.624752,12770.982119,7756.211788,-14817.641952,8128.904775,10242.977469,-5206.324781,-12407.207478,4017.211976,0.005500,-0.015000,1.004000,192.000000,0.000000,32.000000,127.500000,72.000000,15.500000,40.000000,0.000000,0.000000,0.000000,1769696631.934370,0.000000
152.000000,7683.076880,11455.827827,-2673.425099,-4688.904248,-354.141039,-9613.060607,-5114.481463,2029.091362,13033.413951,8020.990553,-14553.332574,8389.503764,10491.774737,-4900.530565,-12148.016649,4271.731290,0.005500,-0.015000,1.004000,192.000000,0.000000,0.000000,0.000000,0.000000,0.000000,0.000000,0.000000,0.000000,0.000000,1769696631.934381,0.000000
154.000000,7584.528039,11361.458762,-2776.131365,-4781.753395,-451.572293,-9708.681370,-5208.157624,1934.968166,12748.540968,7741.839617,-14835.880975,8124.881461,10222.816196,-5166.851600,-12435.348324,4004.337371,0.005500,-0.015000,1.004000,192.000000,0.000000,0.000000,0.000000,0.000000,0.000000,0.000000,0.000000,0.000000,0.000000,1769696631.934394,0.000000
156.000000,7778.585884,11556.254215,-2568.148383,-4586.287390,-268.511506,-9524.614754,-4993.782043,2138.123171,12939.536624,7945.307546,-14631.854252,8313.306667,10404.334713,-4987.054168,-12234.272031,4142.202931,0.005500,-0.015000,1.004000,192.000000,0.000000,0.000000,0.000000,0.000000,0.000000,0.000000,0.000000,0.000000,0.000000,1769696631.934405,0.000000
158.000000,7532.604937,11307.613409,-2815.336325,-4834.727029,-514.291288,-9755.240054,-5225.010839,1892.924534,12832.918803,7818.103769,-14740.282564,8221.128073,10293.492412,-5098.097634,-12332.440893,4088.312875,0.005500,-0.015000,1.004000,192.000000,0.000000,0.000000,0.000000,0.000000,0.000000,0.000000,0.000000,0.000000,0.000000,1769696631.934417,0.000000
160.000000,7696.264410,11473.977443,-2637.192921,-4646.100658,-354.811591,-9618.447377,-5061.150201,2058.305092,12778.335843,7787.884210,-14791.333949,8168.690880,10238.194196,-5138.733106,-12377.122030,4019.268336,0.007750,-0.015500,1.005000,192.000000,0.000000,40.000000,127.500000,64.000000,15.500000,56.000000,0.000000,0.000000,0.000000,1769696631.934429,0.000000
162.000000,7587.433766,11360.587044,-2737.664013,-4740.335612,-438.317709,-9709.866012,-5155.340452,1949.094468,12933.121673,7925.995639,-14638.805644,8312.881984,10388.576733,-5032.048229,-12203.985417,4198.663437,0.007750,-0.015500,1.005000,192.000000,0.000000,0.000000,0.000000,0.000000,0.000000,0.000000,0.000000,0.000000,0.000000,1769696631.934440,0.000000
164.000000,7522.479596,11297.108090,-2807.222641,-4820.153692,-513.687791,-9757.251711,-5235.806732,1879.714653,12683.229170,7667.296549,-14900.678682,8067.191609,10122.948602,-5266.450973,-12454.593176,3985.874830,0.007750,-0.015500,1.005000,192.000000,0.000000,0.000000,0.000000,0.000000,0.000000,0.000000,0.000000,0.000000,0.000000,1769696631.934453,0.000000
166.000000,7764.481934,11539.535110,-2569.131859,-4577.704320,-268.064471,-9498.463213,-4996.643066,2118.654802,12901.561010,7887.863563,-14686.012529,8266.010376,10351.897520,-5044.408744,-12244.665592,4147.321480,0.007750,-0.015500,1.005000,192.000000,0.000000,0.000000,0.000000,0.000000,0.000000,0.000000,0.000000,0.000000,0.000000,1769696631.934469,0.000000
168.000000,7515.863480,11289.508496,-2822.690049,-4829.139093,-503.383637,-9748.243958,-5245.328575,1869.634017,12829.029599,7828.810254,-14742.785960,8219.854023,10311.127938,-5097.427082,-12302.869535,4164.107640,0.007750,-0.015500,1.005000,192.000000,0.000000,0.000000,0.000000,0.000000,0.000000,0.000000,0.000000,0.000000,0.000000,1769696631.934482,0.000000
170.000000,7724.271145,11500.821889,-2627.224043,-4625.291184,-299.379265,-9555.728383,-5061.820753,2068.564542,12758.331032,7760.838599,-14818.424263,8143.411057,10202.029073,-5189.382158,-12384.878085,4061.468430,0.006875,-0.015750,1.005500,192.000000,0.000000,24.000000,127.500000,64.000000,15.500000,56.000000,0.000000,0.000000,0.000000,1769696631.934492,0.000000
172.000000,7667.073031,11440.673344,-2676.487288,-4685.462080,-358.432574,-9589.792441,-5117.498948,2008.728922,13015.644314,8014.150919,-14574.812600,8380.719528,10462.315138,-4897.311914,-12147.189635,4309.528090,0.006875,-0.015750,1.005500,192.000000,0.000000,0.000000,0.000000,0.000000,0.000000,0.000000,0.000000,0.000000,0.000000,1769696631.934504,0.000000
174.000000,7566.221960,11340.582233,-2791.598772,-4792.862212,-476.986227,-9704.054559,-5225.435522,1909.442474,12738.840310,7731.043724,-14854.924662,8114.577307,10203.012550,-5173.467716,-12434.901289,4056.126363,0.006875,-0.015750,1.005500,192.000000,0.000000,0.000000,0.000000,0.000000,0.000000,0.000000,0.000000,0.000000,0.000000,1769696631.934514,0.000000
176.000000,7809.811271,11586.362015,-2555.653758,-4565.477915,-246.673852,-9472.021100,-4987.769423,2153.590578,12942.218833,7929.035476,-14651.479083,8295.313513,10383.189962,-4993.983208,-12258.926005,4178.032777,0.006875,-0.015750,1.005500,192.000000,0.000000,0.000000,0.000000,0.000000,0.000000,0.000000,0.000000,0.000000,0.000000,1769696631.934525,0.000000
178.000000,7571.675786,11346.796018,-2790.905868,-4804.708636,-499.539137,-9737.828045,-5213.969077,1916.975011,12884.528981,7878.989920,-14695.154392,8261.651786,10339.872282,-5065.464087,-12313.285448,4168.443879,0.006875,-0.015750,1.005500,192.000000,0.000000,0.000000,0.000000,0.000000,0.000000,0.000000,0.000000,0.000000,0.000000,1769696632.413450,0.000000
180.000000,7742.890149,11519.306781,-2614.707066,-4622.005477,-338.986556,-9584.696243,-5034.126941,2090.581011,12811.036445,7796.489632,-14770.882102,8184.739433,10260.568292,-5157.955606,-12378.351376,4049.622005,0.008438,-0.014875,1.001750,192.000000,0.000000,40.000000,127.500000,72.000000,15.500000,24.000000,0.000000,0.000000,0.000000,1769696632.413514,0.000000
182.000000,7619.888499,11396.886277,-2732.657222,-4740.469723,-456.221456,-9711.005951,-5140.163617,1967.646416,12960.100229,7952.102477,-14620.231345,8333.959679,10418.751588,-4961.416717,-12209.953333,4214.153196,0.008438,-0.014875,1.001750,192.000000,0.000000,0.000000,0.000000,0.000000,0.000000,0.000000,0.000000,0.000000,0.000000,1769696632.413559,0.000000
184.000000,7588.640760,11366.957291,-2766.877743,-4771.359834,-481.389520,-9732.217757,-5172.305426,1933.783523,12726.435092,7725.344029,-14853.248281,8110.643400,10156.431515,-5201.899135,-12431.101493,4019.178929,0.008438,-0.014875,1.001750,192.000000,0.000000,0.000000,0.000000,0.000000,0.000000,0.000000,0.000000,0.000000,0.000000,1769696632.413602,0.000000
186.000000,7775.367233,11555.114276,-2572.149345,-4573.837468,-279.150937,-9515.249373,-4978.068766,2125.270918,12917.386045,7917.323162,-14656.038839,8287.982141,10364.392145,-5029.500130,-12229.131130,4158.027966,0.008438,-0.014875,1.001750,192.000000,0.000000,0.000000,0.000000,0.000000,0.000000,0.000000,0.000000,0.000000,0.000000,1769696632.413672,0.000000
188.000000,7504.039407,11282.110069,-2840.504389,-4851.133210,-548.645919,-9794.467365,-5249.687165,1852.110249,12819.284239,7810.168899,-14757.247538,8200.743282,10254.823894,-5116.761341,-12317.018189,4135.855035,0.008438,-0.014875,1.001750,192.000000,0.000000,0.000000,0.000000,0.000000,0.000000,0.000000,0.000000,0.000000,0.000000,1769696632.413715,0.000000
190.000000,7684.686206,11466.936644,-2660.595198,-4677.214286,-363.260551,-9620.391979,-5083.524297,2028.063181,12736.046342,7722.639468,-14842.608850,8107.961191,10188.483916,-5209.319914,-12402.737129,4012.518109,0.005219,-0.019437,1.000875,192.000000,0.000000,8.000000,127.500000,32.000000,15.500000,32.000000,0.000000,0.000000,0.000000,1769696632.413746,0.000000
192.000000,7649.169284,11429.341010,-2703.152919,-4713.066484,-384.829984,-9636.976974,-5118.705942,1993.149757,12940.654211,7942.379468,-14632.904784,8317.821719,10386.945055,-4993.223249,-12190.216743,4228.838292,0.005219,-0.019437,1.000875,192.000000,0.000000,0.000000,0.000000,0.000000,0.000000,0.000000,0.000000,0.000000,0.000000,1769696632.413758,0.000000
194.000000,7584.706853,11363.872750,-2788.000141,-4826.948622,-473.029968,-9718.627896,-5214.885499,1915.611555,12744.115322,7729.859081,-14843.413513,8118.310048,10205.068911,-5201.094473,-12422.451368,4048.526770,0.005219,-0.019437,1.000875,192.000000,0.000000,0.000000,0.000000,0.000000,0.000000,0.000000,0.000000,0.000000,0.000000,1769696632.413769,0.000000
196.000000,7817.053237,11592.888724,-2558.917112,-4552.938587,-261.448355,-9471.797582,-4989.825784,2146.370965,12940.095418,7931.538872,-14648.036915,8293.190097,10410.324980,-4980.460403,-12250.633508,4173.987111,0.005219,-0.019437,1.000875,192.000000,0.000000,0.000000,0.000000,0.000000,0.000000,0.000000,0.000000,0.000000,0.000000,1769696632.413780,0.000000
198.000000,7585.779737,11361.212893,-2799.801862,-4792.079901,-489.100872,-9713.710512,-5221.255746,1915.455093,12888.239370,7875.525400,-14694.975578,8257.784934,10320.381560,-5041.033630,-12312.011398,4201.524460,0.005219,-0.019437,1.000875,192.000000,0.000000,0.000000,0.000000,0.000000,0.000000,0.000000,0.000000,0.000000,0.000000,1769696632.413790,0.000000
200.000000,7771.053347,11549.526340,-2608.582688,-4603.408826,-318.735876,-9519.809129,-5039.200787,2101.466310,12803.481555,7804.491556,-14779.867504,8179.643235,10234.215585,-5130.552367,-12395.584571,4084.155450,0.005609,-0.019719,0.999437,192.000000,0.000000,24.000000,127.500000,48.000000,15.500000,24.000000,0.000000,0.000000,0.000000,1769696632.413801,0.000000
202.000000,7684.529744,11460.097010,-2688.914858,-4692.636990,-394.977676,-9601.080072,-5109.362913,2015.568556,13011.777462,7997.767091,-14574.030289,8374.259874,10443.360858,-4952.543074,-12187.154554,4298.195755,0.005609,-0.019719,0.999437,192.000000,0.000000,0.000000,0.000000,0.000000,0.000000,0.000000,0.000000,0.000000,0.000000,1769696632.413812,0.000000
204.000000,7603.147042,11381.396518,-2771.661016,-4781.798098,-477.097985,-9707.295562,-5196.311199,1928.106180,12754.710049,7741.124361,-14829.488376,8131.005839,10186.494611,-5200.915659,-12431.548528,4069.000968,0.005609,-0.019719,0.999437,192.000000,0.000000,0.000000,0.000000,0.000000,0.000000,0.000000,0.000000,0.000000,0.000000,1769696632.413823,0.000000
206.000000,7795.796728,11573.308596,-2575.815031,-4590.981256,-283.151899,-9512.902440,-5001.672209,2121.091142,12915.106167,7908.963610,-14665.314813,8280.091975,10354.490322,-5028.136674,-12258.970709,4168.443879,0.005609,-0.019719,0.999437,192.000000,0.000000,0.000000,0.000000,0.000000,0.000000,0.000000,0.000000,0.000000,0.000000,1769696632.413834,0.000000
208.000000,7557.616539,11335.351924,-2809.748388,-4827.842692,-509.932698,-9751.641423,-5228.385953,1886.353122,12860.679669,7846.311670,-14720.076587,8232.482759,10302.477813,-5072.326073,-12297.594523,4175.775251,0.005609,-0.019719,0.999437,192.000000,0.000000,0.000000,0.000000,0.000000,0.000000,0.000000,0.000000,0.000000,0.000000,1769696632.413848,0.000000
210.000000,7711.441244,11492.328226,-2660.014052,-4676.297864,-368.133231,-9616.435720,-5083.457241,2036.780362,12745.657592,7737.324564,-14833.936373,8123.652115,10210.299219,-5200.669789,-12402.155984,4023.693982,0.005609,-0.019719,0.999437,192.000000,0.000000,0.000000,0.000000,0.000000,0.000000,0.000000,0.000000,0.000000,0.000000,1769696632.413859,0.000000
212.000000,7677.488944,11454.866702,-2700.515413,-4715.949859,-389.456795,-9651.527959,-5115.375533,1999.430597,12969.353851,7957.735116,-14612.542345,8335.367839,10407.575715,-4991.345703,-12180.739603,4236.951975,0.010000,-0.016000,1.008000,192.000000,0.000000,40.000000,127.500000,64.000000,15.500000,64.000000,0.000000,0.000000,0.000000,1769696632.413871,0.000000
214.000000,7591.591190,11367.985471,-2794.124519,-4809.938945,-490.576087,-9738.878577,-5212.940897,1909.420122,12725.004581,7713.654067,-14860.602005,8105.167223,10173.798820,-5207.867051,-12432.286135,4021.905842,0.010000,-0.016000,1.008000,192.000000,0.000000,0.000000,0.000000,0.000000,0.000000,0.000000,0.000000,0.000000,0.000000,1769696632.413882,0.000000
216.000000,7820.674219,11597.157907,-2564.505048,-4582.442890,-263.839992,-9504.453481,-4987.545906,2138.883130,12926.460853,7917.814901,-14654.943604,8290.038501,10360.145314,-4998.967647,-12235.099046,4158.027966,0.010000,-0.016000,1.008000,192.000000,0.000000,0.000000,0.000000,0.000000,0.000000,0.000000,0.000000,0.000000,0.000000,1769696632.413893,0.000000
218.000000,7570.625254,11340.984564,-2813.883461,-4831.061343,-519.789817,-9749.294490,-5236.611394,1890.309380,12883.947835,7861.242635,-14706.710244,8246.698469,10314.123072,-5093.604933,-12291.850125,4169.047376,0.010000,-0.016000,1.008000,192.000000,0.000000,0.000000,0.000000,0.000000,0.000000,0.000000,0.000000,0.000000,0.000000,1769696632.413905,0.000000
220.000000,7750.646204,11522.994819,-2641.395049,-4665.926655,-355.817420,-9588.294874,-5073.063680,2067.044624,12765.327128,7741.705506,-14817.105510,8130.000011,10201.179707,-5220.764008,-12418.003371,4011.936964,0.010000,-0.016000,1.008000,192.000000,0.000000,0.000000,0.000000,0.000000,0.000000,0.000000,0.000000,0.000000,0.000000,1769696632.413916,0.000000
222.000000,7712.849404,11486.136792,-2680.510602,-4701.935315,-394.374179,-9636.708753,-5107.507719,2025.895062,13011.866869,7993.207335,-14567.637690,8371.711775,10437.549405,-4945.055240,-12178.906760,4252.486438,0.016000,-0.014000,1.006000,192.000000,0.000000,64.000000,127.500000,72.000000,15.500000,56.000000,0.000000,0.000000,0.000000,1769696632.413927,0.000000
224.000000,7606.969190,11385.084556,-2791.889345,-4811.212994,-504.054189,-9747.998088,-5220.629897,1919.768980,12755.514712,7740.632622,-14828.124920,8131.631688,10195.748233,-5207.464720,-12444.244319,4019.782426,0.016000,-0.014000,1.006000,192.000000,0.000000,0.000000,0.000000,0.000000,0.000000,0.000000,0.000000,0.000000,0.000000,1769696632.413938,0.000000
226.000000,7852.033717,11630.663172,-2545.841342,-4568.718918,-252.552361,-9492.964684,-4975.028929,2166.129907,12928.226641,7918.083122,-14649.601537,8295.492327,10347.516578,-5037.524407,-12268.380793,4125.550881,0.016000,-0.014000,1.006000,192.000000,0.000000,0.000000,0.000000,0.000000,0.000000,0.000000,0.000000,0.000000,0.000000,1769696632.413949,0.000000
228.000000,7596.821498,11374.311015,-2797.007894,-4824.758151,-515.386524,-9755.150647,-5225.591984,1910.470654,12911.775757,7892.356264,-14668.756982,8283.668254,10346.063715,-5028.673116,-12283.825849,4166.521629,0.016000,-0.014000,1.006000,192.000000,0.000000,0.000000,0.000000,0.000000,0.000000,0.000000,0.000000,0.000000,0.000000,1769696632.413961,0.000000
230.000000,7748.321622,11524.961773,-2644.501942,-4675.537905,-371.687159,-9568.044194,-5082.294951,2062.842496,12790.159916,7771.075698,-14789.009367,8161.672433,10206.521774,-5165.912827,-12401.977170,4001.856327,0.016000,-0.014000,1.006000,192.000000,0.000000,0.000000,0.000000,0.000000,0.000000,0.000000,0.000000,0.000000,0.000000,1769696632.413973,0.000000
232.000000,7682.182811,11456.096048,-2713.278259,-4727.662173,-424.750200,-9711.408283,-5137.861387,1999.542355,12962.961252,7943.206482,-14611.961199,8327.410618,10371.701166,-5017.899575,-12225.867775,4181.184373,0.014000,-0.008000,1.008000,192.000000,0.000000,56.000000,127.500000,96.000000,15.500000,64.000000,0.000000,0.000000,0.000000,1769696632.413984,0.000000
234.000000,7637.881653,11414.231231,-2768.420013,-4780.434642,-489.078520,-9746.791094,-5185.984693,1953.609521,12751.625508,7733.703582,-14823.788681,8136.861996,10159.694869,-5220.316973,-12431.615583,4014.909746,0.014000,-0.008000,1.008000,192.000000,0.000000,0.000000,0.000000,0.000000,0.000000,0.000000,0.000000,0.000000,0.000000,1769696632.413995,0.000000
