Sample Index, EXG Channel 0, EXG Channel 1, EXG Channel 2, EXG Channel 3, EXG Channel 4, EXG Channel 5, EXG Channel 6, EXG Channel 7, EXG Channel 8, EXG Channel 9, EXG Channel 10, EXG Channel 11, EXG Channel 12, EXG Channel 13, EXG Channel 14, EXG Channel 15, Accel Channel 0, Accel Channel 1, Accel Channel 2, Not Used, Digital Channel 0 (D11), Digital Channel 1 (D12), Digital Channel 2 (D13), Digital Channel 3 (D17), Not Used, Digital Channel 4 (D18), Analog Channel 0, Analog Channel 1, Analog Channel 2, Timestamp, Marker Channel, Timestamp (Formatted)
100.000000,22413.234104,34281.675134,21540.376132,11635.222928,33813.875474,32056.447215,17727.213231,16694.450878,35068.635353,33472.251412,15938.939564,2274.625274,20053.292221,30440.505498,18679.844580,23684.042535,0.022000,-0.015000,1.004000,192.000000,0.000000,0.000000,0.000000,0.000000,0.000000,0.000000,0.000000,0.000000,0.000000,1763132962.481359,0.000000
102.000000,22416.340997,34305.189169,21547.551042,11639.134483,33893.760609,32089.192520,17738.791435,16701.692844,35209.093715,33518.273654,15963.168855,2284.594153,20125.868335,30478.145835,18794.464325,23863.392933,0.022000,-0.015000,1.004000,192.000000,0.000000,0.000000,0.000000,0.000000,0.000000,0.000000,0.000000,0.000000,0.000000,1763132962.481465,0.000000
104.000000,22406.997968,34254.830689,21528.149727,11632.898347,33750.552982,32016.124668,17706.001426,16642.527776,35121.318414,33491.451560,15954.943413,2295.054769,20071.195969,30457.917506,18711.472298,23712.764527,0.022000,-0.015000,1.004000,192.000000,0.000000,0.000000,0.000000,0.000000,0.000000,0.000000,0.000000,0.000000,0.000000,1763132962.481548,0.000000
106.000000,22450.539166,34330.245475,21561.766751,11644.320088,33905.718792,32108.750297,17755.219967,16739.333181,35153.773147,33507.567168,15964.979346,2289.466833,20100.364995,30474.144873,18746.117502,23793.387269,0.022000,-0.015000,1.004000,192.000000,0.000000,0.000000,0.000000,0.000000,0.000000,0.000000,0.000000,0.000000,0.000000,1763132962.481631,0.000000
108.000000,22431.003741,34283.373866,21536.151652,11634.664134,33814.188399,32042.119746,17718.116071,16661.839683,35206.120933,33516.932549,15965.918120,2294.138347,20107.986940,30480.045733,18772.403153,23806.306577,0.020000,-0.013500,1.002000,192.000000,0.000000,72.000000,127.500000,80.000000,15.500000,32.000000,0.000000,0.000000,0.000000,1763132962.481715,0.000000
110.000000,22435.451738,34294.192111,21545.651143,11636.832254,33822.369137,32057.117767,17733.337609,16707.213725,35088.528405,33482.354400,15956.463332,2295.501804,20068.089076,30452.821309,18682.347975,23676.018259,0.020000,-0.013500,1.002000,192.000000,0.000000,0.000000,0.000000,0.000000,0.000000,0.000000,0.000000,0.000000,0.000000,1763132962.481789,0.000000
112.000000,22423.225334,34310.531236,21545.360571,11634.038285,33891.100751,32071.109959,17739.461987,16702.631617,35220.895436,33517.424287,15964.532312,2280.883763,20125.220135,30477.363524,18799.940503,23858.699066,0.020000,-0.013500,1.002000,192.000000,0.000000,0.000000,0.000000,0.000000,0.000000,0.000000,0.000000,0.000000,0.000000,1763132962.481872,0.000000
114.000000,22400.426555,34240.682035,21517.286780,11625.231698,33746.261447,31996.969223,17703.274513,16632.044808,35122.391298,33479.247508,15942.851119,2282.783661,20081.187198,30447.367483,18711.047615,23709.992911,0.020000,-0.013500,1.002000,192.000000,0.000000,0.000000,0.000000,0.000000,0.000000,0.000000,0.000000,0.000000,0.000000,1763132962.481925,0.000000
116.000000,22434.512965,34313.973405,21550.993210,11637.480454,33896.107542,32097.552073,17750.548452,16727.352646,35143.580752,33492.390334,15951.009506,2276.815745,20102.108431,30456.486995,18746.944517,23788.983976,0.020000,-0.013500,1.002000,192.000000,0.000000,0.000000,0.000000,0.000000,0.000000,0.000000,0.000000,0.000000,0.000000,1763132962.481946,0.000000
118.000000,22401.857066,34269.739302,21526.585105,11628.986791,33806.588806,32034.095470,17713.198687,16650.507349,35189.155959,33502.292156,15954.719896,2279.140327,20090.709041,30465.360637,18774.146590,23799.154019,0.020000,-0.013750,1.003000,192.000000,0.000000,80.000000,127.500000,72.000000,15.500000,48.000000,0.000000,0.000000,0.000000,1763132962.481966,0.000000
120.000000,22403.734613,34282.993887,21535.056416,11633.993582,33810.679175,32048.646456,17726.386216,16691.008710,35072.412798,33471.446749,15942.046457,2275.854620,20055.035657,30447.635704,18677.542350,23682.142637,0.020000,-0.013750,1.003000,192.000000,0.000000,0.000000,0.000000,0.000000,0.000000,0.000000,0.000000,0.000000,0.000000,1763132962.481987,0.000000
122.000000,22411.915351,34285.854910,21543.550079,11634.239451,33886.183368,32075.312087,17735.572783,16693.266236,35205.897415,33508.684755,15951.367134,2270.601960,20108.702196,30467.729922,18797.526514,23868.064447,0.020000,-0.013750,1.003000,192.000000,0.000000,0.000000,0.000000,0.000000,0.000000,0.000000,0.000000,0.000000,0.000000,1763132962.482007,0.000000
124.000000,22393.609273,34245.375901,21524.305227,11631.981925,33749.100119,32014.470639,17703.296864,16631.553070,35115.462257,33480.298040,15939.252489,2277.463946,20081.947158,30454.408283,18714.266266,23712.988044,0.020000,-0.013750,1.003000,192.000000,0.000000,0.000000,0.000000,0.000000,0.000000,0.000000,0.000000,0.000000,0.000000,1763132962.482027,0.000000
126.000000,22433.931820,34320.120134,21559.084542,11645.750600,33904.802371,32101.150704,17752.627164,16728.760806,35136.696415,33500.682831,15950.964803,2275.854620,20094.441783,30464.511271,18743.502348,23791.017984,0.020000,-0.013750,1.003000,192.000000,0.000000,0.000000,0.000000,0.000000,0.000000,0.000000,0.000000,0.000000,0.000000,1763132962.482048,0.000000
128.000000,22415.938665,34264.643105,21535.726969,11635.647611,33804.487742,32030.563895,17718.071368,16652.608413,35194.207453,33509.779991,15956.910367,2279.855583,20102.801335,30469.138082,18770.726773,23807.245351,0.019000,-0.014875,1.005500,192.000000,0.000000,72.000000,127.500000,64.000000,15.500000,64.000000,0.000000,0.000000,0.000000,1763132962.482068,0.000000
130.000000,22431.271962,34288.648878,21549.383885,11644.029515,33818.524637,32056.558973,17735.773949,16704.084480,35078.447769,33481.236813,15951.858872,2285.935257,20072.291204,30448.663884,18679.285786,23672.620794,0.019000,-0.014875,1.005500,192.000000,0.000000,0.000000,0.000000,0.000000,0.000000,0.000000,0.000000,0.000000,0.000000,1763132962.482089,0.000000
132.000000,22421.548953,34296.427285,21553.496606,11641.056733,33889.558481,32081.771741,17743.328839,16705.738509,35221.431878,33524.219218,15969.404992,2284.795318,20124.996617,30480.470417,18794.374918,23858.743770,0.019000,-0.014875,1.005500,192.000000,0.000000,0.000000,0.000000,0.000000,0.000000,0.000000,0.000000,0.000000,0.000000,1763132962.482109,0.000000
134.000000,22409.054328,34245.487660,21527.792099,11632.518367,33752.721101,32008.413316,17705.487335,16640.337305,35124.715880,33490.691601,15955.837483,2289.556240,20087.110411,30455.034131,18713.573362,23709.747041,0.019000,-0.014875,1.005500,192.000000,0.000000,0.000000,0.000000,0.000000,0.000000,0.000000,0.000000,0.000000,0.000000,1763132962.482130,0.000000
136.000000,22434.803538,34319.673099,21557.005829,11640.319126,33906.165827,32108.795000,17750.503749,16728.269068,35152.543801,33503.163875,15956.329221,2276.413414,20096.319329,30468.646344,18749.447912,23794.057822,0.019000,-0.014875,1.005500,192.000000,0.000000,0.000000,0.000000,0.000000,0.000000,0.000000,0.000000,0.000000,0.000000,1763132962.482151,0.000000
138.000000,22405.232180,34269.649895,21534.385864,11631.087855,33818.994024,32048.668808,17714.897420,16650.239128,35196.710848,33513.870360,15960.397239,2286.203478,20100.342643,30471.462664,18774.660680,23813.012101,0.019500,-0.015437,1.006750,192.000000,0.000000,80.000000,127.500000,64.000000,15.500000,64.000000,0.000000,0.000000,0.000000,1763132962.482174,0.000000
140.000000,22424.499384,34284.647916,21548.579222,11635.893480,33825.185457,32066.349037,17730.722455,16694.920265,35083.745132,33486.109494,15953.959936,2287.075196,20077.208588,30450.563783,18687.041841,23678.007564,0.019500,-0.015437,1.006750,192.000000,0.000000,0.000000,0.000000,0.000000,0.000000,0.000000,0.000000,0.000000,0.000000,1763132962.482194,0.000000
142.000000,22434.848241,34310.330070,21552.222556,11637.435751,33900.443780,32094.109904,17739.797263,16700.754070,35218.861427,33528.533104,15966.454562,2278.827402,20131.232754,30485.834835,18796.051299,23863.974078,0.019500,-0.015437,1.006750,192.000000,0.000000,0.000000,0.000000,0.000000,0.000000,0.000000,0.000000,0.000000,0.000000,1763132962.482214,0.000000
144.000000,22411.222447,34250.561506,21524.104062,11636.005239,33752.318770,32022.338453,17703.810955,16633.520023,35125.565246,33495.832502,15950.406009,2285.801147,20104.902399,30462.141986,18713.238086,23716.854896,0.019500,-0.015437,1.006750,192.000000,0.000000,0.000000,0.000000,0.000000,0.000000,0.000000,0.000000,0.000000,0.000000,1763132962.482235,0.000000
146.000000,22444.258326,34322.824695,21555.172986,11646.421152,33909.093906,32114.092364,17749.967307,16726.279763,35145.659464,33508.997680,15955.882186,2279.609714,20085.232864,30474.368390,18741.602450,23800.361013,0.019500,-0.015437,1.006750,192.000000,0.000000,0.000000,0.000000,0.000000,0.000000,0.000000,0.000000,0.000000,0.000000,1763132962.482255,0.000000
148.000000,22409.076680,34265.000733,21531.189565,11638.240413,33821.475067,32051.015741,17714.539792,16649.926203,35195.436799,33514.362098,15951.948279,2283.118937,20112.010254,30481.766818,18775.867674,23815.113165,0.019750,-0.016719,1.004375,192.000000,0.000000,80.000000,127.500000,56.000000,15.500000,40.000000,0.000000,0.000000,0.000000,1763132962.482275,0.000000
150.000000,22415.648093,34281.451616,21540.040855,11643.247204,33821.653881,32069.478282,17729.224888,16690.896951,35074.960896,33486.936508,15942.538195,2287.991618,20061.808236,30463.348980,18682.683251,23679.818056,0.019750,-0.016719,1.004375,192.000000,0.000000,0.000000,0.000000,0.000000,0.000000,0.000000,0.000000,0.000000,0.000000,1763132962.482296,0.000000
152.000000,22418.687930,34306.619681,21549.450940,11641.727286,33893.738257,32097.820294,17740.154891,16699.010634,35209.026660,33522.118154,15956.083352,2274.669978,20112.904324,30484.270213,18796.051299,23866.969212,0.019750,-0.016719,1.004375,192.000000,0.000000,0.000000,0.000000,0.000000,0.000000,0.000000,0.000000,0.000000,0.000000,1763132962.482316,0.000000
154.000000,22412.116517,34241.732567,21527.814451,11631.981925,33751.379997,32019.544485,17704.794431,16636.291639,35123.486534,33491.496264,15949.757808,2280.012045,20087.512742,30455.257649,18714.400377,23714.575018,0.019750,-0.016719,1.004375,192.000000,0.000000,0.000000,0.000000,0.000000,0.000000,0.000000,0.000000,0.000000,0.000000,1763132962.482337,0.000000
156.000000,22450.919145,34325.328091,21563.241966,11641.883748,33909.339775,32111.588968,17752.425999,16735.242812,35158.869345,33504.236758,15957.871492,2288.304542,20102.309597,30466.589983,18751.012534,23791.844999,0.019750,-0.016719,1.004375,192.000000,0.000000,0.000000,0.000000,0.000000,0.000000,0.000000,0.000000,0.000000,0.000000,1763132962.482357,0.000000
158.000000,22421.504250,34271.035704,21540.756111,11633.658306,33819.575169,32054.681427,17719.881859,16661.906739,35201.717639,33519.882979,15962.878282,2292.976057,20128.729359,30477.452931,18782.327328,23813.101508,0.018875,-0.016359,1.006188,192.000000,0.000000,72.000000,127.500000,64.000000,15.500000,64.000000,0.000000,0.000000,0.000000,1763132962.482378,0.000000
160.000000,22442.134910,34293.633317,21548.512167,11638.128655,33821.653881,32065.052636,17733.784644,16700.910533,35084.415684,33491.965651,15953.110570,2294.831251,20085.054050,30454.900021,18685.164295,23680.868588,0.018875,-0.016359,1.006188,192.000000,0.000000,0.000000,0.000000,0.000000,0.000000,0.000000,0.000000,0.000000,0.000000,1763132962.482398,0.000000
162.000000,22433.149509,34305.971480,21554.882414,11636.094646,33890.854882,32101.843608,17742.166548,16701.357567,35222.929445,33526.767317,15963.481780,2282.828365,20126.672998,30484.963117,18797.817087,23866.477474,0.018875,-0.016359,1.006188,192.000000,0.000000,0.000000,0.000000,0.000000,0.000000,0.000000,0.000000,0.000000,0.000000,1763132962.482418,0.000000
164.000000,22387.462543,34240.525572,21526.227477,11628.673867,33750.910610,32016.571703,17703.319216,16630.636648,35125.453487,33491.295098,15948.684925,2282.336626,20078.259120,30462.700780,18713.618066,23719.805326,0.018875,-0.016359,1.006188,192.000000,0.000000,0.000000,0.000000,0.000000,0.000000,0.000000,0.000000,0.000000,0.000000,1763132962.482439,0.000000
166.000000,22424.544087,34322.757640,21557.028181,11642.934280,33898.767400,32106.448067,17751.844853,16725.095120,35137.970464,33500.727534,15958.676154,2276.033434,20093.860637,30461.762006,18744.351714,23795.242464,0.018875,-0.016359,1.006188,192.000000,0.000000,0.000000,0.000000,0.000000,0.000000,0.000000,0.000000,0.000000,0.000000,1763132962.482459,0.000000
168.000000,22411.736537,34253.511936,21537.269239,11633.926527,33808.376945,32039.839869,17718.361940,16652.474302,35201.449418,33511.590482,15960.352535,2282.560144,20096.721661,30474.122521,18772.224340,23811.849810,0.018875,-0.016359,1.006188,192.000000,0.000000,0.000000,0.000000,0.000000,0.000000,0.000000,0.000000,0.000000,0.000000,1763132962.482479,0.000000
170.000000,22422.532430,34264.956029,21544.466501,11641.637879,33813.160218,32051.418072,17733.158795,16695.970797,35083.633373,33478.845177,15953.647012,2286.359940,20077.923844,30444.528812,18681.364498,23677.135846,0.020000,-0.016000,1.010000,192.000000,0.000000,80.000000,127.500000,64.000000,15.500000,72.000000,0.000000,0.000000,0.000000,1763132962.482500,0.000000
172.000000,22429.282657,34288.514768,21551.440245,11640.162663,33889.178501,32086.219738,17741.361885,16696.931922,35220.493105,33517.111363,15961.380716,2273.194763,20113.977207,30474.636611,18793.480848,23865.248128,0.020000,-0.016000,1.010000,192.000000,0.000000,0.000000,0.000000,0.000000,0.000000,0.000000,0.000000,0.000000,0.000000,1763132962.482520,0.000000
174.000000,22409.523715,34235.094098,21527.836803,11632.563070,33750.821203,32009.217979,17705.844963,16629.317895,35129.566208,33484.790741,15945.443922,2273.574743,20082.796524,30450.228506,18716.523792,23716.832544,0.020000,-0.016000,1.010000,192.000000,0.000000,0.000000,0.000000,0.000000,0.000000,0.000000,0.000000,0.000000,0.000000,1763132962.482540,0.000000
176.000000,22430.757872,34300.294137,21559.173949,11643.358963,33898.990917,32096.635651,17754.527063,16726.547983,35141.725557,33500.436962,15958.787913,2272.054824,20090.463172,30456.844623,18745.514005,23785.944138,0.020000,-0.016000,1.010000,192.000000,0.000000,0.000000,0.000000,0.000000,0.000000,0.000000,0.000000,0.000000,0.000000,1763132962.482561,0.000000
178.000000,22415.044596,34255.724759,21536.844556,11637.815730,33805.404163,32044.019645,17719.792452,16649.389762,35192.396962,33508.148314,15960.553701,2279.408548,20112.166716,30465.137120,18776.426467,23812.095679,0.020000,-0.016000,1.010000,192.000000,0.000000,0.000000,0.000000,0.000000,0.000000,0.000000,0.000000,0.000000,0.000000,1763132962.482581,0.000000
180.000000,22419.760814,34276.198957,21547.528690,11641.883748,33804.264224,32055.441386,17734.634010,16693.512105,35073.508033,33477.101740,15948.774332,2286.248182,20074.213454,30446.763986,18681.297443,23676.375887,0.024000,-0.020000,1.006000,192.000000,0.000000,96.000000,127.500000,48.000000,15.500000,56.000000,0.000000,0.000000,0.000000,1763132962.482602,0.000000
182.000000,22429.483823,34285.698448,21558.749266,11640.788512,33882.405923,32087.359677,17746.860414,16706.252600,35217.140343,33521.984043,15970.008489,2283.968304,20132.842080,30478.011725,18797.124183,23860.129578,0.024000,-0.020000,1.006000,192.000000,0.000000,0.000000,0.000000,0.000000,0.000000,0.000000,0.000000,0.000000,0.000000,1763132962.482622,0.000000
184.000000,22407.109726,34233.775346,21534.184698,11632.965402,33744.182735,32007.563950,17709.890629,16644.494730,35131.756679,33493.306755,15959.145541,2291.277324,20089.814972,30455.883498,18715.562667,23713.479783,0.024000,-0.020000,1.006000,192.000000,0.000000,0.000000,0.000000,0.000000,0.000000,0.000000,0.000000,0.000000,0.000000,1763132962.482643,0.000000
186.000000,22454.026038,34305.993832,21560.805626,11644.588309,33897.314536,32095.205140,17755.532891,16736.338048,35153.884906,33506.024898,15964.308794,2288.885687,20105.505896,30462.499614,18741.602450,23786.592339,0.024000,-0.020000,1.006000,192.000000,0.000000,0.000000,0.000000,0.000000,0.000000,0.000000,0.000000,0.000000,0.000000,1763132962.482663,0.000000
188.000000,22418.285599,34257.982285,21540.465539,11633.211271,33807.527579,32037.135307,17720.977094,16656.676430,35198.767209,33510.115267,15960.397239,2283.543621,20105.617655,30461.672600,18772.157284,23816.096642,0.024000,-0.020000,1.006000,192.000000,0.000000,0.000000,0.000000,0.000000,0.000000,0.000000,0.000000,0.000000,0.000000,1763132962.482683,0.000000
190.000000,22416.028072,34265.023084,21548.646277,11638.933318,33802.230215,32050.635761,17733.024685,16692.930960,35078.090141,33477.235851,15955.323393,2281.464908,20073.855826,30448.730939,18683.465562,23678.365192,0.018000,-0.020000,1.004000,192.000000,0.000000,72.000000,127.500000,48.000000,15.500000,48.000000,0.000000,0.000000,0.000000,1763132962.482704,0.000000
192.000000,22422.331264,34286.167835,21552.647239,11637.949841,33877.108559,32079.670677,17741.585403,16695.724928,35215.978052,33509.690584,15965.314623,2272.881838,20127.120033,30472.624954,18798.957026,23867.706819,0.018000,-0.020000,1.004000,192.000000,0.000000,0.000000,0.000000,0.000000,0.000000,0.000000,0.000000,0.000000,0.000000,1763132962.482724,0.000000
194.000000,22399.308968,34234.758822,21527.546230,11630.350248,33739.332406,32005.731106,17704.816783,16626.166299,35124.626473,33482.130883,15947.522634,2280.526135,20090.776097,30450.250858,18714.668598,23719.425347,0.018000,-0.020000,1.004000,192.000000,0.000000,0.000000,0.000000,0.000000,0.000000,0.000000,0.000000,0.000000,0.000000,1763132962.482744,0.000000
196.000000,22433.596544,34286.748980,21557.743437,11638.687448,33888.127969,32088.924299,17750.771970,16718.635466,35141.926723,33487.696467,15953.781122,2272.904190,20079.913149,30455.771739,18737.668543,23788.089906,0.018000,-0.020000,1.004000,192.000000,0.000000,0.000000,0.000000,0.000000,0.000000,0.000000,0.000000,0.000000,0.000000,1763132962.482765,0.000000
198.000000,22395.933854,34230.601398,21536.352818,11631.512538,33805.962957,32036.397700,17717.087891,16640.113788,35195.101523,33491.093933,15949.355477,2266.623350,20099.716794,30461.046751,18767.530473,23815.202572,0.018000,-0.020000,1.004000,192.000000,0.000000,0.000000,0.000000,0.000000,0.000000,0.000000,0.000000,0.000000,0.000000,1763132962.482785,0.000000
200.000000,22409.724880,34249.063939,21545.762902,11638.061600,33792.551910,32047.350055,17730.342475,16678.827009,35067.629524,33463.020141,15946.248585,2270.601960,20064.624556,30439.522021,18678.436420,23672.173759,0.020000,-0.020000,1.002000,192.000000,0.000000,80.000000,127.500000,48.000000,15.500000,40.000000,0.000000,0.000000,0.000000,1763132962.482805,0.000000
202.000000,22409.613122,34272.779140,21552.177853,11643.716591,33872.817024,32092.634689,17742.725342,16688.058280,35204.444552,33506.941319,15956.575090,2264.321120,20107.405795,30472.580251,18792.519723,23868.064447,0.020000,-0.020000,1.002000,192.000000,0.000000,0.000000,0.000000,0.000000,0.000000,0.000000,0.000000,0.000000,0.000000,1763132962.482826,0.000000
204.000000,22401.164162,34222.130087,21531.122509,11638.955669,33739.175944,32017.108144,17707.633103,16627.574459,35123.821810,33484.902499,15947.947317,2276.212248,20075.465152,30450.094396,18713.014568,23719.715919,0.020000,-0.020000,1.002000,192.000000,0.000000,0.000000,0.000000,0.000000,0.000000,0.000000,0.000000,0.000000,0.000000,1763132962.482846,0.000000
206.000000,22439.407997,34295.488512,21558.168120,11647.225815,33886.652754,32098.759067,17754.035324,16724.715140,35142.999606,33500.258148,15959.257300,2277.463946,20101.527286,30463.840719,18736.841528,23784.401868,0.020000,-0.020000,1.002000,192.000000,0.000000,0.000000,0.000000,0.000000,0.000000,0.000000,0.000000,0.000000,0.000000,1763132962.482866,0.000000
208.000000,22413.748194,34251.880259,21537.246887,11636.206405,33803.526617,32038.565819,17719.926562,16651.803750,35194.430970,33515.703203,15957.424457,2277.642760,20107.964588,30469.160434,18774.079534,23818.041243,0.020000,-0.020000,1.002000,192.000000,0.000000,0.000000,0.000000,0.000000,0.000000,0.000000,0.000000,0.000000,0.000000,1763132962.482887,0.000000
210.000000,22437.463395,34279.104683,21547.215765,11640.699105,33801.961994,32049.808747,17734.142272,16696.820163,35078.291306,33486.020087,15954.451675,2290.897344,20059.170730,30452.441329,18678.123495,23680.153332,0.022000,-0.018000,1.006000,192.000000,0.000000,88.000000,127.500000,56.000000,15.500000,56.000000,0.000000,0.000000,0.000000,1763132962.482907,0.000000
212.000000,22453.489596,34296.851968,21554.100103,11640.185015,33884.909318,32085.191558,17743.597060,16705.425585,35219.554331,33530.723575,15964.934643,2285.689388,20125.197783,30480.872748,18796.364224,23865.404590,0.022000,-0.018000,1.006000,192.000000,0.000000,0.000000,0.000000,0.000000,0.000000,0.000000,0.000000,0.000000,0.000000,1763132962.482927,0.000000
214.000000,22422.443023,34239.743261,21528.485004,11632.853643,33744.495659,32013.375403,17707.387234,16636.291639,35132.382528,33500.772238,15952.663535,2290.718531,20090.239655,30461.024399,18717.060234,23719.291236,0.022000,-0.018000,1.006000,192.000000,0.000000,0.000000,0.000000,0.000000,0.000000,0.000000,0.000000,0.000000,0.000000,1763132962.482948,0.000000
216.000000,22441.844337,34301.143503,21555.910594,11641.101437,33891.033696,32101.307166,17753.409475,16728.581992,35142.977255,33508.036555,15962.207730,2283.789490,20083.422373,30466.187652,18737.534432,23789.252196,0.022000,-0.018000,1.006000,192.000000,0.000000,0.000000,0.000000,0.000000,0.000000,0.000000,0.000000,0.000000,0.000000,1763132962.482968,0.000000
218.000000,22428.388587,34256.909401,21534.877602,11633.635954,33801.872587,32030.787412,17719.188955,16652.183730,35199.862444,33517.089011,15958.363230,2280.324969,20103.851867,30474.994239,18772.693726,23817.974188,0.022000,-0.018000,1.006000,192.000000,0.000000,0.000000,0.000000,0.000000,0.000000,0.000000,0.000000,0.000000,0.000000,1763132962.482988,0.000000
220.000000,22432.814232,34266.118320,21539.750283,11641.771989,33799.346840,32051.485127,17731.303600,16691.433393,35073.329219,33482.577918,15949.154311,2286.091719,20080.293129,30454.296524,18677.944681,23681.360326,0.018000,-0.016000,1.008000,192.000000,0.000000,72.000000,127.500000,64.000000,15.500000,64.000000,0.000000,0.000000,0.000000,1763132962.483009,0.000000
222.000000,22441.687875,34295.309698,21549.808568,11643.336611,33880.193100,32087.024401,17744.558185,16705.090309,35208.981956,33527.549628,15966.074582,2280.079100,20112.725510,30476.938841,18792.653834,23869.629070,0.018000,-0.016000,1.008000,192.000000,0.000000,0.000000,0.000000,0.000000,0.000000,0.000000,0.000000,0.000000,0.000000,1763132962.962418,0.000000
224.000000,22418.933799,34234.445898,21523.209992,11635.401742,33745.412081,32007.631005,17708.750690,16637.990372,35126.794592,33494.871377,15953.512901,2284.571801,20068.156131,30450.116748,18713.081624,23718.821850,0.018000,-0.016000,1.008000,192.000000,0.000000,0.000000,0.000000,0.000000,0.000000,0.000000,0.000000,0.000000,0.000000,1763132962.962516,0.000000
226.000000,22442.470186,34298.528349,21552.915460,11644.409495,33888.731466,32096.434485,17754.638821,16729.364303,35135.511772,33500.615776,15958.944375,2286.918734,20075.107524,30455.883498,18734.986333,23782.837246,0.018000,-0.016000,1.008000,192.000000,0.000000,0.000000,0.000000,0.000000,0.000000,0.000000,0.000000,0.000000,0.000000,1763132962.962599,0.000000
228.000000,22415.178706,34247.856945,21532.418911,11639.380352,33804.107762,32039.772813,17721.334722,16654.217738,35185.154997,33508.170665,15959.167893,2283.364807,20092.206608,30461.426730,18773.073706,23818.197706,0.018000,-0.016000,1.008000,192.000000,0.000000,0.000000,0.000000,0.000000,0.000000,0.000000,0.000000,0.000000,0.000000,1763132962.962673,0.000000
230.000000,22442.112558,34268.465253,21543.147748,11647.896367,33806.097067,32049.495822,17735.639839,16694.070899,35069.283553,33477.951107,15945.890957,2287.812804,20055.639154,30438.627951,18677.341184,23677.292308,0.016000,-0.016000,1.012000,192.000000,0.000000,64.000000,127.500000,64.000000,15.500000,80.000000,0.000000,0.000000,0.000000,1763132962.962757,0.000000
232.000000,22430.512003,34279.484663,21552.244908,11645.460027,33887.189196,32084.342192,17746.525138,16705.067957,35207.618500,33521.760526,15962.565358,2283.633028,20110.959722,30470.143911,18790.239846,23864.130540,0.016000,-0.016000,1.012000,192.000000,0.000000,0.000000,0.000000,0.000000,0.000000,0.000000,0.000000,0.000000,0.000000,1763132962.962784,0.000000
234.000000,22418.218543,34237.150459,21529.021445,11637.480454,33740.718215,32011.587264,17709.845926,16638.884442,35117.160990,33492.099761,15950.048381,2286.605810,20079.399059,30448.283905,18712.545182,23717.927780,0.016000,-0.016000,1.012000,192.000000,0.000000,0.000000,0.000000,0.000000,0.000000,0.000000,0.000000,0.000000,0.000000,1763132962.962870,0.000000
236.000000,22440.927916,34311.917044,21558.212824,11643.828350,33889.402019,32095.071029,17757.209272,16732.158271,35132.628397,33504.393220,15956.910367,2280.257914,20092.161905,30458.945687,18734.919278,23779.640946,0.016000,-0.016000,1.012000,192.000000,0.000000,0.000000,0.000000,0.000000,0.000000,0.000000,0.000000,0.000000,0.000000,1763132962.962930,0.000000
238.000000,22412.272979,34256.149442,21540.554946,11636.921661,33809.047497,32037.470584,17724.307504,16661.549111,35192.039334,33520.799401,15959.480817,2288.349246,20111.250295,30468.758103,18771.754953,23814.934351,0.016000,-0.016000,1.012000,192.000000,0.000000,0.000000,0.000000,0.000000,0.000000,0.000000,0.000000,0.000000,0.000000,1763132962.962951,0.000000
240.000000,22437.329285,34278.478834,21547.260469,11640.944975,33799.927986,32041.225677,17735.952763,16695.412003,35067.674228,33489.305793,15953.714067,2294.495975,20056.287355,30441.064291,18676.804742,23671.547910,0.017000,-0.017000,1.012000,192.000000,0.000000,72.000000,127.500000,56.000000,15.500000,80.000000,0.000000,0.000000,0.000000,1763132962.962971,0.000000
242.000000,22442.716055,34299.824750,21553.921289,11641.593175,33886.161016,32085.459779,17748.067409,16700.977588,35211.708869,33527.482572,15958.899672,2278.648588,20122.113242,30478.726981,18792.944407,23861.135407,0.017000,-0.017000,1.012000,192.000000,0.000000,0.000000,0.000000,0.000000,0.000000,0.000000,0.000000,0.000000,0.000000,1763132962.962991,0.000000
244.000000,22395.352709,34227.807430,21529.557887,11632.607774,33743.847459,32006.155790,17710.002388,16630.457834,35117.026879,33498.805284,15950.875396,2285.689388,20073.945233,30448.172146,18716.255571,23715.737309,0.017000,-0.017000,1.012000,192.000000,0.000000,0.000000,0.000000,0.000000,0.000000,0.000000,0.000000,0.000000,0.000000,1763132962.963011,0.000000
246.000000,22441.978448,34307.156123,21558.436341,11643.738943,33897.180426,32095.361602,17757.745714,16723.217574,35123.128906,33503.320337,15956.128056,2279.475603,20095.022928,30457.381065,18737.847357,23779.909167,0.017000,-0.017000,1.012000,192.000000,0.000000,0.000000,0.000000,0.000000,0.000000,0.000000,0.000000,0.000000,0.000000,1763132962.963032,0.000000
248.000000,22404.919255,34246.649950,21532.038931,11632.965402,33805.538274,32040.957456,17722.362902,16643.868881,35183.143340,33513.959767,15953.468198,2278.581533,20100.566161,30465.830024,18770.704421,23815.202572,0.017000,-0.017000,1.012000,192.000000,0.000000,0.000000,0.000000,0.000000,0.000000,0.000000,0.000000,0.000000,0.000000,1763132962.963053,0.000000
250.000000,22414.709319,34256.663532,21540.465539,11640.788512,33801.157332,32049.428767,17735.125749,16683.722041,35063.382693,33476.565299,15943.208747,2278.760347,20058.589585,30443.165355,18675.865969,23676.755867,0.016500,-0.016500,1.008000,192.000000,0.000000,64.000000,127.500000,64.000000,15.500000,48.000000,0.000000,0.000000,0.000000,1763132962.963073,0.000000
252.000000,22430.288485,34284.133826,21550.523824,11640.699105,33892.173635,32082.151721,17748.916775,16699.167097,35201.762343,33520.397070,15960.084314,2270.512554,20122.560277,30468.266364,18788.429354,23867.572709,0.016500,-0.016500,1.008000,192.000000,0.000000,0.000000,0.000000,0.000000,0.000000,0.000000,0.000000,0.000000,0.000000,1763132962.963093,0.000000
254.000000,22419.559648,34228.165058,21528.194431,11635.222928,33746.082633,32009.553255,17712.729301,16635.710494,35118.703260,33497.397124,15949.601346,2285.778795,20095.604073,30452.642495,18717.328455,23716.094937,0.016500,-0.016500,1.008000,192.000000,0.000000,0.000000,0.000000,0.000000,0.000000,0.000000,0.000000,0.000000,0.000000,1763132962.963114,0.000000
0.000000,22445.778244,34300.294137,21560.649164,11644.767123,33891.972469,32099.742544,17760.807903,16735.421626,35128.828601,33510.495247,15958.385582,2281.196687,20087.758611,30459.973867,18732.527641,23781.362031,0.016500,-0.016500,1.008000,192.000000,0.000000,0.000000,0.000000,0.000000,0.000000,0.000000,0.000000,0.000000,0.000000,1763132962.963134,0.000000
2.000000,22436.614029,34273.404988,21538.722102,11635.826425,33815.708317,32042.365616,17728.688446,16663.180788,35199.102485,33525.694433,15965.627547,2284.258876,20111.987902,30472.222623,18774.392459,23813.727357,0.016500,-0.016500,1.008000,192.000000,0.000000,0.000000,0.000000,0.000000,0.000000,0.000000,0.000000,0.000000,0.000000,1763132962.963154,0.000000
4.000000,22418.911447,34274.343762,21545.271164,11639.872091,33795.837616,32046.277171,17740.199595,16701.603437,35071.608135,33493.038534,15960.196073,2288.550411,20060.176559,30445.713454,18677.654109,23676.264128,0.016250,-0.016250,1.007000,192.000000,0.000000,64.000000,127.500000,64.000000,15.500000,56.000000,0.000000,0.000000,0.000000,1763132962.963175,0.000000
6.000000,22443.565422,34295.622622,21557.654030,11641.213195,33884.864615,32083.492825,17755.331726,16718.747225,35212.312366,33534.255151,15978.613911,2292.953705,20130.338684,30485.700725,18787.959968,23862.364753,0.016250,-0.016250,1.007000,192.000000,0.000000,0.000000,0.000000,0.000000,0.000000,0.000000,0.000000,0.000000,0.000000,1763132962.963195,0.000000
8.000000,22418.687930,34243.632465,21529.826108,11633.188919,33742.528706,32001.305461,17715.836193,16646.998125,35130.214409,33509.042383,15965.381678,2303.168452,20108.299864,30454.855317,18714.914467,23710.104669,0.016250,-0.016250,1.007000,192.000000,0.000000,0.000000,0.000000,0.000000,0.000000,0.000000,0.000000,0.000000,0.000000,1763132962.963215,0.000000
10.000000,22464.352544,34317.080297,21558.369286,11643.984812,33891.547786,32099.854302,17760.494978,16737.902670,35131.622569,33512.350441,15966.409858,2291.545545,20077.230940,30462.164338,18739.344923,23780.579720,0.016250,-0.016250,1.007000,192.000000,0.000000,0.000000,0.000000,0.000000,0.000000,0.000000,0.000000,0.000000,0.000000,1763132962.963235,0.000000
12.000000,22424.611142,34272.376808,21534.184698,11635.357038,33812.534370,32045.539563,17725.000408,16660.856207,35189.558290,33525.716785,15963.235910,2287.768100,20092.586588,30473.071989,18776.091191,23818.018892,0.016250,-0.016250,1.007000,192.000000,0.000000,0.000000,0.000000,0.000000,0.000000,0.000000,0.000000,0.000000,0.000000,1763132962.963255,0.000000
14.000000,22433.350674,34281.831596,21542.611306,11642.554300,33789.087390,32052.580363,17735.952763,16697.378957,35069.037684,33498.715877,15958.452637,2294.943010,20055.706210,30447.009855,18681.230388,23679.639242,0.016125,-0.015125,1.005500,192.000000,0.000000,64.000000,127.500000,72.000000,15.500000,48.000000,0.000000,0.000000,0.000000,1763132962.963275,0.000000
16.000000,22443.006628,34313.973405,21553.429550,11644.521254,33877.555594,32094.132256,17750.727266,16710.432376,35208.356107,33539.083128,15972.444829,2289.355074,20109.082175,30483.867882,18794.039642,23867.282136,0.016125,-0.015125,1.005500,192.000000,0.000000,0.000000,0.000000,0.000000,0.000000,0.000000,0.000000,0.000000,0.000000,1763132962.963296,0.000000
18.000000,22418.129136,34241.978436,21526.138070,11635.133521,33736.359624,32010.492028,17711.567010,16637.230413,35122.346595,33504.661441,15955.569262,2292.059635,20079.153190,30460.197384,18716.054406,23717.503097,0.016125,-0.015125,1.005500,192.000000,0.000000,0.000000,0.000000,0.000000,0.000000,0.000000,0.000000,0.000000,0.000000,1763132962.963315,0.000000
20.000000,22461.916204,34302.797532,21560.336239,11652.612585,33880.796597,32095.719230,17761.210234,16736.181585,35131.197885,33509.064735,15959.480817,2283.722434,20095.380556,30465.941783,18732.773511,23780.199740,0.016125,-0.015125,1.005500,192.000000,0.000000,0.000000,0.000000,0.000000,0.000000,0.000000,0.000000,0.000000,0.000000,1763132962.963336,0.000000
22.000000,22418.129136,34267.638238,21540.197318,11646.130579,33803.079582,32045.919543,17729.515461,16666.600605,35197.783732,33524.420384,15966.856893,2290.718531,20108.232809,30478.816388,18772.201988,23817.594208,0.016125,-0.015125,1.005500,192.000000,0.000000,0.000000,0.000000,0.000000,0.000000,0.000000,0.000000,0.000000,0.000000,1763132962.963356,0.000000
24.000000,22439.072721,34287.575994,21545.338219,11648.365754,33790.428494,32053.608543,17740.221946,16703.011597,35085.913251,33495.787799,15962.811227,2299.279249,20048.017210,30456.822271,18676.581225,23678.588710,0.014063,-0.014562,1.005750,192.000000,0.000000,48.000000,127.500000,72.000000,15.500000,56.000000,0.000000,0.000000,0.000000,1763132962.963376,0.000000
26.000000,22459.703381,34308.541931,21556.894071,11649.617451,33875.119254,32089.974831,17754.907042,16723.351684,35222.571817,33538.524334,15976.915178,2295.926487,20120.861545,30491.199254,18790.888046,23868.779703,0.014063,-0.014562,1.005750,192.000000,0.000000,0.000000,0.000000,0.000000,0.000000,0.000000,0.000000,0.000000,0.000000,1763132962.963396,0.000000
28.000000,22420.029035,34257.758767,21532.284800,11641.459065,33735.800831,32006.781638,17717.333760,16655.648250,35137.746947,33518.027785,15972.958919,2310.343362,20083.131800,30467.238184,18711.762871,23724.812117,0.014063,-0.014562,1.005750,192.000000,0.000000,0.000000,0.000000,0.000000,0.000000,0.000000,0.000000,0.000000,0.000000,1763132962.963417,0.000000
30.000000,22462.899680,34320.433059,21563.130207,11649.550396,33884.596394,32101.240111,17763.691278,16748.028010,35144.072490,33528.667215,15979.016242,2304.487205,20094.307672,30472.356733,18736.707418,23778.880987,0.014063,-0.014562,1.005750,192.000000,0.000000,0.000000,0.000000,0.000000,0.000000,0.000000,0.000000,0.000000,0.000000,1763132962.963437,0.000000
32.000000,22440.279715,34271.438035,21540.644353,11636.027591,33807.460524,32046.254819,17728.599039,16667.695840,35207.596148,33537.004416,15972.869512,2297.513461,20113.619580,30480.515120,18780.762706,23818.331816,0.014063,-0.014562,1.005750,192.000000,0.000000,0.000000,0.000000,0.000000,0.000000,0.000000,0.000000,0.000000,0.000000,1763132962.963457,0.000000
34.000000,22439.609163,34280.378733,21547.394579,11638.910966,33798.788047,32045.517212,17736.913888,16697.870695,35083.856891,33499.833465,15962.833579,2300.240374,20077.946195,30450.094396,18686.036013,23672.889015,0.016031,-0.013281,1.005875,192.000000,0.000000,72.000000,127.500000,80.000000,15.500000,56.000000,0.000000,0.000000,0.000000,1763132962.963477,0.000000
36.000000,22456.015343,34314.576902,21555.530614,11642.643707,33887.815045,32087.829064,17750.749618,16709.895934,35218.637910,33540.826564,15973.607120,2291.210269,20111.585571,30486.572443,18797.817087,23862.387104,0.016031,-0.013281,1.005875,192.000000,0.000000,0.000000,0.000000,0.000000,0.000000,0.000000,0.000000,0.000000,0.000000,1763132962.963498,0.000000
38.000000,22414.284636,34248.259276,21527.814451,11636.005239,33739.064186,32012.973072,17711.924638,16635.822253,35135.131792,33508.885921,15956.262166,2289.288019,20086.082230,30460.577364,18723.072853,23721.861687,0.016031,-0.013281,1.005875,192.000000,0.000000,0.000000,0.000000,0.000000,0.000000,0.000000,0.000000,0.000000,0.000000,1763132962.963518,0.000000
40.000000,22456.238861,34307.089067,21561.275013,11646.555262,33887.390362,32104.458762,17760.137351,16732.180623,35139.780955,33517.021956,15964.956995,2287.186955,20087.490390,30465.070065,18738.696723,23775.818798,0.016031,-0.013281,1.005875,192.000000,0.000000,0.000000,0.000000,0.000000,0.000000,0.000000,0.000000,0.000000,0.000000,1763132962.963539,0.000000
42.000000,22421.817174,34258.250506,21534.788195,11637.279288,33804.733611,32044.734901,17725.961533,16655.827064,35207.171465,33524.263921,15961.090143,2289.757405,20118.179335,30473.094341,18775.822970,23822.556296,0.016031,-0.013281,1.005875,192.000000,0.000000,0.000000,0.000000,0.000000,0.000000,0.000000,0.000000,0.000000,0.000000,1763132962.963559,0.000000
44.000000,22435.719959,34274.187300,21541.873698,11642.196672,33792.641317,32044.109052,17736.131577,16688.438259,35075.989077,33491.809188,15951.881224,2294.115996,20062.389381,30454.676504,18679.889283,23676.800570,0.016031,-0.013281,1.005875,192.000000,0.000000,0.000000,0.000000,0.000000,0.000000,0.000000,0.000000,0.000000,0.000000,1763132962.963579,0.000000
46.000000,22432.993046,34297.678983,21551.462597,11647.963422,33884.037600,32087.985526,17751.397818,16703.190411,35211.932386,33533.785764,15963.928814,2281.531964,20132.663266,30482.772646,18790.575122,23864.376410,0.018000,-0.014000,1.006000,192.000000,0.000000,72.000000,127.500000,72.000000,15.500000,56.000000,0.000000,0.000000,0.000000,1763132962.963600,0.000000
48.000000,22404.069889,34246.426433,21521.421852,11644.409495,33738.103060,32006.647528,17714.495088,16633.162395,35124.626473,33505.488456,15953.848178,2293.601906,20088.406812,30461.806710,18718.915429,23729.796556,0.018000,-0.014000,1.006000,192.000000,0.000000,0.000000,0.000000,0.000000,0.000000,0.000000,0.000000,0.000000,0.000000,1763132962.963620,0.000000
50.000000,22457.088227,34325.104573,21557.519920,11657.440562,33889.781998,32106.760991,17764.048906,16736.338048,35134.975330,33518.050136,15966.566320,2291.634952,20079.890797,30470.300373,18734.628705,23779.216263,0.018000,-0.014000,1.006000,192.000000,0.000000,0.000000,0.000000,0.000000,0.000000,0.000000,0.000000,0.000000,0.000000,1763132962.963639,0.000000
52.000000,22444.884174,34264.732512,21536.777501,11641.771989,33805.538274,32045.025473,17730.253068,16666.712364,35213.340546,33532.779936,15969.986137,2294.697141,20112.390234,30479.241071,18775.599453,23818.421223,0.018000,-0.014000,1.006000,192.000000,0.000000,0.000000,0.000000,0.000000,0.000000,0.000000,0.000000,0.000000,0.000000,1763132962.963660,0.000000
54.000000,22435.764663,34272.689733,21542.298382,11642.241376,33792.864834,32045.561915,17740.579574,16701.737547,35078.179548,33494.022011,15961.246605,2299.838042,20084.584663,30449.401492,18682.102106,23678.186378,0.018000,-0.014000,1.006000,192.000000,0.000000,0.000000,0.000000,0.000000,0.000000,0.000000,0.000000,0.000000,0.000000,1763132962.963680,0.000000
56.000000,22436.725788,34305.926777,21552.624888,11641.861396,33878.382609,32081.123541,17753.700048,16716.847326,35211.932386,33536.043291,15975.909349,2296.082949,20106.757594,30479.688106,18798.711157,23862.342401,0.016000,-0.014000,1.008000,192.000000,0.000000,64.000000,127.500000,72.000000,15.500000,64.000000,0.000000,0.000000,0.000000,1763132962.963700,0.000000
58.000000,22413.301160,34240.726738,21528.328541,11630.774931,33737.186639,32009.709717,17714.226867,16642.505424,35125.386432,33502.873302,15958.005602,2299.815690,20072.760591,30455.525870,18723.251667,23722.085204,0.016000,-0.014000,1.008000,192.000000,0.000000,0.000000,0.000000,0.000000,0.000000,0.000000,0.000000,0.000000,0.000000,1763132962.963720,0.000000
60.000000,22454.785997,34316.275634,21559.106893,11642.576652,33885.132836,32102.245939,17762.528987,16739.064960,35130.437926,33511.545779,15964.398201,2292.596077,20107.316388,30469.473358,18736.483900,23776.221129,0.016000,-0.014000,1.008000,192.000000,0.000000,0.000000,0.000000,0.000000,0.000000,0.000000,0.000000,0.000000,0.000000,1763132962.963740,0.000000
62.000000,22431.607238,34283.575032,21539.906745,11636.631088,33812.579073,32046.858316,17732.309429,16669.618090,35205.808008,33531.550590,15965.985175,2296.284115,20098.822725,30469.652172,18776.828799,23818.242409,0.016000,-0.014000,1.008000,192.000000,0.000000,0.000000,0.000000,0.000000,0.000000,0.000000,0.000000,0.000000,0.000000,1763132962.963760,0.000000
64.000000,22430.959038,34276.243660,21545.449978,11640.073257,33794.429457,32042.969113,17739.797263,16700.262332,35076.614925,33495.050191,15965.001698,2300.396836,20060.713000,30448.865050,18678.615234,23677.314660,0.016000,-0.014000,1.008000,192.000000,0.000000,0.000000,0.000000,0.000000,0.000000,0.000000,0.000000,0.000000,0.000000,1763132962.963780,0.000000
66.000000,22455.255384,34296.494340,21561.431475,11642.084914,33888.463245,32092.701744,17754.817635,16721.764710,35219.017889,33531.729404,15983.754812,2289.086853,20132.417397,30478.101132,18793.324386,23867.326840,0.016000,-0.010000,1.004000,192.000000,0.000000,64.000000,127.500000,88.000000,15.500000,48.000000,0.000000,0.000000,0.000000,1763132962.963800,0.000000
68.000000,22431.361369,34248.840421,21538.476233,11633.121864,33747.133165,32013.978900,17714.517440,16648.361581,35155.516583,33509.400011,15973.584768,2297.558164,20083.511780,30461.314972,18725.106862,23723.806289,0.016000,-0.010000,1.004000,192.000000,0.000000,0.000000,0.000000,0.000000,0.000000,0.000000,0.000000,0.000000,0.000000,1763132962.963820,0.000000
70.000000,22453.668410,34315.202751,21566.214748,11648.678678,33891.234862,32102.581215,17762.618394,16741.031914,35144.430118,33512.752773,15976.266977,2288.416301,20093.860637,30464.108940,18737.847357,23780.043278,0.016000,-0.010000,1.004000,192.000000,0.000000,0.000000,0.000000,0.000000,0.000000,0.000000,0.000000,0.000000,0.000000,1763132962.963840,0.000000
72.000000,22431.383721,34265.336009,21543.840652,11642.464893,33821.609178,32047.238296,17730.856565,16666.310032,35205.092753,33528.421346,15975.328204,2292.886650,20123.767271,30474.971887,18778.415773,23817.907133,0.016000,-0.010000,1.004000,192.000000,0.000000,0.000000,0.000000,0.000000,0.000000,0.000000,0.000000,0.000000,0.000000,1763132962.963861,0.000000
74.000000,22427.271000,34272.175643,21545.405274,11643.805998,33792.328393,32041.337435,17735.349266,16688.639425,35082.068751,33488.121151,15959.369059,2293.557202,20077.387402,30446.026378,18684.203170,23676.577053,0.016000,-0.010000,1.004000,192.000000,0.000000,0.000000,0.000000,0.000000,0.000000,0.000000,0.000000,0.000000,0.000000,1763132962.963881,0.000000
76.000000,22451.835567,34306.686736,21556.715257,11645.884710,33892.799484,32088.767837,17752.493054,16709.605361,35223.287073,33528.242532,15970.455524,2283.364807,20115.228905,30479.062257,18797.146535,23873.585328,0.016000,-0.008000,1.004000,192.000000,0.000000,64.000000,127.500000,96.000000,15.500000,48.000000,0.000000,0.000000,0.000000,1763132962.963902,0.000000
78.000000,22429.796747,34251.366168,21533.268277,11637.256937,33749.211877,32009.933234,17714.428033,16642.348962,35143.848973,33507.410706,15965.091105,2296.015894,20096.095812,30458.923335,18723.586944,23727.248457,0.016000,-0.008000,1.004000,192.000000,0.000000,0.000000,0.000000,0.000000,0.000000,0.000000,0.000000,0.000000,0.000000,1763132962.963922,0.000000
80.000000,22465.693649,34318.555512,21564.560719,11645.325916,33894.766437,32105.464590,17761.321993,16741.501301,35146.553534,33518.363061,15978.368041,2295.568859,20111.674978,30462.521966,18734.941630,23779.708002,0.016000,-0.008000,1.004000,192.000000,0.000000,0.000000,0.000000,0.000000,0.000000,0.000000,0.000000,0.000000,0.000000,1763132962.963942,0.000000
82.000000,22446.918183,34282.435093,21545.427626,11634.910004,33821.385660,32049.249953,17728.241411,16672.255596,35220.582511,33532.176439,15983.263073,2294.652438,20120.302751,30476.670620,18783.579026,23820.611694,0.016000,-0.008000,1.004000,192.000000,0.000000,0.000000,0.000000,0.000000,0.000000,0.000000,0.000000,0.000000,0.000000,1763132962.963962,0.000000
84.000000,22452.684933,34271.415683,21547.506338,11637.525158,33797.692811,32039.661055,17733.896403,16699.971759,35093.691658,33489.439903,15968.980309,2297.804033,20071.955928,30445.467585,18689.478182,23677.225253,0.016000,-0.008000,1.004000,192.000000,0.000000,0.000000,0.000000,0.000000,0.000000,0.000000,0.000000,0.000000,0.000000,1763132962.963982,0.000000
86.000000,22459.122236,34303.155160,21558.525748,11637.145178,33890.296088,32081.592927,17750.012010,16716.780271,35218.570854,33536.110346,15979.507980,2291.344379,20132.529155,30469.853338,18803.472078,23865.359886,0.010000,-0.008000,1.004000,192.000000,0.000000,40.000000,127.500000,96.000000,15.500000,48.000000,0.000000,0.000000,0.000000,1763132963.443183,0.000000
88.000000,22416.676273,34249.399215,21533.044759,11628.182128,33746.663779,32009.039165,17711.432899,16641.879575,35139.803307,33503.901482,15969.829675,2294.115996,20078.773210,30454.207117,18729.331342,23721.571114,0.010000,-0.008000,1.004000,192.000000,0.000000,0.000000,0.000000,0.000000,0.000000,0.000000,0.000000,0.000000,0.000000,1763132963.443251,0.000000
90.000000,22461.133893,34312.498190,21561.632641,11643.671887,33887.077437,32097.283852,17759.444446,16738.081484,35137.791650,33507.008375,15971.930739,2291.478490,20088.920902,30457.917506,18738.182633,23773.136589,0.010000,-0.008000,1.004000,192.000000,0.000000,0.000000,0.000000,0.000000,0.000000,0.000000,0.000000,0.000000,0.000000,1763132963.443299,0.000000
92.000000,22458.496387,34268.375846,21543.192451,11636.832254,33814.054288,32040.622180,17728.084949,16668.768724,35211.932386,33520.553532,15971.975442,2291.322028,20128.908173,30468.400475,18778.840456,23823.226848,0.010000,-0.008000,1.004000,192.000000,0.000000,0.000000,0.000000,0.000000,0.000000,0.000000,0.000000,0.000000,0.000000,1763132963.443345,0.000000
94.000000,22432.098977,34279.439959,21545.874661,11641.615527,33787.813340,32046.724206,17735.550432,16695.657873,35090.852987,33490.311621,15967.795666,2294.518327,20062.501140,30443.545335,18682.727955,23675.951204,0.010000,-0.008000,1.004000,192.000000,0.000000,0.000000,0.000000,0.000000,0.000000,0.000000,0.000000,0.000000,0.000000,1763132963.443384,0.000000
96.000000,22445.800596,34303.736306,21555.418856,11645.325916,33880.841301,32092.120599,17752.336592,16715.908553,35218.526151,33529.047195,15976.311681,2283.834193,20128.438786,30480.269251,18792.139744,23872.288927,0.016000,-0.012000,1.000000,192.000000,0.000000,64.000000,127.500000,80.000000,15.500000,32.000000,0.000000,0.000000,0.000000,1763132963.443405,0.000000
98.000000,22431.696645,34256.484718,21529.714349,11641.324954,33742.416947,32018.024566,17714.495088,16645.612317,35137.836354,33507.902444,15964.107628,2297.334647,20106.064690,30454.989428,18719.518926,23726.913181,0.016000,-0.012000,1.000000,192.000000,0.000000,0.000000,0.000000,0.000000,0.000000,0.000000,0.000000,0.000000,0.000000,1763132963.443426,0.000000
100.000000,22465.201910,34308.430172,21558.972783,11652.344364,33884.328173,32094.489884,17761.947842,16739.109664,35130.303816,33508.304776,15969.181474,2288.393949,20076.046297,30465.450044,18730.873612,23779.953871,0.016000,-0.012000,1.000000,192.000000,0.000000,0.000000,0.000000,0.000000,0.000000,0.000000,0.000000,0.000000,0.000000,1763132963.443446,0.000000
102.000000,22418.978503,34266.431244,21540.152614,11643.671887,33808.958090,32034.922485,17730.118958,16671.294471,35201.650584,33526.744965,15971.684870,2292.931353,20104.410661,30466.835852,18781.857941,23822.578647,0.016000,-0.012000,1.000000,192.000000,0.000000,0.000000,0.000000,0.000000,0.000000,0.000000,0.000000,0.000000,0.000000,1763132963.443467,0.000000
104.000000,22455.925936,34279.886994,21548.959201,11650.980908,33785.756980,32051.529831,17739.506690,16704.956198,35083.052228,33493.798494,15964.934643,2306.543566,20064.624556,30446.406358,18680.425725,23673.336050,0.016000,-0.012000,1.000000,192.000000,0.000000,0.000000,0.000000,0.000000,0.000000,0.000000,0.000000,0.000000,0.000000,1763132963.443488,0.000000
106.000000,22458.518739,34315.918006,21561.654992,11645.772951,33886.406885,32085.660945,17754.661173,16724.804547,35221.945968,33537.317340,15981.050251,2298.563993,20125.130728,30475.642440,18800.253427,23855.323953,0.016000,-0.012000,0.998000,192.000000,0.000000,64.000000,127.500000,80.000000,15.500000,24.000000,0.000000,0.000000,0.000000,1763132963.443508,0.000000
108.000000,22420.744290,34253.087253,21534.587030,11635.133521,33744.093328,31998.466790,17714.182164,16650.708515,35142.485516,33507.589520,15969.852027,2298.720455,20089.904379,30455.905849,18728.750197,23718.173649,0.016000,-0.012000,0.998000,192.000000,0.000000,0.000000,0.000000,0.000000,0.000000,0.000000,0.000000,0.000000,0.000000,1763132963.443528,0.000000
110.000000,22458.094055,34321.416536,21563.934870,11644.744771,33891.301917,32102.357698,17760.092647,16745.345801,35135.690586,33514.809133,15976.021108,2290.651475,20098.465097,30460.823233,18738.137929,23773.404810,0.016000,-0.012000,0.998000,192.000000,0.000000,0.000000,0.000000,0.000000,0.000000,0.000000,0.000000,0.000000,0.000000,1763132963.443549,0.000000
112.000000,22445.353561,34276.444826,21545.762902,11636.742847,33827.733556,32054.636723,17730.431882,16675.608358,35213.340546,33533.986930,15976.065812,2299.435711,20123.052016,30474.726018,18785.456572,23816.118993,0.016000,-0.012000,0.998000,192.000000,0.000000,0.000000,0.000000,0.000000,0.000000,0.000000,0.000000,0.000000,0.000000,1763132963.443569,0.000000
114.000000,22427.092186,34273.628506,21544.108873,11638.620393,33795.032954,32049.853450,17735.081045,16698.273027,35087.790798,33495.094895,15962.721820,2295.300638,20102.980149,30447.009855,18685.410164,23676.398239,0.016000,-0.012000,0.998000,192.000000,0.000000,0.000000,0.000000,0.000000,0.000000,0.000000,0.000000,0.000000,0.000000,1763132963.443590,0.000000
116.000000,22443.297201,34300.785875,21556.983478,11640.229719,33893.984126,32088.343154,17752.113074,16716.221478,35222.638872,33536.602084,15976.624605,2289.556240,20122.359112,30481.230376,18795.760726,23865.002258,0.018000,-0.012000,0.999000,192.000000,0.000000,80.000000,127.500000,80.000000,15.500000,32.000000,0.000000,0.000000,0.000000,1763132963.443611,0.000000
118.000000,22431.026093,34251.366168,21530.362550,11635.491149,33750.865907,32009.150923,17712.394024,16636.917488,35143.893676,33506.606043,15958.162064,2291.366731,20088.295053,30454.475338,18726.582077,23719.447699,0.018000,-0.012000,0.999000,192.000000,0.000000,0.000000,0.000000,0.000000,0.000000,0.000000,0.000000,0.000000,0.000000,1763132963.443631,0.000000
120.000000,22429.886154,34307.871378,21560.962088,11647.158759,33882.562385,32098.513198,17758.393915,16730.258373,35133.097784,33510.472895,15966.968652,2287.522231,20083.198855,30460.934992,18731.342999,23771.191987,0.018000,-0.012000,0.999000,192.000000,0.000000,0.000000,0.000000,0.000000,0.000000,0.000000,0.000000,0.000000,0.000000,1763132963.443652,0.000000
122.000000,22417.078604,34267.660590,21541.694885,11638.285117,33814.568378,32045.316046,17726.743844,16658.039887,35199.460113,33521.760526,15968.309756,2283.789490,20105.662358,30465.293582,18780.695651,23825.439671,0.018000,-0.012000,0.999000,192.000000,0.000000,0.000000,0.000000,0.000000,0.000000,0.000000,0.000000,0.000000,0.000000,1763132963.443673,0.000000
124.000000,22440.413826,34274.142596,21548.065132,11641.324954,33793.445980,32045.941895,17733.114092,16687.700652,35077.017257,33483.293174,15957.670326,2285.555278,20066.591509,30444.417053,18689.902865,23671.391448,0.018000,-0.012000,0.999000,192.000000,0.000000,0.000000,0.000000,0.000000,0.000000,0.000000,0.000000,0.000000,0.000000,1763132963.443694,0.000000
126.000000,22442.336076,34298.841274,21558.503396,11643.828350,33890.027868,32093.707573,17749.676734,16710.611190,35212.021793,33532.355253,15970.030841,2281.777833,20143.459158,30470.881518,18801.750994,23863.817616,0.019000,-0.014000,0.999500,192.000000,0.000000,80.000000,127.500000,64.000000,15.500000,32.000000,0.000000,0.000000,0.000000,1763132963.443714,0.000000
128.000000,22417.190363,34245.599418,21529.960219,11636.966364,33746.954351,32010.536732,17710.158850,16637.789206,35138.015167,33508.572997,15961.179550,2292.529022,20082.282434,30459.169204,18728.593734,23729.885963,0.019000,-0.014000,0.999500,192.000000,0.000000,0.000000,0.000000,0.000000,0.000000,0.000000,0.000000,0.000000,0.000000,1763132963.443735,0.000000
130.000000,22451.209718,34315.314509,21563.845463,11649.796265,33894.855844,32102.111829,17759.109170,16736.114530,35138.149278,33517.916026,15969.360288,2296.798205,20096.475792,30466.567632,18739.724903,23770.186158,0.019000,-0.014000,0.999500,192.000000,0.000000,0.000000,0.000000,0.000000,0.000000,0.000000,0.000000,0.000000,0.000000,1763132963.443755,0.000000
132.000000,22450.606221,34277.115378,21542.119568,11639.134483,33821.206846,32050.725168,17727.347341,16665.259500,35211.328889,33534.992759,15972.310719,2298.251068,20130.651609,30476.692972,18783.534322,23822.690406,0.019000,-0.014000,0.999500,192.000000,0.000000,0.000000,0.000000,0.000000,0.000000,0.000000,0.000000,0.000000,0.000000,1763132963.443776,0.000000
134.000000,22424.007645,34276.198957,21549.428588,11641.727286,33794.764733,32045.517212,17734.991638,16692.618035,35084.929774,33497.307717,15963.906463,2299.838042,20078.952024,30450.116748,18685.097240,23676.353535,0.019000,-0.014000,0.999500,192.000000,0.000000,0.000000,0.000000,0.000000,0.000000,0.000000,0.000000,0.000000,0.000000,1763132963.443796,0.000000
136.000000,22444.347733,34302.037573,21562.146731,11643.336611,33897.605109,32094.109904,17752.090723,16714.343931,35221.990671,33535.059814,15974.456486,2289.377426,20149.561185,30479.129312,18800.275779,23865.046962,0.018500,-0.016000,1.001750,192.000000,0.000000,72.000000,127.500000,56.000000,15.500000,48.000000,0.000000,0.000000,0.000000,1763132963.443817,0.000000
138.000000,22411.870648,34240.838497,21534.341161,11633.412437,33749.256581,32019.812705,17709.443594,16639.040904,35137.836354,33509.288253,15963.615890,2295.993542,20078.728506,30451.949591,18730.225412,23727.091995,0.018500,-0.016000,1.001750,192.000000,0.000000,0.000000,0.000000,0.000000,0.000000,0.000000,0.000000,0.000000,0.000000,1763132963.443837,0.000000
140.000000,22460.128064,34308.050192,21563.465484,11644.275384,33893.425333,32109.622015,17754.437656,16736.092178,35133.120135,33513.311567,15964.264091,2289.891516,20096.676957,30458.968038,18739.389627,23773.449513,0.018500,-0.016000,1.001750,192.000000,0.000000,0.000000,0.000000,0.000000,0.000000,0.000000,0.000000,0.000000,0.000000,1763132963.443858,0.000000
142.000000,22430.266134,34275.662515,21539.660876,11636.072294,33821.408012,32051.172203,17722.720530,16664.901872,35201.762343,33528.220180,15965.135809,2288.684522,20124.929562,30473.586079,18782.595549,23825.149098,0.018500,-0.016000,1.001750,192.000000,0.000000,0.000000,0.000000,0.000000,0.000000,0.000000,0.000000,0.000000,0.000000,1763132963.443878,0.000000
144.000000,22425.371102,34285.586689,21541.918402,11638.776855,33795.301175,32050.993389,17729.940144,16689.689957,35066.802510,33495.944261,15958.430285,2293.199574,20065.160998,30447.434538,18684.896074,23679.549835,0.018500,-0.016000,1.001750,192.000000,0.000000,0.000000,0.000000,0.000000,0.000000,0.000000,0.000000,0.000000,0.000000,1763132963.443898,0.000000
146.000000,22446.895831,34292.292213,21555.262393,11644.968289,33889.156150,32101.329518,17747.307449,16707.906629,35202.634061,33533.606950,15972.020146,2282.940123,20124.393120,30482.035039,18800.298131,23866.388067,0.016250,-0.016000,1.002875,192.000000,0.000000,56.000000,127.500000,64.000000,15.500000,48.000000,0.000000,0.000000,0.000000,1763132963.443930,0.000000
148.000000,22412.496497,34228.254465,21532.262448,11636.832254,33748.831898,32023.612502,17707.521344,16632.245974,35124.268845,33505.019069,15953.021163,2290.383254,20087.803315,30458.163376,18731.097130,23730.400053,0.016250,-0.016000,1.002875,192.000000,0.000000,0.000000,0.000000,0.000000,0.000000,0.000000,0.000000,0.000000,0.000000,1763132963.443950,0.000000
150.000000,22445.197099,34303.781009,21563.621946,11646.309393,33897.180426,32111.521913,17754.504711,16729.140786,35121.519580,33508.774162,15960.106666,2284.035359,20100.834382,30465.785320,18735.768644,23772.555443,0.016250,-0.016000,1.002875,192.000000,0.000000,0.000000,0.000000,0.000000,0.000000,0.000000,0.000000,0.000000,0.000000,1763132963.443971,0.000000
152.000000,22432.478956,34270.611020,21542.521899,11637.346344,33830.259303,32053.496784,17723.167565,16663.918396,35198.074305,33531.260017,15960.732515,2288.639818,20133.646743,30481.789170,18787.445877,23822.466889,0.016250,-0.016000,1.002875,192.000000,0.000000,0.000000,0.000000,0.000000,0.000000,0.000000,0.000000,0.000000,0.000000,1763132963.443991,0.000000
154.000000,22443.073683,34279.350552,21546.545213,11639.335649,33803.325451,32058.302409,17728.330818,16694.562637,35079.632411,33501.532197,15956.955070,2296.574688,20090.150248,30458.342190,18689.858161,23673.917195,0.016250,-0.016000,1.002875,192.000000,0.000000,0.000000,0.000000,0.000000,0.000000,0.000000,0.000000,0.000000,0.000000,1763132963.444012,0.000000
156.000000,22448.594564,34303.512788,21557.095236,11639.313297,33903.394211,32101.418925,17745.787531,16718.568411,35209.808971,33538.881962,15977.518675,2290.047978,20129.444615,30475.888309,18800.208724,23863.348229,0.016125,-0.016000,1.003437,192.000000,0.000000,64.000000,127.500000,64.000000,15.500000,48.000000,0.000000,0.000000,0.000000,1763132963.444032,0.000000
158.000000,22418.732633,34240.860849,21530.966047,11631.423131,33752.318770,32014.001252,17707.521344,16647.981602,35136.495249,33507.857741,15964.174684,2295.144176,20095.782887,30456.844623,18732.527641,23728.634265,0.016125,-0.016000,1.003437,192.000000,0.000000,0.000000,0.000000,0.000000,0.000000,0.000000,0.000000,0.000000,0.000000,1763132963.444052,0.000000
160.000000,22459.546919,34320.254245,21564.404257,11643.090742,33892.218339,32101.888311,17754.907042,16743.736475,35128.560380,33515.323224,15970.611986,2296.552336,20101.169658,30458.297486,18736.394493,23766.095789,0.016125,-0.016000,1.003437,192.000000,0.000000,0.000000,0.000000,0.000000,0.000000,0.000000,0.000000,0.000000,0.000000,1763132963.444072,0.000000
162.000000,22444.414788,34265.000733,21548.869794,11633.121864,33826.660672,32051.440424,17724.396911,16672.814390,35201.047087,33534.322206,15971.617814,2296.038246,20132.082120,30472.759065,18789.882218,23819.874086,0.016125,-0.016000,1.003437,192.000000,0.000000,0.000000,0.000000,0.000000,0.000000,0.000000,0.000000,0.000000,0.000000,1763132963.444081,0.000000
164.000000,22439.452701,34265.581878,21548.780387,11635.602908,33793.758904,32045.852488,17729.113129,16692.975663,35074.759731,33493.217348,15957.446809,2295.859432,20068.312593,30442.651265,18686.237179,23675.079486,0.016125,-0.016000,1.003437,192.000000,0.000000,0.000000,0.000000,0.000000,0.000000,0.000000,0.000000,0.000000,0.000000,1763132963.444090,0.000000
166.000000,22458.250518,34303.423381,21559.732742,11638.620393,33891.346620,32093.081724,17748.559147,16717.964914,35211.708869,33537.138526,15970.589634,2285.622333,20133.467929,30479.665754,18803.673244,23857.670886,0.016063,-0.017000,1.004719,192.000000,0.000000,64.000000,127.500000,56.000000,15.500000,56.000000,0.000000,0.000000,0.000000,1763132963.444099,0.000000
168.000000,22412.094165,34234.624712,21526.294533,11626.796320,33742.036968,32008.972109,17708.102489,16640.337305,35130.527333,33508.774162,15959.369059,2295.121824,20094.866466,30454.385931,18733.153490,23724.253324,0.016063,-0.017000,1.004719,192.000000,0.000000,0.000000,0.000000,0.000000,0.000000,0.000000,0.000000,0.000000,0.000000,1763132963.444108,0.000000
170.000000,22446.649962,34299.243605,21555.351800,11638.262765,33881.824777,32091.628860,17755.398781,16735.443978,35109.427286,33502.336860,15963.370021,2284.013007,20101.214361,30457.358713,18735.254554,23764.240594,0.016063,-0.017000,1.004719,192.000000,0.000000,0.000000,0.000000,0.000000,0.000000,0.000000,0.000000,0.000000,0.000000,1763132963.444117,0.000000
172.000000,22424.588790,34254.383654,21537.962143,11632.965402,33813.227274,32056.067235,17726.453272,16667.919358,35183.188043,33520.575883,15963.951166,2286.359940,20113.329007,30462.633725,18782.573197,23816.387214,0.016063,-0.017000,1.004719,192.000000,0.000000,0.000000,0.000000,0.000000,0.000000,0.000000,0.000000,0.000000,0.000000,1763132963.444126,0.000000
174.000000,22432.881288,34257.244677,21538.945620,11637.771027,33778.894994,32044.220810,17729.537812,16686.963044,35053.659684,33484.097837,15950.450712,2289.623295,20056.890852,30441.533678,18681.476257,23671.458503,0.016063,-0.017000,1.004719,192.000000,0.000000,0.000000,0.000000,0.000000,0.000000,0.000000,0.000000,0.000000,0.000000,1763132963.444136,0.000000
176.000000,22435.094110,34291.621660,21555.754132,11644.074219,33884.059952,32085.213910,17750.369638,16712.555791,35186.719619,33524.710956,15963.504131,2282.537792,20113.708986,30470.747408,18792.720889,23860.353096,0.017031,-0.015500,1.007359,192.000000,0.000000,72.000000,127.500000,72.000000,15.500000,72.000000,0.000000,0.000000,0.000000,1763132963.444145,0.000000
178.000000,22411.602427,34236.859886,21532.418911,11635.245280,33737.387805,32007.183970,17713.131632,16640.046732,35118.882074,33499.185264,15956.195111,2290.852641,20082.215379,30450.206155,18722.201135,23720.989969,0.017031,-0.015500,1.007359,192.000000,0.000000,0.000000,0.000000,0.000000,0.000000,0.000000,0.000000,0.000000,0.000000,1763132963.444155,0.000000
180.000000,22447.119349,34299.444771,21562.750228,11645.549434,33876.728580,32092.835855,17759.802074,16737.053303,35116.423382,33501.979232,15961.984213,2288.304542,20109.417452,30456.442291,18728.839604,23762.072475,0.017031,-0.015500,1.007359,192.000000,0.000000,0.000000,0.000000,0.000000,0.000000,0.000000,0.000000,0.000000,0.000000,1763132963.444164,0.000000
182.000000,22431.137852,34264.777215,21540.957277,11637.659268,33809.338070,32048.668808,17728.017894,16667.561730,35190.295898,33520.754697,15963.839407,2289.824461,20106.087042,30466.075893,18778.348717,23823.293903,0.017031,-0.015500,1.007359,192.000000,0.000000,0.000000,0.000000,0.000000,0.000000,0.000000,0.000000,0.000000,0.000000,1763132963.444173,0.000000
184.000000,22427.293352,34267.213555,21540.331428,11640.699105,33774.156424,32043.684369,17732.577650,16689.801716,35060.119338,33489.775180,15950.428361,2294.048940,20062.948175,30450.519079,18676.067135,23671.704372,0.017031,-0.015500,1.007359,192.000000,0.000000,0.000000,0.000000,0.000000,0.000000,0.000000,0.000000,0.000000,0.000000,1763132963.444182,0.000000
186.000000,22435.719959,34286.480759,21552.691943,11639.290945,33875.342771,32088.432561,17750.771970,16710.119451,35194.609784,33527.214352,15966.231044,2285.287057,20115.295960,30467.104073,18787.200008,23865.650459,0.017031,-0.015500,1.007359,192.000000,0.000000,0.000000,0.000000,0.000000,0.000000,0.000000,0.000000,0.000000,0.000000,1763132963.444191,0.000000
188.000000,22398.258436,34230.199066,21526.272181,11632.317201,33732.045738,32008.860351,17710.918809,16634.682314,35118.815019,33500.928700,15949.333125,2291.322028,20084.450553,30449.289733,18725.129214,23727.315513,0.026000,-0.008000,1.008000,192.000000,0.000000,104.000000,127.500000,96.000000,15.500000,64.000000,0.000000,0.000000,0.000000,1763132963.444200,0.000000
190.000000,22440.525584,34293.610965,21560.582109,11642.397838,33879.209623,32091.897081,17755.622298,16728.716103,35105.761600,33501.711011,15957.826788,2287.186955,20078.259120,30452.195460,18724.525717,23770.275565,0.026000,-0.008000,1.008000,192.000000,0.000000,0.000000,0.000000,0.000000,0.000000,0.000000,0.000000,0.000000,0.000000,1763132963.444209,0.000000
192.000000,22422.107747,34249.533325,21543.661838,11632.428960,33808.846332,32044.265514,17725.134519,16659.872730,35186.809026,33518.184247,15959.011431,2280.392025,20127.343551,30461.538489,18779.488656,23822.802165,0.026000,-0.008000,1.008000,192.000000,0.000000,0.000000,0.000000,0.000000,0.000000,0.000000,0.000000,0.000000,0.000000,1763132963.444218,0.000000
194.000000,22441.643172,34257.915230,21547.841614,11636.653440,33779.833767,32052.446252,17730.856565,16685.241960,35061.236925,33485.774217,15953.177625,2284.415339,20053.135759,30440.349035,18679.554007,23670.452675,0.026000,-0.008000,1.008000,192.000000,0.000000,0.000000,0.000000,0.000000,0.000000,0.000000,0.000000,0.000000,0.000000,1763132963.444228,0.000000
196.000000,22430.824927,34286.346648,21561.006792,11639.134483,33880.953059,32089.661907,17750.168473,16711.125280,35195.481502,33528.019014,15972.981271,2284.504746,20113.798393,30466.768797,18792.855000,23858.542604,0.026000,-0.008000,1.008000,192.000000,0.000000,0.000000,0.000000,0.000000,0.000000,0.000000,0.000000,0.000000,0.000000,1763132963.444237,0.000000
198.000000,22423.337093,34242.470174,21534.005884,11632.093684,33738.795965,32007.206322,17710.739995,16637.856261,35128.538028,33502.426267,15959.659631,2289.198612,20085.746954,30447.613352,18727.029112,23725.572077,0.022000,-0.016000,1.010000,192.000000,0.000000,88.000000,127.500000,64.000000,15.500000,72.000000,0.000000,0.000000,0.000000,1763132963.444246,0.000000
200.000000,22446.158224,34299.265957,21563.107856,11644.297736,33879.567251,32094.266366,17757.969231,16735.667495,35120.737269,33507.880093,15964.420553,2283.498917,20088.362108,30456.107015,18727.967885,23763.815911,0.022000,-0.016000,1.010000,192.000000,0.000000,0.000000,0.000000,0.000000,0.000000,0.000000,0.000000,0.000000,0.000000,1763132963.444255,0.000000
202.000000,22424.521735,34263.793738,21546.768730,11638.910966,33821.832695,32059.397645,17729.090778,16672.300300,35196.353221,33527.192000,15974.590597,2291.299676,20118.402853,30459.236259,18784.115468,23818.354168,0.022000,-0.016000,1.010000,192.000000,0.000000,0.000000,0.000000,0.000000,0.000000,0.000000,0.000000,0.000000,0.000000,1763132963.444264,0.000000
204.000000,22448.818081,34268.711122,21548.534518,11641.928451,33784.460578,32052.602715,17730.230716,16689.622902,35072.233984,33492.390334,15963.481780,2298.362827,20076.493332,30441.667788,18687.421821,23669.379791,0.022000,-0.016000,1.010000,192.000000,0.000000,0.000000,0.000000,0.000000,0.000000,0.000000,0.000000,0.000000,0.000000,1763132963.444273,0.000000
206.000000,22446.202927,34300.919986,21564.068981,11642.621355,33885.602222,32095.160436,17749.006182,16712.622847,35210.390116,33530.187134,15969.829675,2286.896382,20147.326010,30468.288716,18799.269950,23863.214119,0.022000,-0.016000,1.010000,192.000000,0.000000,0.000000,0.000000,0.000000,0.000000,0.000000,0.000000,0.000000,0.000000,1763132963.924234,0.000000
208.000000,22408.942569,34233.998863,21538.140957,11632.563070,33743.467479,32017.309310,17708.370710,16639.152663,35135.869400,33507.522465,15964.509960,2289.422129,20111.473812,30451.815480,18732.013551,23728.500155,0.014000,-0.020000,1.012000,192.000000,0.000000,56.000000,127.500000,48.000000,15.500000,80.000000,0.000000,0.000000,0.000000,1763132963.924343,0.000000
210.000000,22439.363294,34305.725611,21569.098123,11644.163626,33883.635269,32103.609395,17757.343383,16739.936678,35117.160990,33505.019069,15972.556588,2289.600943,20083.265911,30454.587097,18735.098092,23761.021943,0.014000,-0.020000,1.012000,192.000000,0.000000,0.000000,0.000000,0.000000,0.000000,0.000000,0.000000,0.000000,0.000000,1763132963.924433,0.000000
212.000000,22425.192288,34266.587706,21549.450940,11634.842948,33819.463410,32050.591058,17727.347341,16669.931015,35199.929500,33524.554494,15972.914216,2295.010065,20113.887800,30466.254707,18783.579026,23821.438708,0.014000,-0.020000,1.012000,192.000000,0.000000,0.000000,0.000000,0.000000,0.000000,0.000000,0.000000,0.000000,0.000000,1763132963.924523,0.000000
214.000000,22424.365273,34265.894802,21549.674457,11638.195710,33779.900823,32043.974941,17730.901269,16687.655948,35069.238850,33486.400066,15953.043515,2291.590249,20068.022021,30437.175088,18685.186647,23673.961899,0.014000,-0.020000,1.012000,192.000000,0.000000,0.000000,0.000000,0.000000,0.000000,0.000000,0.000000,0.000000,0.000000,1763132963.924613,0.000000
216.000000,22437.709264,34300.070620,21561.990268,11640.520291,33886.093961,32089.348982,17752.090723,16718.076672,35201.270604,33525.493267,15969.494399,2287.388121,20126.784757,30469.830986,18794.285511,23862.498863,0.014000,-0.020000,1.012000,192.000000,0.000000,0.000000,0.000000,0.000000,0.000000,0.000000,0.000000,0.000000,0.000000,1763132963.924702,0.000000
218.000000,22414.597561,34245.934695,21537.269239,11637.838082,33738.460688,32014.917673,17713.332798,16645.902889,35134.237723,33508.975328,15962.163027,2297.044074,20108.523382,30461.516137,18728.750197,23728.813079,0.014000,-0.018000,1.004000,192.000000,0.000000,56.000000,127.500000,56.000000,15.500000,48.000000,0.000000,0.000000,0.000000,1763132963.924766,0.000000
220.000000,22461.670335,34310.955919,21568.785199,11652.813751,33881.310687,32113.578273,17760.830255,16743.624716,35127.219275,33516.418459,15972.422477,2294.697141,20106.019986,30463.863070,18730.225412,23761.759551,0.014000,-0.018000,1.004000,192.000000,0.000000,0.000000,0.000000,0.000000,0.000000,0.000000,0.000000,0.000000,0.000000,1763132963.924787,0.000000
222.000000,22432.210735,34266.543003,21552.021390,11643.269556,33822.883227,32060.559936,17730.878917,16674.870750,35212.893511,33534.746889,15973.964748,2295.613563,20114.893629,30477.855263,18786.395345,23824.232677,0.014000,-0.018000,1.004000,192.000000,0.000000,0.000000,0.000000,0.000000,0.000000,0.000000,0.000000,0.000000,0.000000,1763132963.924807,0.000000
224.000000,22423.828831,34267.615887,21554.301268,11646.219986,33789.936756,32050.054616,17733.471719,16693.065070,35083.588670,33492.502092,15961.961861,2301.715589,20089.300882,30448.216849,18684.918426,23672.196111,0.014000,-0.018000,1.004000,192.000000,0.000000,0.000000,0.000000,0.000000,0.000000,0.000000,0.000000,0.000000,0.000000,1763132963.924862,0.000000
226.000000,22438.379817,34307.670213,21567.421742,11647.717553,33897.560405,32105.755163,17752.336592,16715.483870,35215.732183,33530.969445,15973.562416,2290.606772,20125.018969,30474.882480,18798.219418,23859.436674,0.014000,-0.018000,1.004000,192.000000,0.000000,0.000000,0.000000,0.000000,0.000000,0.000000,0.000000,0.000000,0.000000,1763132963.924882,0.000000
228.000000,22406.685043,34254.629523,21538.990323,11637.726323,33752.139956,32014.694156,17711.835231,16637.208061,35139.155106,33504.370869,15961.738343,2286.024664,20087.021004,30455.257649,18731.141833,23729.349521,0.018000,-0.018000,1.006000,192.000000,0.000000,72.000000,127.500000,56.000000,15.500000,56.000000,0.000000,0.000000,0.000000,1763132963.924903,0.000000
230.000000,22462.452646,34316.208579,21568.919309,11650.980908,33893.447684,32112.259521,17758.438618,16736.852138,35129.990891,33510.159971,15963.571186,2286.985789,20098.018062,30462.924297,18731.119481,23761.580737,0.018000,-0.018000,1.006000,192.000000,0.000000,0.000000,0.000000,0.000000,0.000000,0.000000,0.000000,0.000000,0.000000,1763132963.924924,0.000000
232.000000,22438.692741,34279.261146,21549.272126,11642.531948,33826.772431,32065.969058,17729.135481,16672.456762,35215.687479,33535.573904,15970.813152,2299.726284,20132.596211,30478.391704,18784.741316,23824.009159,0.018000,-0.018000,1.006000,192.000000,0.000000,0.000000,0.000000,0.000000,0.000000,0.000000,0.000000,0.000000,0.000000,1763132963.924944,0.000000
234.000000,22421.727767,34275.640163,21551.507300,11642.688411,33788.282727,32053.675598,17732.555298,16689.064108,35081.621716,33499.341726,15962.230082,2303.123749,20077.968547,30454.832966,18685.723088,23673.179588,0.018000,-0.018000,1.006000,192.000000,0.000000,0.000000,0.000000,0.000000,0.000000,0.000000,0.000000,0.000000,0.000000,1763132963.924965,0.000000
236.000000,22452.640230,34309.905387,21566.617080,11644.655364,33893.000650,32102.000070,17752.828330,16714.612152,35214.234616,33534.478669,15972.869512,2290.047978,20135.189013,30478.749332,18798.286474,23858.408494,0.018000,-0.018000,1.006000,192.000000,0.000000,0.000000,0.000000,0.000000,0.000000,0.000000,0.000000,0.000000,0.000000,1763132963.924974,0.000000
238.000000,22396.850276,34249.667436,21542.566603,11635.915832,33748.228401,32021.489086,17712.483431,16642.214852,35143.737214,33505.287290,15957.223291,2296.619391,20107.852829,30451.144928,18730.806557,23729.170707,0.016000,-0.020000,1.008000,192.000000,0.000000,64.000000,127.500000,48.000000,15.500000,64.000000,0.000000,0.000000,0.000000,1763132963.924984,0.000000
240.000000,22429.908506,34319.561341,21575.066039,11644.297736,33884.641097,32100.413096,17759.198577,16736.650972,35124.112382,33507.813037,15968.153294,2288.773929,20093.950044,30455.838794,18728.929011,23756.104559,0.016000,-0.020000,1.008000,192.000000,0.000000,0.000000,0.000000,0.000000,0.000000,0.000000,0.000000,0.000000,0.000000,1763132963.924993,0.000000
242.000000,22421.638360,34272.354456,21550.367361,11634.351210,33815.283634,32054.547316,17728.621391,16666.153570,35195.459151,33520.397070,15966.543969,2285.197650,20116.458251,30460.353847,18785.098944,23828.345398,0.016000,-0.020000,1.008000,192.000000,0.000000,0.000000,0.000000,0.000000,0.000000,0.000000,0.000000,0.000000,0.000000,1763132963.925003,0.000000
244.000000,22429.953209,34268.442901,21549.562699,11641.660230,33784.661744,32056.022532,17733.292905,16691.165172,35075.452635,33489.395200,15954.026992,2295.032417,20061.674125,30441.265457,18683.599673,23670.631489,0.016000,-0.020000,1.008000,192.000000,0.000000,0.000000,0.000000,0.000000,0.000000,0.000000,0.000000,0.000000,0.000000,1763132963.925012,0.000000
246.000000,22448.415750,34309.078373,21567.600556,11646.242338,33895.392286,32104.592872,17755.801112,16725.296286,35214.547540,33535.819773,15976.065812,2291.523193,20127.723530,30473.675486,18792.027985,23856.530947,0.016000,-0.020000,1.008000,192.000000,0.000000,0.000000,0.000000,0.000000,0.000000,0.000000,0.000000,0.000000,0.000000,1763132963.925021,0.000000
248.000000,22407.780279,34251.589686,21536.911611,11635.938184,33748.898953,32013.554217,17712.908115,16645.142930,35149.593371,33515.233817,15969.002660,2299.346304,20116.838231,30455.928201,18732.125310,23725.370911,0.016000,-0.018000,1.010000,192.000000,0.000000,64.000000,127.500000,56.000000,15.500000,72.000000,0.000000,0.000000,0.000000,1763132963.925030,0.000000
250.000000,22456.060047,34311.939396,21568.852254,11648.499864,33884.529338,32101.463628,17758.796246,16740.204899,35123.084202,33509.981157,15971.327242,2289.958571,20085.590492,30460.711475,18727.878479,23751.723618,0.016000,-0.018000,1.010000,192.000000,0.000000,0.000000,0.000000,0.000000,0.000000,0.000000,0.000000,0.000000,0.000000,1763132963.925039,0.000000
252.000000,22425.281695,34279.417608,21549.294478,11636.899309,33814.277806,32049.875802,17728.800205,16671.070954,35204.042221,33524.174514,15966.499265,2291.456138,20114.312484,30466.433521,18783.824895,23827.428976,0.016000,-0.018000,1.010000,192.000000,0.000000,0.000000,0.000000,0.000000,0.000000,0.000000,0.000000,0.000000,0.000000,1763132963.925048,0.000000
254.000000,22402.259398,34251.969666,21552.535481,11640.229719,33775.721046,32043.147927,17733.717589,16691.835724,35066.646047,33485.304831,15956.664497,2293.378388,20088.630329,30436.035149,18682.660899,23670.206805,0.016000,-0.018000,1.010000,192.000000,0.000000,0.000000,0.000000,0.000000,0.000000,0.000000,0.000000,0.000000,0.000000,1763132963.925057,0.000000
0.000000,22426.779261,34291.442846,21574.015507,11640.721457,33884.596394,32097.775590,17756.382258,16719.216611,35198.029601,33523.816886,15970.187303,2286.248182,20096.140515,30464.913602,18792.877351,23854.228718,0.016000,-0.018000,1.010000,192.000000,0.000000,0.000000,0.000000,0.000000,0.000000,0.000000,0.000000,0.000000,0.000000,1763132963.925066,0.000000
2.000000,22384.936796,34221.615997,21550.367361,11630.462006,33739.757090,32014.135362,17715.523269,16638.169186,35125.922874,33498.358249,15958.095009,2289.623295,20074.079344,30443.947666,18732.617048,23723.471013,0.017000,-0.016000,1.007000,192.000000,0.000000,72.000000,127.500000,72.000000,15.500000,48.000000,0.000000,0.000000,0.000000,1763132963.925075,0.000000
4.000000,22424.186459,34289.922928,21580.519865,11642.643707,33882.115350,32093.819331,17760.696144,16731.733588,35110.410763,33500.124037,15962.453599,2286.136423,20098.867428,30445.109957,18732.661752,23749.667257,0.017000,-0.016000,1.007000,192.000000,0.000000,0.000000,0.000000,0.000000,0.000000,0.000000,0.000000,0.000000,0.000000,1763132963.925085,0.000000
6.000000,22406.528581,34245.621770,21556.536443,11633.546547,33825.364271,32044.153755,17730.007199,16664.432486,35194.229805,33515.390279,15962.587710,2281.375501,20111.026777,30462.387855,18788.429354,23827.071348,0.017000,-0.016000,1.007000,192.000000,0.000000,0.000000,0.000000,0.000000,0.000000,0.000000,0.000000,0.000000,0.000000,1763132963.925094,0.000000
8.000000,22408.830811,34241.687863,21554.100103,11640.721457,33788.439189,32039.258723,17735.170452,16687.745355,35074.469158,33478.264031,15952.976460,2287.879859,20078.080306,30436.884515,18685.454868,23668.552776,0.017000,-0.016000,1.007000,192.000000,0.000000,0.000000,0.000000,0.000000,0.000000,0.000000,0.000000,0.000000,0.000000,1763132963.925103,0.000000
10.000000,22416.162183,34266.878279,21564.985402,11644.297736,33889.469074,32101.284814,17758.192749,16718.501355,35207.082058,33514.093878,15970.299062,2279.185030,20123.096719,30467.729922,18792.363261,23850.183052,0.017000,-0.016000,1.007000,192.000000,0.000000,0.000000,0.000000,0.000000,0.000000,0.000000,0.000000,0.000000,0.000000,1763132963.925112,0.000000
12.000000,22377.404258,34196.246767,21538.543289,11636.765198,33742.394595,32009.173275,17719.121900,16641.723113,35141.390281,33489.462255,15961.425419,2282.113109,20096.811068,30449.423844,18729.532508,23727.986065,0.017500,-0.014000,1.008500,192.000000,0.000000,72.000000,127.500000,80.000000,15.500000,72.000000,0.000000,0.000000,0.000000,1763132963.925121,0.000000
14.000000,22390.658842,34233.104793,21569.232234,11646.801132,33882.562385,32104.369355,17763.646574,16732.270030,35112.556531,33479.851005,15963.079448,2275.854620,20101.370824,30460.487957,18724.458662,23757.423312,0.017500,-0.014000,1.008500,192.000000,0.000000,0.000000,0.000000,0.000000,0.000000,0.000000,0.000000,0.000000,0.000000,1763132963.925130,0.000000
16.000000,22327.358702,34168.955287,21553.697771,11636.921661,33827.688852,32062.996276,17734.522251,16660.029192,35187.144302,33488.612889,15953.021163,2271.898362,20122.314408,30459.526832,18786.820029,23820.298770,0.017500,-0.014000,1.008500,192.000000,0.000000,0.000000,0.000000,0.000000,0.000000,0.000000,0.000000,0.000000,0.000000,1763132963.925140,0.000000
18.000000,22332.857231,34156.103034,21556.469388,11638.866262,33788.349782,32055.821366,17736.042170,16674.379012,35044.003730,33452.134842,15941.264146,2274.737033,20061.629422,30436.079852,18689.969920,23665.803512,0.017500,-0.014000,1.008500,192.000000,0.000000,0.000000,0.000000,0.000000,0.000000,0.000000,0.000000,0.000000,0.000000,1763132963.925148,0.000000
20.000000,22329.906801,34190.792941,21572.741458,11642.263727,33904.109467,32110.605491,17757.969231,16706.990207,35178.985915,33496.413648,15957.044477,2265.304597,20136.686580,30468.244012,18803.226209,23851.658267,0.017500,-0.014000,1.008500,192.000000,0.000000,0.000000,0.000000,0.000000,0.000000,0.000000,0.000000,0.000000,0.000000,1763132963.925157,0.000000
22.000000,22296.803867,34114.573492,21540.689056,11633.613602,33759.292514,32028.284017,17713.198687,16625.808671,35108.689679,33472.162005,15945.645087,2270.512554,20091.021966,30455.615277,18744.329362,23733.283428,0.015750,-0.015000,1.006250,192.000000,0.000000,56.000000,127.500000,64.000000,15.500000,48.000000,0.000000,0.000000,0.000000,1763132963.925167,0.000000
24.000000,22356.259508,34190.189444,21570.260414,11646.734076,33895.951080,32111.276044,17759.176226,16723.731664,35086.561452,33468.697485,15942.739361,2267.137440,20096.408736,30459.124501,18741.423636,23756.305725,0.015750,-0.015000,1.006250,192.000000,0.000000,0.000000,0.000000,0.000000,0.000000,0.000000,0.000000,0.000000,0.000000,1763132963.925176,0.000000
26.000000,22325.883487,34152.549106,21556.290574,11638.598041,33844.407957,32069.098302,17731.907097,16661.146779,35181.511662,33493.284403,15949.757808,2266.422184,20136.932449,30473.563728,18796.587741,23830.647627,0.015750,-0.015000,1.006250,192.000000,0.000000,0.000000,0.000000,0.000000,0.000000,0.000000,0.000000,0.000000,0.000000,1763132963.925185,0.000000
28.000000,22337.953429,34163.680275,21559.844501,11637.502806,33798.095143,32059.375293,17731.683580,16673.194369,35059.426434,33457.722778,15937.889032,2272.658321,20084.428201,30443.768852,18695.088469,23671.212634,0.015750,-0.015000,1.006250,192.000000,0.000000,0.000000,0.000000,0.000000,0.000000,0.000000,0.000000,0.000000,0.000000,1763132963.925195,0.000000
30.000000,22358.807607,34207.556749,21578.932891,11637.771027,33898.052144,32112.036003,17755.041153,16704.196239,35193.782770,33497.352421,15954.406971,2265.662225,20155.417342,30475.396571,18802.600360,23854.474587,0.015750,-0.015000,1.006250,192.000000,0.000000,0.000000,0.000000,0.000000,0.000000,0.000000,0.000000,0.000000,0.000000,1763132963.925204,0.000000
32.000000,22335.137109,34160.126348,21545.002943,11631.020800,33745.300322,32019.946816,17714.271571,16629.519061,35126.034632,33477.213499,15949.981326,2270.065519,20099.515629,30443.277114,18737.400322,23732.881097,0.015875,-0.015500,1.009125,192.000000,0.000000,64.000000,127.500000,64.000000,15.500000,80.000000,0.000000,0.000000,0.000000,1763132963.925213,0.000000
34.000000,22379.818246,34231.517819,21571.065077,11648.835140,33877.533242,32113.377108,17762.618394,16731.554774,35101.671231,33483.136711,15955.502207,2272.054824,20098.487449,30455.883498,18731.901793,23752.327115,0.015875,-0.015500,1.009125,192.000000,0.000000,0.000000,0.000000,0.000000,0.000000,0.000000,0.000000,0.000000,0.000000,1763132963.925222,0.000000
36.000000,22362.383886,34207.847322,21546.969896,11643.046039,33819.016375,32058.861203,17734.164624,16668.411096,35193.514549,33507.656575,15963.682945,2277.866277,20107.003463,30473.697838,18785.657738,23828.479508,0.015875,-0.015500,1.009125,192.000000,0.000000,0.000000,0.000000,0.000000,0.000000,0.000000,0.000000,0.000000,0.000000,1763132963.925231,0.000000
38.000000,22383.081601,34220.543113,21545.181757,11644.677716,33780.258451,32048.221773,17735.349266,16686.337195,35069.618829,33479.180453,15950.897747,2280.548487,20060.265965,30446.763986,18684.538446,23675.235948,0.015875,-0.015500,1.009125,192.000000,0.000000,0.000000,0.000000,0.000000,0.000000,0.000000,0.000000,0.000000,0.000000,1763132963.925240,0.000000
40.000000,22408.853162,34253.444881,21557.676382,11649.326879,33891.570138,32097.730887,17755.152912,16717.204954,35202.254081,33524.442735,15967.505094,2278.469775,20123.946085,30482.437370,18796.319520,23859.213157,0.015875,-0.015500,1.009125,192.000000,0.000000,0.000000,0.000000,0.000000,0.000000,0.000000,0.000000,0.000000,0.000000,1763132963.925249,0.000000
42.000000,22383.550988,34206.372107,21529.334370,11636.407570,33749.815375,32028.485182,17712.304617,16636.045770,35140.965598,33503.141523,15954.272861,2288.125728,20086.439858,30462.387855,18736.483900,23736.524431,0.015938,-0.015750,1.007563,192.000000,0.000000,64.000000,127.500000,64.000000,15.500000,56.000000,0.000000,0.000000,0.000000,1763132963.925258,0.000000
44.000000,22397.721994,34261.267991,21558.592803,11645.057696,33880.304859,32105.442239,17756.114037,16728.894917,35117.250397,33497.777104,15958.273823,2280.839059,20089.166771,30460.800881,18730.739502,23756.104559,0.015938,-0.015750,1.007563,192.000000,0.000000,0.000000,0.000000,0.000000,0.000000,0.000000,0.000000,0.000000,0.000000,1763132963.925267,0.000000
46.000000,22389.429496,34235.138802,21545.181757,11640.430884,33838.507097,32063.108035,17730.186013,16667.382916,35205.338622,33524.442735,15962.274785,2288.393949,20149.717647,30482.817350,18793.190276,23822.466889,0.015938,-0.015750,1.007563,192.000000,0.000000,0.000000,0.000000,0.000000,0.000000,0.000000,0.000000,0.000000,0.000000,1763132963.925276,0.000000
48.000000,22407.936741,34241.419642,21551.127321,11642.241376,33794.272994,32058.883555,17731.281248,16686.381899,35081.979344,33494.737267,15953.267032,2294.652438,20066.345640,30452.128405,18689.187609,23672.285518,0.015938,-0.015750,1.007563,192.000000,0.000000,0.000000,0.000000,0.000000,0.000000,0.000000,0.000000,0.000000,0.000000,1763132963.925285,0.000000
50.000000,22425.773433,34278.568241,21570.059248,11644.968289,33905.405868,32109.800829,17753.811807,16718.948390,35221.163657,33537.876134,15970.433172,2289.399778,20122.716740,30493.456780,18799.940503,23852.529985,0.015938,-0.015750,1.007563,192.000000,0.000000,0.000000,0.000000,0.000000,0.000000,0.000000,0.000000,0.000000,0.000000,1763132963.925294,0.000000
52.000000,22400.024223,34212.630595,21548.936850,11635.044114,33753.302247,32020.885589,17710.963513,16638.370352,35153.527278,33511.612834,15956.619794,2290.919696,20098.599207,30460.331495,18742.429464,23737.574963,0.015969,-0.013875,1.003781,192.000000,0.000000,64.000000,127.500000,80.000000,15.500000,32.000000,0.000000,0.000000,0.000000,1763132963.925303,0.000000
54.000000,22434.043578,34285.743151,21584.587882,11645.616489,33884.596394,32105.978680,17755.577595,16731.890050,35136.249380,33508.885921,15963.861759,2287.745748,20099.917960,30462.901945,18735.366313,23755.054027,0.015969,-0.013875,1.003781,192.000000,0.000000,0.000000,0.000000,0.000000,0.000000,0.000000,0.000000,0.000000,0.000000,1763132963.925312,0.000000
56.000000,22408.853162,34249.689788,21565.432437,11638.530986,33828.560570,32063.599773,17729.806033,16670.154532,35217.900302,33529.293064,15970.880207,2282.649551,20132.529155,30473.988411,18796.654796,23831.295828,0.015969,-0.013875,1.003781,192.000000,0.000000,0.000000,0.000000,0.000000,0.000000,0.000000,0.000000,0.000000,0.000000,1763132963.925321,0.000000
58.000000,22421.616008,34246.381729,21563.241966,11644.364791,33786.539291,32063.152738,17731.750635,16687.074803,35094.205748,33497.754752,15963.012393,2293.020760,20106.042338,30457.671637,18695.267283,23674.744210,0.015969,-0.013875,1.003781,192.000000,0.000000,0.000000,0.000000,0.000000,0.000000,0.000000,0.000000,0.000000,0.000000,1763132963.925330,0.000000
60.000000,22433.753006,34292.314564,21577.032992,11652.545530,33909.943272,32112.974776,17755.041153,16726.704446,35229.702023,33541.653578,15979.709146,2291.590249,20152.802188,30488.159417,18807.204820,23862.029476,0.015969,-0.013875,1.003781,192.000000,0.000000,0.000000,0.000000,0.000000,0.000000,0.000000,0.000000,0.000000,0.000000,1763132963.925339,0.000000
62.000000,22412.831773,34227.203933,21544.198280,11640.967326,33765.863927,32029.669825,17713.288094,16649.255651,35167.698284,33522.654596,15976.065812,2303.570784,20108.121050,30479.308126,18746.296316,23739.385455,0.014984,-0.013938,1.004891,192.000000,0.000000,56.000000,127.500000,72.000000,15.500000,56.000000,0.000000,0.000000,0.000000,1763132963.925348,0.000000
64.000000,22449.354523,34300.495303,21574.149617,11652.925510,33897.985089,32118.719175,17760.785551,16745.412856,35140.898543,33519.435944,15977.585730,2295.926487,20115.832402,30473.943707,18742.451816,23759.569080,0.014984,-0.013938,1.004891,192.000000,0.000000,0.000000,0.000000,0.000000,0.000000,0.000000,0.000000,0.000000,0.000000,1763132963.925357,0.000000
66.000000,22423.024168,34273.963782,21557.855196,11649.304527,33847.738367,32080.251823,17735.796301,16685.331367,35236.809878,33545.542782,15987.375794,2301.313257,20146.431940,30491.154550,18802.578008,23832.324008,0.014984,-0.013938,1.004891,192.000000,0.000000,0.000000,0.000000,0.000000,0.000000,0.000000,0.000000,0.000000,0.000000,1763132963.925366,0.000000
68.000000,22434.110634,34270.320448,21556.156463,11650.556225,33791.859006,32063.197441,17733.874051,16698.250675,35103.347612,33514.093878,15974.322376,2308.711685,20088.742088,30468.758103,18699.067080,23677.314660,0.014984,-0.013938,1.004891,192.000000,0.000000,0.000000,0.000000,0.000000,0.000000,0.000000,0.000000,0.000000,0.000000,1763132963.925375,0.000000
70.000000,22442.716055,34311.581768,21569.589862,11655.607719,33903.081286,32125.715271,17755.488188,16729.811338,35226.170448,33553.008265,15986.235855,2299.838042,20142.341571,30498.083591,18804.790831,23863.638802,0.014984,-0.013938,1.004891,192.000000,0.000000,0.000000,0.000000,0.000000,0.000000,0.000000,0.000000,0.000000,0.000000,1763132964.404794,0.000000
72.000000,22416.430404,34247.387558,21540.912573,11645.415323,33756.252677,32044.556087,17712.438728,16648.629802,35163.496156,33527.102593,15969.673213,2308.242298,20117.352321,30479.866920,18742.921203,23748.348504,0.014984,-0.013938,1.004891,192.000000,0.000000,0.000000,0.000000,0.000000,0.000000,0.000000,0.000000,0.000000,0.000000,1763132964.404897,0.000000
74.000000,22457.535262,34304.563320,21572.003850,11656.792361,33893.291222,32129.425660,17759.310336,16745.479911,35139.065699,33528.734270,15970.768448,2305.761255,20122.470870,30482.616184,18734.405188,23757.557423,0.014000,-0.014000,1.008000,192.000000,0.000000,56.000000,127.500000,72.000000,15.500000,64.000000,0.000000,0.000000,0.000000,1763132964.404986,0.000000
76.000000,22426.891020,34267.794701,21560.470350,11644.275384,33843.223315,32085.079799,17729.001371,16674.826047,35234.105317,33551.086015,15970.857855,2302.296734,20149.471778,30500.497580,18797.414756,23831.698159,0.014000,-0.014000,1.008000,192.000000,0.000000,0.000000,0.000000,0.000000,0.000000,0.000000,0.000000,0.000000,0.000000,1763132964.405075,0.000000
78.000000,22411.200096,34252.819032,21563.465484,11643.269556,33794.921195,32067.176052,17725.000408,16681.732736,35099.592519,33504.661441,15955.435152,2296.418225,20108.299864,30466.098245,18700.788164,23679.728649,0.014000,-0.014000,1.008000,192.000000,0.000000,0.000000,0.000000,0.000000,0.000000,0.000000,0.000000,0.000000,0.000000,1763132964.405162,0.000000
80.000000,22431.383721,34297.634279,21577.301213,11648.097533,33910.367955,32125.715271,17749.967307,16718.635466,35222.303596,33542.212372,15972.847160,2285.912905,20139.592307,30501.548112,18806.198991,23865.784569,0.014000,-0.014000,1.008000,192.000000,0.000000,0.000000,0.000000,0.000000,0.000000,0.000000,0.000000,0.000000,0.000000,1763132964.405249,0.000000
82.000000,22408.517886,34237.038700,21544.131225,11639.358001,33764.478119,32036.643569,17707.856620,16639.175014,35166.714807,33524.308625,15961.492474,2293.132519,20121.263876,30476.044771,18744.575232,23742.134719,0.014000,-0.014000,1.008000,192.000000,0.000000,0.000000,0.000000,0.000000,0.000000,0.000000,0.000000,0.000000,0.000000,1763132964.405310,0.000000
84.000000,22445.107692,34311.648823,21569.589862,11653.327841,33885.915147,32118.272140,17756.941051,16741.277783,35140.406804,33523.995700,15967.996832,2296.552336,20097.503972,30480.738638,18731.432406,23759.166748,0.020000,-0.010000,1.002000,192.000000,0.000000,80.000000,127.500000,88.000000,15.500000,40.000000,0.000000,0.000000,0.000000,1763132964.405332,0.000000
86.000000,22433.685950,34285.005544,21549.294478,11646.912890,33835.623722,32079.447160,17731.862394,16682.962082,35241.771965,33552.851802,15974.456486,2298.407531,20138.340609,30497.591853,18788.764630,23838.493089,0.020000,-0.010000,1.002000,192.000000,0.000000,0.000000,0.000000,0.000000,0.000000,0.000000,0.000000,0.000000,0.000000,1763132964.405353,0.000000
88.000000,22422.755947,34273.181471,21546.701675,11649.416286,33787.008677,32079.625974,17732.555298,16699.480021,35100.620699,33514.272692,15969.941434,2310.119845,20082.528303,30472.781417,18686.751269,23681.114457,0.020000,-0.010000,1.002000,192.000000,0.000000,0.000000,0.000000,0.000000,0.000000,0.000000,0.000000,0.000000,0.000000,1763132964.405375,0.000000
90.000000,22453.377837,34313.101687,21560.425646,11654.333669,33898.476827,32138.031082,17756.337554,16740.741341,35236.854581,33564.944096,15992.360233,2313.383199,20148.957687,30507.337213,18788.921093,23862.096532,0.020000,-0.010000,1.002000,192.000000,0.000000,0.000000,0.000000,0.000000,0.000000,0.000000,0.000000,0.000000,0.000000,1763132964.405396,0.000000
92.000000,22422.375968,34247.856945,21531.234268,11642.643707,33748.563677,32045.561915,17711.365844,16655.692954,35181.310496,33535.752718,15973.294195,2316.177167,20108.635140,30484.091399,18732.527641,23748.415559,0.020000,-0.010000,1.002000,192.000000,0.000000,0.000000,0.000000,0.000000,0.000000,0.000000,0.000000,0.000000,0.000000,1763132964.405418,0.000000
94.000000,22436.681084,34316.923835,21562.683173,11653.864283,33881.735370,32123.390689,17755.488188,16748.206824,35148.252266,33531.170610,15974.322376,2303.883708,20100.566161,30481.967983,18724.704531,23759.256155,0.016000,-0.014000,1.000000,192.000000,0.000000,64.000000,127.500000,72.000000,15.500000,32.000000,0.000000,0.000000,0.000000,1763132964.405439,0.000000
96.000000,22418.531468,34270.611020,21549.763864,11645.191806,33833.030919,32080.095360,17730.565993,16687.588893,35231.020776,33547.643846,15979.060945,2304.733074,20120.481565,30494.015574,18787.982319,23848.260802,0.016000,-0.014000,1.000000,192.000000,0.000000,0.000000,0.000000,0.000000,0.000000,0.000000,0.000000,0.000000,0.000000,1763132964.405460,0.000000
98.000000,22420.811346,34268.107625,21549.316829,11643.984812,33786.651049,32071.914622,17730.208365,16693.400346,35101.425362,33515.703203,15965.895768,2312.109150,20101.817858,30478.995201,18688.114725,23680.108628,0.016000,-0.014000,1.000000,192.000000,0.000000,0.000000,0.000000,0.000000,0.000000,0.000000,0.000000,0.000000,0.000000,1763132964.405481,0.000000
100.000000,22438.089244,34311.626471,21566.795894,11648.276347,33899.393248,32133.448974,17753.051848,16727.576164,35224.806991,33550.393111,15978.323338,2296.194708,20130.785719,30500.207007,18797.839439,23866.522177,0.016000,-0.014000,1.000000,192.000000,0.000000,0.000000,0.000000,0.000000,0.000000,0.000000,0.000000,0.000000,0.000000,1763132964.405503,0.000000
102.000000,22420.833697,34232.277779,21537.403350,11642.420190,33754.062206,32039.728110,17711.276437,16648.674506,35166.848918,33527.907256,15963.302966,2301.156795,20098.621559,30483.040867,18742.027133,23746.113330,0.016000,-0.014000,1.000000,192.000000,0.000000,0.000000,0.000000,0.000000,0.000000,0.000000,0.000000,0.000000,0.000000,1763132964.405524,0.000000
104.000000,22426.756910,34298.148370,21569.142827,11655.428905,33882.942365,32117.355718,17756.561071,16741.925984,35134.327130,33523.414555,15963.682945,2298.899269,20104.522420,30482.929108,18731.231240,23756.730408,0.018000,-0.012000,1.010000,192.000000,0.000000,72.000000,127.500000,80.000000,15.500000,72.000000,0.000000,0.000000,0.000000,1763132964.405545,0.000000
106.000000,22418.732633,34275.841329,21556.268222,11647.337573,33835.310797,32086.800884,17731.705932,16679.251692,35225.410488,33546.436852,15965.962823,2293.847775,20126.538888,30499.245882,18795.201933,23834.603886,0.018000,-0.012000,1.010000,192.000000,0.000000,0.000000,0.000000,0.000000,0.000000,0.000000,0.000000,0.000000,0.000000,1763132964.405566,0.000000
108.000000,22407.959093,34261.647971,21557.765789,11647.069353,33791.456675,32065.007933,17729.403702,16688.482963,35098.519635,33511.121096,15957.692678,2299.614525,20106.422318,30473.608431,18693.389737,23675.280651,0.018000,-0.012000,1.010000,192.000000,0.000000,0.000000,0.000000,0.000000,0.000000,0.000000,0.000000,0.000000,0.000000,1763132964.405587,0.000000
110.000000,22412.384738,34299.891806,21573.903748,11650.690335,33903.438914,32121.267274,17753.498882,16725.564507,35215.665128,33546.995645,15973.316547,2298.653400,20126.583591,30499.424696,18802.086270,23861.381276,0.018000,-0.012000,1.010000,192.000000,0.000000,0.000000,0.000000,0.000000,0.000000,0.000000,0.000000,0.000000,0.000000,1763132964.405608,0.000000
112.000000,22403.622854,34259.345741,21543.974762,11641.883748,33759.024293,32041.002159,17711.701120,16645.813483,35161.931534,33531.282369,15965.560492,2304.978943,20102.063728,30484.001992,18746.206909,23745.532184,0.018000,-0.012000,1.010000,192.000000,0.000000,0.000000,0.000000,0.000000,0.000000,0.000000,0.000000,0.000000,0.000000,1763132964.405629,0.000000
114.000000,22446.471148,34305.099762,21570.126303,11651.427943,33887.680934,32122.340157,17757.790417,16740.249603,35137.031691,33529.605988,15964.264091,2301.112092,20103.628350,30488.561748,18732.639400,23756.126911,0.012000,-0.014000,1.006000,192.000000,0.000000,48.000000,127.500000,72.000000,15.500000,56.000000,0.000000,0.000000,0.000000,1763132964.405650,0.000000
116.000000,22421.414843,34264.576049,21550.859100,11640.475588,33837.389509,32082.241128,17731.370655,16677.865884,35226.371613,33545.118099,15969.472047,2299.011028,20130.182222,30503.895045,18794.151401,23838.493089,0.012000,-0.014000,1.006000,192.000000,0.000000,0.000000,0.000000,0.000000,0.000000,0.000000,0.000000,0.000000,0.000000,1763132964.405671,0.000000
118.000000,22420.230200,34271.438035,21548.378056,11641.749637,33783.186529,32066.460796,17728.531984,16687.231265,35103.168798,33510.003508,15954.362268,2303.570784,20086.775134,30470.143911,18687.935911,23678.387544,0.012000,-0.014000,1.006000,192.000000,0.000000,0.000000,0.000000,0.000000,0.000000,0.000000,0.000000,0.000000,0.000000,1763132964.405692,0.000000
120.000000,22427.695683,34307.804323,21567.779370,11647.337573,33903.863597,32122.049585,17752.984792,16725.832728,35228.517381,33549.856669,15972.377774,2296.440577,20138.742940,30498.061239,18796.028947,23861.001296,0.012000,-0.014000,1.006000,192.000000,0.000000,0.000000,0.000000,0.000000,0.000000,0.000000,0.000000,0.000000,0.000000,1763132964.405713,0.000000
122.000000,22402.505267,34243.453651,21540.107911,11636.921661,33755.984456,32033.313159,17710.739995,16644.427674,35165.910145,33530.298892,15965.225216,2302.833176,20115.564181,30483.487902,18745.916336,23738.737254,0.012000,-0.014000,1.006000,192.000000,0.000000,0.000000,0.000000,0.000000,0.000000,0.000000,0.000000,0.000000,0.000000,1763132964.405734,0.000000
124.000000,22437.821023,34305.949128,21567.399391,11648.164588,33881.668315,32118.674471,17754.907042,16736.025123,35132.941321,33523.168686,15960.978384,2292.886650,20116.033568,30480.470417,18728.303162,23751.678914,0.012000,-0.014000,1.010000,192.000000,0.000000,48.000000,127.500000,72.000000,15.500000,72.000000,0.000000,0.000000,0.000000,1763132964.405756,0.000000
126.000000,22411.177744,34266.677113,21552.870757,11640.788512,33835.757832,32083.336363,17729.157833,16671.741506,35224.672881,33545.363968,15965.761657,2286.784623,20123.320237,30495.960176,18795.716023,23833.754520,0.012000,-0.014000,1.010000,192.000000,0.000000,0.000000,0.000000,0.000000,0.000000,0.000000,0.000000,0.000000,0.000000,1763132964.405777,0.000000
128.000000,22405.768622,34246.135860,21550.546175,11640.475588,33788.640355,32064.247973,17725.738016,16671.540340,35094.518673,33500.392258,15954.026992,2295.300638,20084.808181,30468.914565,18693.635606,23675.615928,0.012000,-0.014000,1.010000,192.000000,0.000000,0.000000,0.000000,0.000000,0.000000,0.000000,0.000000,0.000000,0.000000,1763132964.405798,0.000000
130.000000,22417.324474,34280.356381,21570.305117,11643.895405,33908.825685,32123.502448,17749.989659,16705.939675,35216.000404,33534.970407,15959.324355,2283.565972,20123.431995,30494.328498,18802.376843,23860.218985,0.012000,-0.014000,1.010000,192.000000,0.000000,0.000000,0.000000,0.000000,0.000000,0.000000,0.000000,0.000000,0.000000,1763132964.405819,0.000000
132.000000,22390.949415,34216.855075,21537.313943,11633.144216,33753.704578,32033.782546,17706.046129,16620.958343,35159.405787,33511.165799,15944.236928,2287.119900,20101.974321,30471.999105,18751.548976,23744.861632,0.012000,-0.014000,1.010000,192.000000,0.000000,0.000000,0.000000,0.000000,0.000000,0.000000,0.000000,0.000000,0.000000,1763132964.405840,0.000000
134.000000,22418.911447,34279.350552,21564.895995,11650.444466,33876.102731,32118.562712,17752.694220,16722.904649,35125.162914,33500.146389,15950.629526,2279.520307,20096.408736,30473.988411,18731.253592,23755.098731,0.015000,-0.012000,1.007000,192.000000,0.000000,72.000000,127.500000,88.000000,15.500000,48.000000,0.000000,0.000000,0.000000,1763132964.405861,0.000000
136.000000,22407.400299,34260.373921,21548.042780,11645.258861,33832.002739,32074.976811,17729.202536,16668.478151,35219.710793,33530.745927,15956.888015,2278.313312,20134.898440,30489.142893,18793.100869,23832.994560,0.015000,-0.012000,1.007000,192.000000,0.000000,0.000000,0.000000,0.000000,0.000000,0.000000,0.000000,0.000000,0.000000,1763132964.405882,0.000000
138.000000,22391.999947,34250.315636,21544.533556,11643.135445,33772.502395,32057.967133,17724.598077,16677.731774,35088.282536,33498.268842,15947.142654,2294.540679,20073.989937,30463.147815,18690.461658,23670.184454,0.015000,-0.012000,1.007000,192.000000,0.000000,0.000000,0.000000,0.000000,0.000000,0.000000,0.000000,0.000000,0.000000,1763132964.405903,0.000000
140.000000,22414.061119,34295.354402,21565.767713,11648.008126,33895.213472,32117.869808,17750.526100,16720.401254,35215.396907,33534.411613,15965.314623,2285.845850,20124.482527,30494.842588,18793.525552,23864.823444,0.015000,-0.012000,1.007000,192.000000,0.000000,0.000000,0.000000,0.000000,0.000000,0.000000,0.000000,0.000000,0.000000,1763132964.405924,0.000000
142.000000,22393.117534,34229.103831,21539.146786,11636.564033,33759.516032,32030.049804,17709.845926,16642.170148,35168.815871,33519.480648,15960.933681,2296.038246,20100.119126,30477.564690,18742.720037,23744.235783,0.015000,-0.012000,1.007000,192.000000,0.000000,0.000000,0.000000,0.000000,0.000000,0.000000,0.000000,0.000000,0.000000,1763132964.405946,0.000000
144.000000,22423.873535,34297.723686,21570.372173,11644.700068,33883.143530,32132.241980,17753.521234,16735.935716,35135.735290,33515.703203,15964.644070,2297.200536,20110.333873,30477.631745,18727.811423,23749.197870,0.018500,-0.011000,1.005500,192.000000,0.000000,88.000000,127.500000,88.000000,15.500000,48.000000,0.000000,0.000000,0.000000,1763132964.405962,0.000000
146.000000,22415.335168,34263.257296,21552.356667,11635.312335,33833.813230,32091.472398,17727.347341,16672.277948,35226.751593,33537.719671,15965.940471,2289.533888,20140.285211,30487.198292,18796.699500,23836.704950,0.018500,-0.011000,1.005500,192.000000,0.000000,0.000000,0.000000,0.000000,0.000000,0.000000,0.000000,0.000000,0.000000,1763132964.405973,0.000000
148.000000,22414.642264,34248.952180,21546.612268,11637.011068,33780.124340,32074.730942,17723.793414,16677.508256,35097.804379,33500.906348,15952.663535,2293.803071,20079.354355,30467.416998,18694.194400,23675.727686,0.018500,-0.011000,1.005500,192.000000,0.000000,0.000000,0.000000,0.000000,0.000000,0.000000,0.000000,0.000000,0.000000,1763132964.406008,0.000000
150.000000,22422.554782,34284.916137,21564.538367,11642.666059,33903.371859,32128.911570,17748.648554,16713.360454,35221.878913,33536.579732,15965.739306,2284.527097,20123.879030,30494.015574,18798.733508,23860.286040,0.018500,-0.011000,1.005500,192.000000,0.000000,0.000000,0.000000,0.000000,0.000000,0.000000,0.000000,0.000000,0.000000,1763132964.406018,0.000000
152.000000,22392.178761,34221.615997,21538.140957,11633.479492,33755.649180,32037.805860,17706.336702,16628.513232,35163.406749,33515.434982,15951.814169,2286.516403,20118.894591,30473.161396,18745.826929,23743.319362,0.018500,-0.011000,1.005500,192.000000,0.000000,0.000000,0.000000,0.000000,0.000000,0.000000,0.000000,0.000000,0.000000,1763132964.406028,0.000000
154.000000,22431.316666,34290.213500,21569.098123,11646.488207,33873.666391,32114.807619,17751.487225,16725.363341,35125.453487,33508.125962,15954.719896,2282.671902,20086.842190,30468.333419,18729.443101,23755.299897,0.019250,-0.009500,1.004750,192.000000,0.000000,80.000000,127.500000,96.000000,15.500000,48.000000,0.000000,0.000000,0.000000,1763132964.406037,0.000000
156.000000,22401.030052,34249.868602,21553.988344,11639.983850,33839.065890,32083.939860,17728.643743,16668.992242,35225.254026,33531.975273,15960.084314,2278.246257,20120.816841,30485.544263,18799.493468,23837.420206,0.019250,-0.009500,1.004750,192.000000,0.000000,0.000000,0.000000,0.000000,0.000000,0.000000,0.000000,0.000000,0.000000,1763132964.406046,0.000000
158.000000,22399.845409,34242.000787,21549.160367,11641.973155,33770.580145,32057.408340,17724.463966,16677.575311,35101.358307,33497.732401,15954.764599,2290.249144,20102.890742,30462.521966,18692.003929,23668.083390,0.019250,-0.009500,1.004750,192.000000,0.000000,0.000000,0.000000,0.000000,0.000000,0.000000,0.000000,0.000000,0.000000,1763132964.406056,0.000000
160.000000,22424.477032,34281.719837,21567.265280,11645.616489,33892.955946,32116.036965,17750.771970,16714.388634,35215.888645,33529.382471,15968.421515,2281.509612,20124.884859,30483.376143,18797.638273,23856.061561,0.019250,-0.009500,1.004750,192.000000,0.000000,0.000000,0.000000,0.000000,0.000000,0.000000,0.000000,0.000000,0.000000,1763132964.406066,0.000000
162.000000,22382.478104,34221.705404,21538.945620,11638.173358,33750.620037,32032.799069,17708.258952,16634.436445,35163.540860,33511.299910,15961.671288,2289.220964,20089.882027,30467.998143,18741.915374,23742.604106,0.019250,-0.009500,1.004750,192.000000,0.000000,0.000000,0.000000,0.000000,0.000000,0.000000,0.000000,0.000000,0.000000,1763132964.406076,0.000000
164.000000,22423.672369,34286.078428,21569.209882,11650.936204,33877.354428,32118.897989,17753.655345,16732.739417,35125.632301,33507.701279,15963.437076,2291.791414,20087.065707,30472.289678,18725.464490,23745.263963,0.017625,-0.010750,1.005375,192.000000,0.000000,64.000000,127.500000,80.000000,15.500000,56.000000,0.000000,0.000000,0.000000,1763132964.406085,0.000000
166.000000,22414.821078,34262.899669,21550.434417,11644.096571,33832.427422,32080.229471,17728.263763,16674.937806,35225.254026,33540.088956,15970.947262,2294.853603,20123.297885,30491.869806,18795.492505,23836.056749,0.017625,-0.010750,1.005375,192.000000,0.000000,0.000000,0.000000,0.000000,0.000000,0.000000,0.000000,0.000000,0.000000,1763132964.406095,0.000000
168.000000,22395.933854,34250.472099,21546.254640,11645.594137,33768.590840,32060.962267,17723.547545,16681.240997,35095.010411,33501.152218,15956.083352,2298.653400,20074.146399,30458.923335,18690.014623,23677.806399,0.017625,-0.010750,1.005375,192.000000,0.000000,0.000000,0.000000,0.000000,0.000000,0.000000,0.000000,0.000000,0.000000,1763132964.406105,0.000000
170.000000,22416.452756,34284.714971,21565.141864,11650.667983,33888.418542,32123.547152,17750.123769,16720.736530,35213.340546,33538.747852,15972.355422,2291.813766,20125.108376,30491.668641,18795.268988,23861.157758,0.017625,-0.010750,1.005375,192.000000,0.000000,0.000000,0.000000,0.000000,0.000000,0.000000,0.000000,0.000000,0.000000,1763132964.406114,0.000000
172.000000,22390.055345,34226.734546,21538.587992,11639.402704,33746.216744,32043.371444,17707.029606,16636.492805,35164.949020,33520.173552,15961.805399,2298.295772,20113.150193,30473.675486,18742.340057,23747.700304,0.017625,-0.010750,1.005375,192.000000,0.000000,0.000000,0.000000,0.000000,0.000000,0.000000,0.000000,0.000000,0.000000,1763132964.406124,0.000000
174.000000,22419.850221,34282.993887,21572.115609,11647.203463,33872.705266,32118.406250,17750.526100,16727.799681,35119.485571,33512.573959,15962.051268,2287.812804,20091.714870,30469.875690,18727.409092,23750.002533,0.015813,-0.013375,1.006687,192.000000,0.000000,56.000000,127.500000,64.000000,15.500000,64.000000,0.000000,0.000000,0.000000,1763132964.406133,0.000000
176.000000,22402.795840,34254.294247,21556.000001,11640.743809,33837.434213,32080.654154,17726.989714,16671.249768,35220.560160,33536.713843,15967.549797,2288.952743,20138.407664,30483.711420,18798.465288,23841.979962,0.015813,-0.013375,1.006687,192.000000,0.000000,0.000000,0.000000,0.000000,0.000000,0.000000,0.000000,0.000000,0.000000,1763132964.406142,0.000000
178.000000,22413.792898,34247.745186,21550.389713,11643.493073,33773.977610,32058.324761,17723.547545,16675.586006,35094.608080,33503.677965,15953.602308,2298.184013,20063.797541,30465.472396,18696.876609,23679.527483,0.015813,-0.013375,1.006687,192.000000,0.000000,0.000000,0.000000,0.000000,0.000000,0.000000,0.000000,0.000000,0.000000,1763132964.406152,0.000000
180.000000,22428.746215,34298.662460,21569.589862,11650.466818,33894.140589,32122.921303,17750.302583,16718.903687,35218.123820,33542.570000,15967.706259,2290.383254,20122.627333,30499.961138,18797.213590,23858.095569,0.015813,-0.013375,1.006687,192.000000,0.000000,0.000000,0.000000,0.000000,0.000000,0.000000,0.000000,0.000000,0.000000,1763132964.406161,0.000000
182.000000,22378.901825,34217.458572,21539.347951,11642.442541,33746.037930,32039.705758,17707.208420,16637.297468,35163.049121,33522.051099,15964.688774,2299.614525,20101.549638,30472.759065,18746.609240,23746.560365,0.015813,-0.013375,1.006687,192.000000,0.000000,0.000000,0.000000,0.000000,0.000000,0.000000,0.000000,0.000000,0.000000,1763132964.406171,0.000000
184.000000,22422.532430,34283.820901,21564.516016,11652.009088,33872.124120,32121.110811,17751.598984,16731.800643,35127.107516,33514.272692,15966.454562,2291.456138,20114.424242,30471.350905,18722.938743,23751.410693,0.016906,-0.014687,1.006344,192.000000,0.000000,72.000000,127.500000,64.000000,15.500000,56.000000,0.000000,0.000000,0.000000,1763132964.406181,0.000000
186.000000,22416.095128,34258.719892,21550.792044,11645.683544,33837.300102,32081.481168,17727.615562,16674.334308,35224.605825,33538.032596,15966.678079,2291.880821,20122.672036,30489.612280,18794.821953,23845.131558,0.016906,-0.014687,1.006344,192.000000,0.000000,0.000000,0.000000,0.000000,0.000000,0.000000,0.000000,0.000000,0.000000,1763132964.406190,0.000000
188.000000,22422.755947,34255.434186,21547.752207,11645.325916,33771.943602,32059.822328,17723.055807,16679.072878,35092.328202,33500.973404,15955.479855,2294.384217,20076.403925,30461.963172,18697.189533,23677.046439,0.016906,-0.014687,1.006344,192.000000,0.000000,0.000000,0.000000,0.000000,0.000000,0.000000,0.000000,0.000000,0.000000,1763132964.406200,0.000000
190.000000,22418.419709,34288.268899,21566.259452,11648.030478,33898.745048,32121.647253,17751.330763,16723.463443,35212.312366,33544.246381,15977.630434,2290.785586,20114.044263,30498.552978,18800.342834,23855.815691,0.016906,-0.014687,1.006344,192.000000,0.000000,0.000000,0.000000,0.000000,0.000000,0.000000,0.000000,0.000000,0.000000,1763132964.885214,0.000000
192.000000,22386.657880,34224.678186,21535.950486,11635.669963,33742.774575,32033.916656,17705.308521,16639.063256,35157.237668,33519.011261,15963.682945,2299.346304,20093.413603,30465.785320,18746.765703,23746.470958,0.016906,-0.014687,1.006344,192.000000,0.000000,0.000000,0.000000,0.000000,0.000000,0.000000,0.000000,0.000000,0.000000,1763132964.885292,0.000000
194.000000,22422.264209,34285.899614,21565.186568,11645.504730,33869.039580,32110.761954,17749.073237,16736.114530,35121.787801,33513.423325,15963.146503,2293.624257,20098.509800,30468.556937,18724.525717,23742.246478,0.019453,-0.014344,1.009172,192.000000,0.000000,88.000000,127.500000,72.000000,15.500000,80.000000,0.000000,0.000000,0.000000,1763132964.885342,0.000000
196.000000,22407.132078,34254.271895,21553.787178,11635.692315,33833.254437,32089.393686,17723.838118,16678.379974,35224.427012,33537.943189,15969.606157,2293.020760,20132.015065,30483.465550,18798.711157,23839.320104,0.019453,-0.014344,1.009172,192.000000,0.000000,0.000000,0.000000,0.000000,0.000000,0.000000,0.000000,0.000000,0.000000,1763132964.885395,0.000000
198.000000,22406.148601,34249.354511,21549.406236,11640.475588,33774.089369,32062.705703,17718.361940,16679.586968,35101.537121,33502.761543,15957.111532,2297.826385,20074.749896,30455.659980,18699.201190,23676.420590,0.019453,-0.014344,1.009172,192.000000,0.000000,0.000000,0.000000,0.000000,0.000000,0.000000,0.000000,0.000000,0.000000,1763132964.885456,0.000000
200.000000,22424.633494,34295.041477,21566.684135,11644.074219,33891.659545,32120.283797,17744.558185,16721.250620,35214.815761,33543.799346,15969.896730,2291.254972,20119.833364,30485.968946,18801.326311,23855.994505,0.019453,-0.014344,1.009172,192.000000,0.000000,0.000000,0.000000,0.000000,0.000000,0.000000,0.000000,0.000000,0.000000,1763132964.885479,0.000000
202.000000,22393.855142,34225.818125,21539.146786,11635.468797,33741.791098,32031.368557,17704.705024,16639.867918,35158.042331,33519.234779,15965.202864,2292.394911,20104.187143,30469.272193,18746.944517,23745.174556,0.019453,-0.014344,1.009172,192.000000,0.000000,0.000000,0.000000,0.000000,0.000000,0.000000,0.000000,0.000000,0.000000,1763132964.885502,0.000000
204.000000,22418.866744,34287.486587,21563.554891,11645.437675,33858.355446,32106.626881,17747.799188,16730.973629,35115.596368,33505.644918,15965.001698,2287.276362,20090.731393,30464.801844,18722.782281,23743.855803,0.019453,-0.014344,1.009172,192.000000,0.000000,0.000000,0.000000,0.000000,0.000000,0.000000,0.000000,0.000000,0.000000,1763132964.885524,0.000000
206.000000,22398.280787,34253.489584,21548.758036,11639.536815,33818.345823,32074.373314,17724.195745,16675.094268,35207.774962,33529.874209,15965.068753,2281.710777,20112.323178,30473.295507,18795.268988,23842.583459,0.020000,-0.016000,1.010000,192.000000,0.000000,80.000000,127.500000,64.000000,15.500000,72.000000,0.000000,0.000000,0.000000,1763132964.885545,0.000000
208.000000,22397.051441,34228.030947,21543.013637,11638.486283,33757.794947,32047.350055,17717.132594,16673.283776,35090.674173,33495.921909,15954.094047,2293.177222,20080.673108,30453.111881,18692.383908,23677.314660,0.020000,-0.016000,1.010000,192.000000,0.000000,0.000000,0.000000,0.000000,0.000000,0.000000,0.000000,0.000000,0.000000,1763132964.885567,0.000000
210.000000,22404.807497,34278.881166,21562.660821,11643.582480,33888.954984,32108.504427,17744.736999,16714.992132,35204.556311,33529.807154,15964.688774,2276.994559,20100.700271,30479.933975,18794.106697,23859.436674,0.020000,-0.016000,1.010000,192.000000,0.000000,0.000000,0.000000,0.000000,0.000000,0.000000,0.000000,0.000000,0.000000,1763132964.885589,0.000000
212.000000,22373.582110,34211.736526,21534.408216,11633.032457,33735.398499,32026.384118,17704.168582,16633.810596,35149.593371,33506.069601,15958.050306,2290.562068,20089.680861,30464.041884,18747.682124,23745.576888,0.020000,-0.016000,1.010000,192.000000,0.000000,0.000000,0.000000,0.000000,0.000000,0.000000,0.000000,0.000000,0.000000,1763132964.885611,0.000000
214.000000,22418.866744,34278.143558,21559.777446,11644.543605,33860.814138,32109.063221,17749.766141,16728.157309,35102.386487,33497.307717,15954.161102,2283.744786,20069.810160,30453.111881,18727.520851,23746.247440,0.020000,-0.016000,1.010000,192.000000,0.000000,0.000000,0.000000,0.000000,0.000000,0.000000,0.000000,0.000000,0.000000,1763132964.885632,0.000000
216.000000,22403.198171,34260.239811,21548.936850,11636.586384,33825.319567,32069.165357,17728.330818,16675.898931,35211.664165,33526.052061,15960.754867,2285.622333,20112.949027,30474.502501,18799.024081,23833.687464,0.014000,-0.012000,1.012000,192.000000,0.000000,56.000000,127.500000,80.000000,15.500000,80.000000,0.000000,0.000000,0.000000,1763132964.885653,0.000000
218.000000,22398.057270,34234.714119,21544.421797,11635.669963,33760.186584,32053.027398,17720.932391,16676.658890,35077.151367,33489.037572,15951.769465,2290.785586,20077.342698,30444.729977,18694.149696,23674.341878,0.014000,-0.012000,1.012000,192.000000,0.000000,0.000000,0.000000,0.000000,0.000000,0.000000,0.000000,0.000000,0.000000,1763132964.885675,0.000000
220.000000,22397.163200,34273.673209,21566.885301,11638.732152,33896.822798,32116.238131,17749.497920,16722.368207,35196.062648,33525.783840,15968.779143,2284.080062,20109.685672,30472.423789,18799.605226,23854.541642,0.014000,-0.012000,1.012000,192.000000,0.000000,0.000000,0.000000,0.000000,0.000000,0.000000,0.000000,0.000000,0.000000,1763132964.885697,0.000000
222.000000,22379.527674,34215.983357,21536.889259,11631.646649,33747.200220,32029.222790,17705.621446,16635.129349,35151.157993,33506.293119,15958.832617,2287.589286,20108.501030,30460.130329,18750.923127,23741.218298,0.014000,-0.012000,1.012000,192.000000,0.000000,0.000000,0.000000,0.000000,0.000000,0.000000,0.000000,0.000000,0.000000,1763132964.885719,0.000000
224.000000,22415.804555,34280.557547,21564.448960,11644.856530,33866.402074,32111.857189,17749.095589,16726.726797,35105.314565,33501.554549,15953.423495,2275.899324,20085.478733,30461.113806,18728.236106,23741.754739,0.014000,-0.012000,1.012000,192.000000,0.000000,0.000000,0.000000,0.000000,0.000000,0.000000,0.000000,0.000000,0.000000,1763132964.885741,0.000000
226.000000,22418.576171,34242.492526,21550.389713,11639.290945,33836.182515,32081.995259,17726.989714,16670.266291,35209.831322,33531.014148,15958.095009,2280.369673,20122.694388,30477.967021,18799.001729,23837.822537,0.018000,-0.010000,1.006000,192.000000,0.000000,72.000000,127.500000,88.000000,15.500000,56.000000,0.000000,0.000000,0.000000,1763132964.885763,0.000000
228.000000,22381.651089,34239.072709,21543.840652,11641.168492,33764.388712,32053.273267,17719.881859,16669.305166,35079.095969,33496.927738,15944.952183,2292.014932,20058.991916,30453.737730,18697.055423,23673.000774,0.018000,-0.010000,1.006000,192.000000,0.000000,0.000000,0.000000,0.000000,0.000000,0.000000,0.000000,0.000000,0.000000,1763132964.885785,0.000000
230.000000,22397.699642,34274.813148,21560.224481,11646.488207,33884.238766,32119.948521,17748.000353,16711.102928,35193.089866,33532.779936,15963.995870,2281.129632,20118.179335,30482.146797,18796.252465,23854.474587,0.018000,-0.010000,1.006000,192.000000,0.000000,0.000000,0.000000,0.000000,0.000000,0.000000,0.000000,0.000000,0.000000,1763132964.885807,0.000000
232.000000,22378.946528,34213.994052,21532.843594,11635.468797,33740.718215,32036.017720,17706.828440,16627.686218,35152.722615,33511.746944,15950.070733,2283.007179,20089.703213,30467.260536,18741.535394,23742.961734,0.018000,-0.010000,1.006000,192.000000,0.000000,0.000000,0.000000,0.000000,0.000000,0.000000,0.000000,0.000000,0.000000,1763132964.885828,0.000000
234.000000,22392.961072,34266.297134,21560.135074,11644.096571,33860.769434,32098.624956,17750.123769,16721.429434,35102.542949,33500.526369,15950.607175,2281.196687,20097.682786,30457.403416,18720.614162,23736.747949,0.018000,-0.010000,1.006000,192.000000,0.000000,0.000000,0.000000,0.000000,0.000000,0.000000,0.000000,0.000000,0.000000,1763132964.885850,0.000000
236.000000,22392.916369,34239.609151,21548.042780,11636.966364,33835.780184,32066.505500,17728.733150,16670.780381,35202.723468,33523.705128,15959.793742,2278.201554,20103.360129,30477.117655,18797.079479,23837.263744,0.018000,-0.008000,1.008000,192.000000,0.000000,72.000000,127.500000,96.000000,15.500000,64.000000,0.000000,0.000000,0.000000,1763132964.885871,0.000000
238.000000,22416.698625,34243.140726,21546.746379,11636.429922,33769.082578,32039.482241,17723.502841,16676.569483,35082.180510,33488.501130,15949.310774,2290.159737,20061.383553,30447.792166,18696.362519,23671.078524,0.018000,-0.008000,1.008000,192.000000,0.000000,0.000000,0.000000,0.000000,0.000000,0.000000,0.000000,0.000000,0.000000,1763132964.885887,0.000000
