Sample Index, EXG Channel 0, EXG Channel 1, EXG Channel 2, EXG Channel 3, EXG Channel 4, EXG Channel 5, EXG Channel 6, EXG Channel 7, EXG Channel 8, EXG Channel 9, EXG Channel 10, EXG Channel 11, EXG Channel 12, EXG Channel 13, EXG Channel 14, EXG Channel 15, Accel Channel 0, Accel Channel 1, Accel Channel 2, Not Used, Digital Channel 0 (D11), Digital Channel 1 (D12), Digital Channel 2 (D13), Digital Channel 3 (D17), Not Used, Digital Channel 4 (D18), Analog Channel 0, Analog Channel 1, Analog Channel 2, Timestamp, Marker Channel, Timestamp (Formatted)
148.000000,-4508.548022,-11545.614784,-40567.097433,-18511.379482,-6155.938644,-33835.333149,-20303.989387,-32689.649783,-10557.690031,-17126.174823,7277.504477,-18167.140265,-8807.056702,-17741.965382,-20549.389189,-16672.121486,0.014500,-0.014563,1.005625,192.000000,0.000000,0.000000,0.000000,0.000000,0.000000,0.000000,0.000000,0.000000,0.000000,1762865743.246028,0.000000
150.000000,-4483.022330,-11524.067703,-40532.809857,-18498.638987,-6164.029975,-33802.163160,-20271.467599,-32659.921963,-10503.867031,-17066.652127,7163.711746,-18124.627247,-8761.123867,-17667.064687,-20518.499079,-16677.262387,0.014500,-0.014563,1.005625,192.000000,0.000000,0.000000,0.000000,0.000000,0.000000,0.000000,0.000000,0.000000,0.000000,1762865743.246125,0.000000
152.000000,-4501.283705,-11544.676011,-40601.049733,-18516.386272,-6166.041632,-33860.434158,-20324.843565,-32698.925757,-10543.183749,-17107.622875,7246.569663,-18158.691306,-8796.238458,-17718.652513,-20551.266736,-16673.484942,0.014500,-0.014563,1.005625,192.000000,0.000000,0.000000,0.000000,0.000000,0.000000,0.000000,0.000000,0.000000,0.000000,1762865743.246209,0.000000
154.000000,-4476.406214,-11498.542011,-40516.917767,-18492.112278,-6153.435249,-33798.050439,-20264.784427,-32654.937524,-10519.669714,-17083.885322,7232.845692,-18136.563079,-8774.244341,-17703.274513,-20533.430044,-16676.860056,0.012250,-0.015281,1.007812,192.000000,0.000000,40.000000,127.500000,64.000000,15.500000,72.000000,0.000000,0.000000,0.000000,1762865743.246291,0.000000
156.000000,-4509.799720,-11544.273680,-40588.778626,-18516.296865,-6169.908484,-33849.235934,-20314.941742,-32691.907310,-10516.093435,-17070.831903,7177.413366,-18137.300687,-8769.528123,-17679.447553,-20526.456300,-16673.484942,0.012250,-0.015281,1.007812,192.000000,0.000000,0.000000,0.000000,0.000000,0.000000,0.000000,0.000000,0.000000,0.000000,1762865743.246372,0.000000
158.000000,-4477.613208,-11511.640133,-40560.973055,-18504.204572,-6153.278786,-33826.235989,-20300.860143,-32680.329106,-10552.325613,-17111.623837,7284.008835,-18163.988669,-8803.301609,-17739.685504,-20554.530091,-16666.533550,0.012250,-0.015281,1.007812,192.000000,0.000000,0.000000,0.000000,0.000000,0.000000,0.000000,0.000000,0.000000,0.000000,1762865743.246453,0.000000
160.000000,-4463.397499,-11493.646979,-40527.713660,-18495.487391,-6158.933778,-33802.230215,-20270.327660,-32653.082329,-10489.338397,-17046.088522,7180.699072,-18113.630189,-8749.657422,-17654.927689,-20516.487422,-16667.718192,0.012250,-0.015281,1.007812,192.000000,0.000000,0.000000,0.000000,0.000000,0.000000,0.000000,0.000000,0.000000,0.000000,1762865743.246509,0.000000
162.000000,-4484.139917,-11522.793653,-40600.334477,-18516.050996,-6158.866722,-33857.059044,-20327.883402,-32694.969499,-10527.761045,-17093.027186,7262.148829,-18153.706867,-8793.712711,-17712.326969,-20541.610782,-16667.986413,0.012250,-0.015281,1.007812,192.000000,0.000000,0.000000,0.000000,0.000000,0.000000,0.000000,0.000000,0.000000,0.000000,1762865743.246533,0.000000
164.000000,-4440.218740,-11469.127115,-40508.759380,-18489.474772,-6147.757905,-33791.009640,-20260.761113,-32645.750957,-10509.074987,-17068.417915,7247.441381,-18130.192832,-8767.449411,-17693.372690,-20528.244439,-16662.934919,0.013125,-0.013641,1.008906,192.000000,0.000000,56.000000,127.500000,80.000000,15.500000,72.000000,0.000000,0.000000,0.000000,1762865743.246556,0.000000
166.000000,-4469.767746,-11509.404958,-40580.888460,-18512.050034,-6165.214618,-33840.563457,-20308.884419,-32678.429208,-10495.395719,-17055.275089,7196.881735,-18126.080111,-8757.726402,-17670.998594,-20523.796442,-16671.406230,0.013125,-0.013641,1.008906,192.000000,0.000000,0.000000,0.000000,0.000000,0.000000,0.000000,0.000000,0.000000,0.000000,1762865743.246579,0.000000
168.000000,-4449.472362,-11487.656711,-40552.904076,-18500.762403,-6147.132057,-33828.426460,-20293.528771,-32668.102702,-10527.202252,-17099.308026,7304.505385,-18154.846806,-8794.986760,-17735.975115,-20554.351277,-16671.249768,0.013125,-0.013641,1.008906,192.000000,0.000000,0.000000,0.000000,0.000000,0.000000,0.000000,0.000000,0.000000,0.000000,1762865743.246602,0.000000
170.000000,-4451.998109,-11479.520676,-40524.115029,-18491.687595,-6162.510057,-33800.933814,-20264.627965,-32644.499260,-10481.917618,-17039.830034,7193.171345,-18108.779861,-8748.204559,-17659.845073,-20518.208506,-16669.975718,0.013125,-0.013641,1.008906,192.000000,0.000000,0.000000,0.000000,0.000000,0.000000,0.000000,0.000000,0.000000,0.000000,1762865743.246625,0.000000
172.000000,-4480.921266,-11514.434101,-40599.060428,-18515.671017,-6168.790897,-33860.680027,-20324.642399,-32689.940356,-10524.721208,-17090.367328,7272.140059,-18150.130588,-8792.997455,-17721.222963,-20551.177329,-16671.897968,0.013125,-0.013641,1.008906,192.000000,0.000000,0.000000,0.000000,0.000000,0.000000,0.000000,0.000000,0.000000,0.000000,1762865743.246648,0.000000
174.000000,-4431.970946,-11456.945414,-40504.579604,-18482.389269,-6157.458563,-33799.592709,-20256.804854,-32636.765556,-10505.386949,-17067.613252,7255.689175,-18122.883811,-8772.970292,-17701.732242,-20539.643829,-16674.021384,0.013125,-0.013641,1.008906,192.000000,0.000000,0.000000,0.000000,0.000000,0.000000,0.000000,0.000000,0.000000,0.000000,1762865743.246672,0.000000
176.000000,-4467.309054,-11500.777185,-40577.289829,-18507.602037,-6178.133926,-33850.755853,-20306.962169,-32670.539042,-10487.907885,-17052.212900,7205.487157,-18116.893544,-8760.520370,-17671.669146,-20527.529183,-16679.810486,0.018000,-0.008000,1.010000,192.000000,0.000000,72.000000,127.500000,96.000000,15.500000,72.000000,0.000000,0.000000,0.000000,1762865743.246695,0.000000
178.000000,-4444.309109,-11479.207752,-40553.976959,-18498.773098,-6164.812286,-33837.814193,-20296.210980,-32665.867527,-10528.029266,-17096.469354,7306.740559,-18147.694248,-8802.519298,-17737.070350,-20556.899376,-16678.335271,0.018000,-0.008000,1.010000,192.000000,0.000000,0.000000,0.000000,0.000000,0.000000,0.000000,0.000000,0.000000,0.000000,1762865743.246718,0.000000
180.000000,-4427.455893,-11463.047440,-40520.941081,-18488.826572,-6162.867685,-33809.874512,-20264.404448,-32639.358358,-10478.922484,-17035.382037,7189.572715,-18100.085032,-8750.775009,-17659.107466,-20520.555439,-16681.620977,0.018000,-0.008000,1.010000,192.000000,0.000000,0.000000,0.000000,0.000000,0.000000,0.000000,0.000000,0.000000,0.000000,1762865743.246741,0.000000
182.000000,-4461.385842,-11503.705264,-40601.675582,-18516.073348,-6165.639301,-33872.325286,-20327.704588,-32689.538025,-10518.753292,-17080.912540,7268.295558,-18143.737989,-8796.909010,-17717.780795,-20553.188986,-16683.185599,0.018000,-0.008000,1.010000,192.000000,0.000000,0.000000,0.000000,0.000000,0.000000,0.000000,0.000000,0.000000,0.000000,1762865743.246765,0.000000
184.000000,-4421.711495,-11447.825902,-40506.747723,-18483.708022,-6159.045536,-33802.252567,-20256.514282,-32636.027948,-10501.497746,-17057.756133,7253.074021,-18119.441643,-8777.284178,-17698.066556,-20542.817777,-16681.822143,0.018000,-0.008000,1.010000,192.000000,0.000000,0.000000,0.000000,0.000000,0.000000,0.000000,0.000000,0.000000,0.000000,1762865743.246788,0.000000
186.000000,-4455.507333,-11489.333092,-40576.552221,-18508.361996,-6166.041632,-33857.036693,-20305.933989,-32669.466158,-10481.761155,-17039.159481,7204.704846,-18111.305608,-8758.642824,-17668.025812,-20528.445605,-16681.889198,0.012000,-0.008000,1.008000,192.000000,0.000000,48.000000,127.500000,96.000000,15.500000,64.000000,0.000000,0.000000,0.000000,1762865743.246810,0.000000
188.000000,-4435.413114,-11472.502228,-40555.116898,-18501.477659,-6157.615025,-33834.304969,-20297.619140,-32665.800472,-10521.949592,-17083.482991,7311.300315,-18142.665105,-8798.183059,-17737.271516,-20556.631155,-16679.519913,0.012000,-0.008000,1.008000,192.000000,0.000000,0.000000,0.000000,0.000000,0.000000,0.000000,0.000000,0.000000,0.000000,1762865743.246834,0.000000
190.000000,-4427.277079,-11461.415763,-40521.008136,-18491.575836,-6165.482839,-33802.923119,-20265.544387,-32639.336007,-10475.122687,-17028.944734,7220.999267,-18099.503887,-8749.322146,-17658.749838,-20519.460204,-16678.469381,0.012000,-0.008000,1.008000,192.000000,0.000000,0.000000,0.000000,0.000000,0.000000,0.000000,0.000000,0.000000,0.000000,1762865743.246857,0.000000
192.000000,-4454.412097,-11496.932685,-40600.915623,-18517.190935,-6164.052327,-33860.702379,-20328.062216,-32687.593423,-10511.824252,-17079.437325,7312.328495,-18143.045085,-8799.837089,-17718.965437,-20548.673934,-16677.172980,0.012000,-0.008000,1.008000,192.000000,0.000000,0.000000,0.000000,0.000000,0.000000,0.000000,0.000000,0.000000,0.000000,1762865743.246880,0.000000
194.000000,-4412.837853,-11439.980440,-40507.842959,-18485.049127,-6151.624757,-33789.824997,-20259.174139,-32634.865658,-10492.288827,-17054.403371,7269.904884,-18118.368759,-8767.315300,-17696.948969,-20534.905259,-16673.194369,0.012000,-0.008000,1.008000,192.000000,0.000000,0.000000,0.000000,0.000000,0.000000,0.000000,0.000000,0.000000,0.000000,1762865743.246903,0.000000
196.000000,-4444.376164,-11486.069737,-40579.659114,-18508.674921,-6163.001795,-33841.077547,-20308.035053,-32667.365094,-10476.687309,-17038.399522,7215.634849,-18111.372663,-8756.340594,-17662.817855,-20521.337750,-16680.078707,0.010000,-0.006000,1.002000,192.000000,0.000000,40.000000,127.500000,104.000000,15.500000,40.000000,0.000000,0.000000,0.000000,1762865743.246926,0.000000
198.000000,-4431.188635,-11469.171818,-40557.597942,-18498.214304,-6153.457600,-33826.101878,-20295.383965,-32663.542946,-10522.195461,-17087.752174,7311.724998,-18149.370629,-8798.272466,-17731.929449,-20553.703076,-16664.745410,0.010000,-0.006000,1.002000,192.000000,0.000000,0.000000,0.000000,0.000000,0.000000,0.000000,0.000000,0.000000,0.000000,1762865743.246950,0.000000
200.000000,-4425.108960,-11459.784086,-40523.533884,-18488.938330,-6169.036766,-33797.066962,-20263.510378,-32637.324350,-10470.428821,-17026.866022,7198.021674,-18100.107384,-8746.841102,-17650.770265,-20516.733291,-16674.758992,0.010000,-0.006000,1.002000,192.000000,0.000000,0.000000,0.000000,0.000000,0.000000,0.000000,0.000000,0.000000,0.000000,1762865743.246973,0.000000
202.000000,-4457.518990,-11507.236839,-40608.068181,-18520.141366,-6168.120345,-33876.348600,-20331.660847,-32692.890786,-10516.004028,-17082.812438,7270.195457,-18148.118931,-8796.752548,-17715.791490,-20549.568003,-16670.467457,0.010000,-0.006000,1.002000,192.000000,0.000000,0.000000,0.000000,0.000000,0.000000,0.000000,0.000000,0.000000,0.000000,1762865743.246996,0.000000
204.000000,-4408.456911,-11448.362344,-40507.954718,-18484.222112,-6144.874530,-33802.185512,-20256.246061,-32636.229114,-10500.648379,-17063.455828,7258.729012,-18124.515489,-8772.500905,-17702.246332,-20536.000494,-16668.098172,0.010000,-0.006000,1.002000,192.000000,0.000000,0.000000,0.000000,0.000000,0.000000,0.000000,0.000000,0.000000,0.000000,1762865743.247019,0.000000
206.000000,-4452.288682,-11500.710130,-40582.766006,-18512.362958,-6161.884208,-33855.717940,-20309.107937,-32671.120187,-10485.806821,-17043.562775,7201.597953,-18117.429986,-8760.810943,-17669.165751,-20526.769224,-16676.033041,0.014000,-0.010000,1.006000,192.000000,0.000000,56.000000,127.500000,88.000000,15.500000,56.000000,0.000000,0.000000,0.000000,1762865743.247042,0.000000
208.000000,-4446.432524,-11484.773336,-40562.895306,-18508.116127,-6159.179647,-33846.061986,-20300.457811,-32670.963725,-10528.543356,-17095.999968,7306.874669,-18153.259832,-8806.229687,-17742.904156,-20559.760399,-16672.233244,0.014000,-0.010000,1.006000,192.000000,0.000000,0.000000,0.000000,0.000000,0.000000,0.000000,0.000000,0.000000,0.000000,1762865743.247066,0.000000
210.000000,-4433.781437,-11473.150429,-40530.082945,-18500.561237,-6164.342900,-33818.502285,-20268.338355,-32647.315579,-10487.907885,-17043.942755,7185.929380,-18112.512602,-8756.653518,-17669.948062,-20518.499079,-16679.139933,0.014000,-0.010000,1.006000,192.000000,0.000000,0.000000,0.000000,0.000000,0.000000,0.000000,0.000000,0.000000,0.000000,1762865743.247089,0.000000
212.000000,-4474.126336,-11515.417578,-40612.136199,-18526.869241,-6172.545990,-33880.215452,-20332.443158,-32695.930624,-10532.790188,-17098.525715,7259.108992,-18160.457094,-8807.011999,-17734.924583,-20553.859538,-16680.793963,0.014000,-0.010000,1.006000,192.000000,0.000000,0.000000,0.000000,0.000000,0.000000,0.000000,0.000000,0.000000,0.000000,1762865743.247102,0.000000
214.000000,-4418.470492,-11456.185455,-40512.827398,-18491.821705,-6157.391507,-33806.365288,-20257.877738,-32640.252428,-10512.695970,-17074.877569,7246.077924,-18134.104387,-8784.503792,-17714.629199,-20542.951887,-16678.961120,0.014000,-0.010000,1.006000,192.000000,0.000000,0.000000,0.000000,0.000000,0.000000,0.000000,0.000000,0.000000,0.000000,1762865743.247114,0.000000
216.000000,-4449.315900,-11501.514793,-40585.381160,-18519.113185,-6175.272903,-33858.422501,-20310.560800,-32677.781007,-10491.774737,-17054.559833,7190.064453,-18124.336675,-8770.086917,-17677.547655,-20529.071454,-16677.575311,0.014000,-0.006000,1.010000,192.000000,0.000000,56.000000,127.500000,104.000000,15.500000,72.000000,0.000000,0.000000,0.000000,1762865743.247125,0.000000
218.000000,-4439.816408,-11478.067813,-40559.386082,-18508.630217,-6160.990138,-33835.511963,-20297.462678,-32671.634277,-10527.693990,-17101.967883,7296.436405,-18161.529978,-8811.929382,-17746.458083,-20562.129684,-16677.910588,0.014000,-0.006000,1.010000,192.000000,0.000000,0.000000,0.000000,0.000000,0.000000,0.000000,0.000000,0.000000,0.000000,1762865743.247136,0.000000
220.000000,-4420.683315,-11460.700507,-40519.108238,-18498.415470,-6155.491609,-33806.365288,-20262.862177,-32640.163021,-10480.710623,-17035.851423,7181.168459,-18110.344483,-8751.132637,-17661.119123,-20519.326093,-16684.861980,0.014000,-0.006000,1.010000,192.000000,0.000000,0.000000,0.000000,0.000000,0.000000,0.000000,0.000000,0.000000,0.000000,1762865743.247147,0.000000
222.000000,-4459.083612,-11506.834508,-40603.419018,-18525.282267,-6163.359423,-33872.660562,-20329.112748,-32693.159007,-10515.981676,-17086.858104,7260.360689,-18154.869158,-8793.377434,-17722.161737,-20550.573832,-16688.728832,0.014000,-0.006000,1.010000,192.000000,0.000000,0.000000,0.000000,0.000000,0.000000,0.000000,0.000000,0.000000,0.000000,1762865743.247158,0.000000
224.000000,-4409.194518,-11451.871568,-40504.467845,-18488.558351,-6152.854103,-33798.564529,-20255.083770,-32639.045434,-10500.447214,-17067.054459,7248.693079,-18130.058721,-8773.998472,-17703.274513,-20541.722541,-16680.235169,0.014000,-0.006000,1.010000,192.000000,0.000000,0.000000,0.000000,0.000000,0.000000,0.000000,0.000000,0.000000,0.000000,1762865743.247168,0.000000
226.000000,-4455.149705,-11503.258229,-40580.709646,-18520.275476,-6176.904580,-33866.983219,-20307.699777,-32678.362152,-10483.169315,-17048.860139,7189.460956,-18123.107329,-8757.368774,-17674.977204,-20532.781843,-16687.678300,0.010000,-0.004000,1.006000,192.000000,0.000000,40.000000,127.500000,112.000000,15.500000,56.000000,0.000000,0.000000,0.000000,1762865743.247179,0.000000
228.000000,-4444.465571,-11482.158182,-40561.531849,-18512.497069,-6165.125211,-33845.816117,-20298.580265,-32676.261088,-10533.751313,-17107.533468,7292.703663,-18164.078076,-8800.082958,-17755.599946,-20556.809969,-16677.485904,0.010000,-0.004000,1.006000,192.000000,0.000000,0.000000,0.000000,0.000000,0.000000,0.000000,0.000000,0.000000,0.000000,1762865743.247190,0.000000
230.000000,-4426.584175,-11465.170856,-40522.192779,-18499.287188,-6175.116441,-33811.528541,-20262.705715,-32645.080405,-10486.209152,-17045.373266,7177.681586,-18112.020864,-8761.101515,-17672.563216,-20521.628323,-16677.888236,0.010000,-0.004000,1.006000,192.000000,0.000000,0.000000,0.000000,0.000000,0.000000,0.000000,0.000000,0.000000,0.000000,1762865743.247200,0.000000
232.000000,-4463.822182,-11512.064816,-40610.415114,-18530.669037,-6183.565400,-33881.131873,-20332.487861,-32700.043345,-10531.046752,-17094.144773,7250.212997,-18156.389076,-8809.627153,-17734.097568,-20555.513567,-16684.549056,0.010000,-0.004000,1.006000,192.000000,0.000000,0.000000,0.000000,0.000000,0.000000,0.000000,0.000000,0.000000,0.000000,1762865743.247211,0.000000
234.000000,-4420.392742,-11450.172836,-40510.167540,-18491.799354,-6159.649034,-33799.413896,-20254.994363,-32642.845230,-10513.500632,-17072.195360,7237.986593,-18131.489233,-8789.264713,-17712.483431,-20546.237593,-16680.123410,0.010000,-0.004000,1.006000,192.000000,0.000000,0.000000,0.000000,0.000000,0.000000,0.000000,0.000000,0.000000,0.000000,1762865743.247221,0.000000
236.000000,-4458.725984,-11498.966694,-40582.497785,-18523.516479,-6173.730633,-33857.416672,-20306.492782,-32677.401027,-10495.440423,-17051.072961,7181.213162,-18121.185079,-8768.499943,-17676.184198,-20532.491271,-16684.034966,0.008000,-0.006000,1.006000,192.000000,0.000000,32.000000,127.500000,104.000000,15.500000,56.000000,0.000000,0.000000,0.000000,1762865743.247231,0.000000
238.000000,-4443.057411,-11481.487630,-40561.531849,-18512.832345,-6170.132002,-33842.776280,-20296.948588,-32672.640106,-10533.796016,-17103.979540,7289.775585,-18158.065457,-8815.639772,-17749.989659,-20560.073323,-16682.090364,0.008000,-0.006000,1.006000,192.000000,0.000000,0.000000,0.000000,0.000000,0.000000,0.000000,0.000000,0.000000,0.000000,1762865743.247242,0.000000
240.000000,-4430.786303,-11468.858894,-40523.690346,-18503.355205,-6177.195153,-33816.177704,-20262.571605,-32645.058053,-10485.963283,-17041.640525,7174.172363,-18106.365872,-8759.715707,-17666.371783,-20529.607896,-16689.153515,0.008000,-0.006000,1.006000,192.000000,0.000000,0.000000,0.000000,0.000000,0.000000,0.000000,0.000000,0.000000,0.000000,1762865743.247252,0.000000
242.000000,-4467.130240,-11509.516717,-40605.721248,-18531.607810,-6181.062005,-33882.338867,-20328.509251,-32692.331993,-10526.710513,-17091.574322,7253.118724,-18149.348277,-8803.815699,-17730.610696,-20554.686553,-16699.725890,0.008000,-0.006000,1.006000,192.000000,0.000000,0.000000,0.000000,0.000000,0.000000,0.000000,0.000000,0.000000,0.000000,1762865743.247262,0.000000
244.000000,-4423.320821,-11457.861836,-40508.446456,-18500.225961,-6156.653900,-33807.572282,-20256.626041,-32640.788870,-10511.868955,-17074.452886,7243.440419,-18126.929477,-8783.028577,-17713.310446,-20547.377532,-16693.869733,0.008000,-0.006000,1.006000,192.000000,0.000000,0.000000,0.000000,0.000000,0.000000,0.000000,0.000000,0.000000,0.000000,1762865743.247273,0.000000
246.000000,-4459.038908,-11505.068720,-40580.687294,-18527.360979,-6182.961903,-33862.959905,-20305.196381,-32676.015219,-10498.413205,-17060.818322,7181.503735,-18122.749701,-8765.683623,-17684.074364,-20523.081186,-16691.813373,0.014000,0.000000,1.006000,192.000000,0.000000,56.000000,0.000000,0.000000,15.500000,56.000000,0.000000,0.000000,0.000000,1762865743.247284,0.000000
248.000000,-4444.197350,-11489.020167,-40559.453137,-18517.302694,-6163.694699,-33847.336036,-20296.389794,-32671.656629,-10536.210005,-17108.896924,7292.681312,-18156.634945,-8812.331714,-17758.818598,-20558.821626,-16688.080631,0.014000,0.000000,1.006000,192.000000,0.000000,0.000000,0.000000,0.000000,0.000000,0.000000,0.000000,0.000000,0.000000,1762865743.247294,0.000000
250.000000,-4413.910736,-11470.311757,-40518.683555,-18501.947046,-6166.980406,-33809.896864,-20259.420009,-32639.358358,-10485.292731,-17043.383961,7181.481383,-18104.018939,-8751.713783,-17674.038431,-20516.330959,-16682.984434,0.014000,0.000000,1.006000,192.000000,0.000000,0.000000,0.000000,0.000000,0.000000,0.000000,0.000000,0.000000,0.000000,1762865743.247304,0.000000
252.000000,-4454.277987,-11503.369987,-40600.066257,-18527.785662,-6164.499362,-33871.677085,-20324.664751,-32683.726571,-10520.340266,-17089.450906,7261.947663,-18144.967335,-8796.260809,-17730.811862,-20547.958678,-16680.615149,0.014000,0.000000,1.006000,192.000000,0.000000,0.000000,0.000000,0.000000,0.000000,0.000000,0.000000,0.000000,0.000000,1762865743.247315,0.000000
254.000000,-4408.501614,-11443.355554,-40500.288069,-18493.028700,-6155.983347,-33799.190378,-20250.166386,-32627.780155,-10501.341283,-17064.662822,7258.684308,-18118.838146,-8775.831315,-17710.248257,-20536.693399,-16678.111753,0.014000,0.000000,1.006000,192.000000,0.000000,0.000000,0.000000,0.000000,0.000000,0.000000,0.000000,0.000000,0.000000,1762865743.247326,0.000000
0.000000,-4443.906777,-11491.009473,-40574.920544,-18519.247296,-6169.304987,-33849.593562,-20301.865971,-32665.286382,-10483.661054,-17045.015638,7198.513412,-18108.981026,-8756.854684,-17673.300823,-20525.450471,-16682.827971,0.012000,-0.004000,1.006000,192.000000,0.000000,40.000000,127.500000,96.000000,15.500000,56.000000,0.000000,0.000000,0.000000,1762865743.247337,0.000000
2.000000,-4428.104094,-11467.338975,-40550.981826,-18506.730319,-6141.700583,-33829.879323,-20289.907788,-32658.983190,-10526.531699,-17089.607369,7310.562707,-18141.726332,-8796.886658,-17741.764217,-20553.636021,-16673.864922,0.012000,-0.004000,1.006000,192.000000,0.000000,0.000000,0.000000,0.000000,0.000000,0.000000,0.000000,0.000000,0.000000,1762865743.247347,0.000000
4.000000,-4413.441350,-11452.899748,-40512.179197,-18497.409641,-6157.838542,-33800.620890,-20255.039067,-32631.714062,-10478.654263,-17027.111891,7196.837031,-18094.072413,-8741.722553,-17656.894643,-20512.441756,-16675.854227,0.012000,-0.004000,1.006000,192.000000,0.000000,0.000000,0.000000,0.000000,0.000000,0.000000,0.000000,0.000000,0.000000,1762865743.247357,0.000000
6.000000,-4452.936882,-11502.766490,-40600.401533,-18528.299752,-6165.304025,-33867.206736,-20324.217716,-32689.403914,-10522.329572,-17076.375136,7270.821306,-18141.391056,-8777.328882,-17719.703045,-20547.533995,-16678.536436,0.012000,-0.004000,1.006000,192.000000,0.000000,0.000000,0.000000,0.000000,0.000000,0.000000,0.000000,0.000000,0.000000,1762865743.247368,0.000000
8.000000,-4404.232431,-11444.786065,-40502.500892,-18497.901380,-6146.528560,-33795.591747,-20252.960354,-32636.922018,-10510.192574,-17062.539406,7259.734840,-18124.895468,-8778.602931,-17707.074309,-20535.128776,-16676.480076,0.012000,-0.004000,1.006000,192.000000,0.000000,0.000000,0.000000,0.000000,0.000000,0.000000,0.000000,0.000000,0.000000,1762865743.247378,0.000000
10.000000,-4441.872769,-11488.573133,-40577.580402,-18525.684598,-6163.270016,-33843.871515,-20303.452945,-32672.103664,-10488.645493,-17044.792121,7199.675703,-18117.295875,-8758.620472,-17671.758553,-20519.415500,-16678.715250,0.013000,-0.009000,1.007000,192.000000,0.000000,56.000000,127.500000,72.000000,15.500000,64.000000,0.000000,0.000000,0.000000,1762865743.247389,0.000000
12.000000,-4430.585138,-11468.590673,-40559.207268,-18516.363921,-6146.394449,-33833.366195,-20296.613311,-32670.583745,-10529.973868,-17096.245837,7304.639495,-18157.596070,-8802.653408,-17746.502786,-20554.172463,-16677.999995,0.013000,-0.009000,1.007000,192.000000,0.000000,0.000000,0.000000,0.000000,0.000000,0.000000,0.000000,0.000000,0.000000,1762865743.727175,0.000000
14.000000,-4402.064312,-11442.997926,-40515.621366,-18499.153078,-6148.853141,-33791.523730,-20257.721276,-32633.591608,-10471.144077,-17025.435510,7196.255886,-18102.141392,-8736.156969,-17655.151207,-20514.028730,-16677.843532,0.013000,-0.009000,1.007000,192.000000,0.000000,0.000000,0.000000,0.000000,0.000000,0.000000,0.000000,0.000000,0.000000,1762865743.727262,0.000000
16.000000,-4437.961213,-11487.299083,-40604.737771,-18528.858546,-6152.407068,-33861.663504,-20328.799823,-32692.086123,-10512.807728,-17071.301290,7269.815477,-18143.670934,-8779.899333,-17710.494126,-20551.825530,-16677.709422,0.013000,-0.009000,1.007000,192.000000,0.000000,0.000000,0.000000,0.000000,0.000000,0.000000,0.000000,0.000000,0.000000,1762865743.727337,0.000000
18.000000,-4402.600754,-11444.897824,-40510.100485,-18500.516534,-6141.633527,-33798.564529,-20259.732933,-32645.214515,-10502.883554,-17060.170121,7251.911730,-18130.796329,-8772.702071,-17702.738071,-20530.345503,-16676.100096,0.013000,-0.009000,1.007000,192.000000,0.000000,0.000000,0.000000,0.000000,0.000000,0.000000,0.000000,0.000000,0.000000,1762865743.727405,0.000000
20.000000,-4446.678394,-11491.098880,-40581.626067,-18523.382368,-6173.037728,-33846.240800,-20305.710471,-32679.233870,-10487.214981,-17045.350915,7189.036273,-18124.157861,-8754.440696,-17668.137570,-20515.146317,-16680.726907,0.013500,-0.012500,1.006500,192.000000,0.000000,56.000000,127.500000,64.000000,15.500000,56.000000,0.000000,0.000000,0.000000,1762865743.727473,0.000000
22.000000,-4418.694010,-11471.809324,-40564.906963,-18515.335740,-6164.611121,-33833.924989,-20297.596788,-32679.233870,-10533.192519,-17090.032052,7301.018512,-18155.293841,-8800.082958,-17735.751597,-20560.788579,-16674.513122,0.013500,-0.012500,1.006500,192.000000,0.000000,0.000000,0.000000,0.000000,0.000000,0.000000,0.000000,0.000000,0.000000,1762865743.727540,0.000000
24.000000,-4420.437446,-11463.382717,-40526.149038,-18507.713796,-6164.924045,-33808.064021,-20264.002116,-32654.915172,-10485.762118,-17038.801854,7179.603836,-18113.361968,-8753.367812,-17664.158960,-20519.214334,-16675.496599,0.013500,-0.012500,1.006500,192.000000,0.000000,0.000000,0.000000,0.000000,0.000000,0.000000,0.000000,0.000000,0.000000,1762865743.727564,0.000000
26.000000,-4461.743469,-11511.975409,-40610.392762,-18535.854642,-6167.561551,-33876.281545,-20331.482033,-32704.960728,-10533.483092,-17092.021357,7257.298500,-18157.976050,-8799.278295,-17727.414397,-20547.466939,-16681.442163,0.013500,-0.012500,1.006500,192.000000,0.000000,0.000000,0.000000,0.000000,0.000000,0.000000,0.000000,0.000000,0.000000,1762865743.727588,0.000000
28.000000,-4417.554071,-11451.782161,-40510.212244,-18501.522362,-6141.097086,-33799.369192,-20258.861215,-32650.713044,-10517.166319,-17074.139961,7253.297538,-18137.300687,-8774.311396,-17712.304617,-20539.353256,-16678.849361,0.013500,-0.012500,1.006500,192.000000,0.000000,0.000000,0.000000,0.000000,0.000000,0.000000,0.000000,0.000000,0.000000,1762865743.727612,0.000000
30.000000,-4446.410173,-11500.307798,-40582.341323,-18526.735130,-6155.871589,-33850.554687,-20307.163335,-32684.553586,-10497.608542,-17053.911633,7185.839973,-18128.359989,-8758.575768,-17676.184198,-20523.394111,-16682.537399,0.012750,-0.013250,1.006250,192.000000,0.000000,48.000000,127.500000,72.000000,15.500000,56.000000,0.000000,0.000000,0.000000,1762865743.727634,0.000000
32.000000,-4431.099228,-11475.229141,-40561.509497,-18517.861488,-6141.007679,-33838.283579,-20296.814477,-32678.585670,-10536.902909,-17102.258456,7300.325608,-18161.529978,-8797.668969,-17747.888595,-20552.339620,-16673.730811,0.012750,-0.013250,1.006250,192.000000,0.000000,0.000000,0.000000,0.000000,0.000000,0.000000,0.000000,0.000000,0.000000,1762865743.727658,0.000000
34.000000,-4416.749408,-11460.476990,-40522.125724,-18506.238580,-6155.066926,-33805.091239,-20260.917575,-32650.377768,-10488.086699,-17039.941792,7185.638807,-18113.116099,-8747.399896,-17663.801332,-20517.001512,-16677.485904,0.012750,-0.013250,1.006250,192.000000,0.000000,0.000000,0.000000,0.000000,0.000000,0.000000,0.000000,0.000000,0.000000,1762865743.727681,0.000000
36.000000,-4456.311996,-11506.163955,-40608.179940,-18534.781758,-6162.845333,-33871.811196,-20330.275039,-32703.306699,-10524.922374,-17086.008738,7257.901997,-18158.199568,-8786.873077,-17724.687484,-20552.630192,-16682.179771,0.012750,-0.013250,1.006250,192.000000,0.000000,0.000000,0.000000,0.000000,0.000000,0.000000,0.000000,0.000000,0.000000,1762865743.727705,0.000000
38.000000,-4409.149815,-11449.703449,-40511.888625,-18501.455307,-6150.864798,-33795.502340,-20257.698924,-32648.813146,-10508.695007,-17067.188569,7255.242140,-18134.014980,-8767.248245,-17710.114146,-20539.643829,-16679.497561,0.012750,-0.013250,1.006250,192.000000,0.000000,0.000000,0.000000,0.000000,0.000000,0.000000,0.000000,0.000000,0.000000,1762865743.727728,0.000000
40.000000,-4448.667699,-11497.670293,-40583.637724,-18525.572839,-6168.120345,-33846.307855,-20305.710471,-32680.731437,-10496.937990,-17049.910671,7191.271447,-18126.504794,-8758.352251,-17673.256120,-20524.243477,-16677.329442,0.013375,-0.015625,1.010125,192.000000,0.000000,56.000000,127.500000,56.000000,15.500000,88.000000,0.000000,0.000000,0.000000,1762865743.727752,0.000000
42.000000,-4424.550167,-11465.372022,-40564.281114,-18514.575781,-6153.368193,-33833.276788,-20296.836829,-32674.003562,-10538.981621,-17094.457697,7301.867879,-18156.947870,-8802.698112,-17743.373542,-20555.312402,-16672.434410,0.013375,-0.015625,1.010125,192.000000,0.000000,0.000000,0.000000,0.000000,0.000000,0.000000,0.000000,0.000000,0.000000,1762865743.727775,0.000000
44.000000,-4422.493806,-11461.013432,-40523.757401,-18506.797374,-6160.923083,-33806.544102,-20261.990459,-32644.096928,-10487.594961,-17035.158519,7190.712653,-18109.539820,-8747.869283,-17665.298899,-20520.041349,-16679.274044,0.013375,-0.015625,1.010125,192.000000,0.000000,0.000000,0.000000,0.000000,0.000000,0.000000,0.000000,0.000000,0.000000,1762865743.727799,0.000000
46.000000,-4449.025327,-11497.647941,-40606.391800,-18532.993619,-6159.358461,-33871.699437,-20326.944629,-32693.360173,-10514.461757,-17084.041784,7268.250855,-18150.331754,-8787.901257,-17723.793414,-20545.321172,-16680.369279,0.013375,-0.015625,1.010125,192.000000,0.000000,0.000000,0.000000,0.000000,0.000000,0.000000,0.000000,0.000000,0.000000,1762865743.727822,0.000000
48.000000,-4408.792187,-11449.904615,-40515.107276,-18503.086985,-6157.324452,-33798.631584,-20259.218843,-32647.203821,-10514.305295,-17071.591863,7258.393736,-18135.244326,-8774.579617,-17716.596152,-20536.291067,-16674.758992,0.013375,-0.015625,1.010125,192.000000,0.000000,0.000000,0.000000,0.000000,0.000000,0.000000,0.000000,0.000000,0.000000,1762865743.727845,0.000000
50.000000,-4444.107943,-11495.748043,-40583.950649,-18526.913944,-6171.182534,-33849.705321,-20304.883457,-32677.088103,-10498.748481,-17048.927194,7190.869116,-18122.213259,-8759.536893,-17675.468943,-20522.477689,-16668.925186,0.011687,-0.016813,1.013062,192.000000,0.000000,40.000000,127.500000,56.000000,15.500000,96.000000,0.000000,0.000000,0.000000,1762865743.727869,0.000000
52.000000,-4425.935975,-11471.049365,-40566.337474,-18516.341569,-6159.045536,-33836.093108,-20296.747422,-32672.729513,-10536.567633,-17098.771584,7300.839698,-18157.216091,-8801.580525,-17747.575670,-20557.413466,-16671.808561,0.011687,-0.016813,1.013062,192.000000,0.000000,0.000000,0.000000,0.000000,0.000000,0.000000,0.000000,0.000000,0.000000,1762865743.727892,0.000000
54.000000,-4412.569632,-11452.229196,-40522.036317,-18504.562200,-6165.147563,-33799.927986,-20257.833035,-32639.067786,-10486.700891,-17035.382037,7187.538706,-18104.041291,-8746.952861,-17663.242538,-20521.315398,-16678.312919,0.011687,-0.016813,1.013062,192.000000,0.000000,0.000000,0.000000,0.000000,0.000000,0.000000,0.000000,0.000000,0.000000,1762865743.727915,0.000000
56.000000,-4436.575405,-11493.244647,-40608.649326,-18529.797319,-6167.382737,-33866.111501,-20325.067082,-32688.241623,-10522.284868,-17081.069002,7262.059422,-18142.978030,-8786.403690,-17721.290019,-20548.808044,-16676.390669,0.011687,-0.016813,1.013062,192.000000,0.000000,0.000000,0.000000,0.000000,0.000000,0.000000,0.000000,0.000000,0.000000,1762865743.727938,0.000000
58.000000,-4398.845661,-11432.559661,-40513.229729,-18493.878066,-6157.391507,-33791.233157,-20252.312154,-32634.955065,-10509.276153,-17060.818322,7259.041936,-18119.888678,-8769.639882,-17706.426109,-20539.621477,-16674.021384,0.011687,-0.016813,1.013062,192.000000,0.000000,0.000000,0.000000,0.000000,0.000000,0.000000,0.000000,0.000000,0.000000,1762865743.727961,0.000000
60.000000,-4428.104094,-11473.508057,-40579.882631,-18516.878011,-6175.697586,-33841.837507,-20298.177933,-32662.872393,-10489.852487,-17029.838804,7196.702921,-18106.455279,-8752.004355,-17662.974317,-20525.025788,-16676.413021,0.011844,-0.014406,1.013531,192.000000,0.000000,48.000000,127.500000,80.000000,15.500000,88.000000,0.000000,0.000000,0.000000,1762865743.727984,0.000000
62.000000,-4420.191577,-11463.449772,-40565.868088,-18512.340607,-6169.573208,-33838.149469,-20294.176971,-32663.699408,-10533.393685,-17084.578226,7311.166204,-18144.788521,-8796.976065,-17741.071313,-20562.867291,-16676.368317,0.011844,-0.014406,1.013531,192.000000,0.000000,0.000000,0.000000,0.000000,0.000000,0.000000,0.000000,0.000000,0.000000,1762865743.728007,0.000000
64.000000,-4396.834004,-11441.232138,-40521.499875,-18500.516534,-6169.953188,-33808.175779,-20255.150825,-32631.043509,-10484.823344,-17025.077882,7197.664046,-18095.949959,-8744.628280,-17660.470922,-20521.985951,-16679.117582,0.011844,-0.014406,1.013531,192.000000,0.000000,0.000000,0.000000,0.000000,0.000000,0.000000,0.000000,0.000000,0.000000,1762865743.728030,0.000000
66.000000,-4433.401457,-11484.102784,-40607.062353,-18529.171470,-6164.454659,-33876.594469,-20319.993236,-32682.564280,-10522.508385,-17074.765810,7272.542390,-18139.111178,-8789.085899,-17721.826461,-20555.357105,-16680.928073,0.011844,-0.014406,1.013531,192.000000,0.000000,0.000000,0.000000,0.000000,0.000000,0.000000,0.000000,0.000000,0.000000,1762865743.728054,0.000000
68.000000,-4383.154736,-11430.950335,-40511.262776,-18493.900418,-6159.626682,-33800.352669,-20248.132378,-32630.551771,-10510.505499,-17057.107932,7266.954454,-18116.938247,-8774.601969,-17708.057786,-20544.024771,-16676.524779,0.011844,-0.014406,1.013531,192.000000,0.000000,0.000000,0.000000,0.000000,0.000000,0.000000,0.000000,0.000000,0.000000,1762865743.728077,0.000000
70.000000,-4440.643423,-11474.737403,-40581.871937,-18522.108319,-6188.236915,-33851.851088,-20297.306215,-32665.956934,-10491.059481,-17037.483101,7197.529936,-18108.690454,-8758.955748,-17669.523379,-20532.781843,-16678.648195,0.011844,-0.014406,1.013531,192.000000,0.000000,0.000000,0.000000,0.000000,0.000000,0.000000,0.000000,0.000000,0.000000,1762865743.728100,0.000000
72.000000,-4422.024420,-11468.300100,-40561.397739,-18515.872182,-6170.646092,-33846.464318,-20291.159486,-32663.475891,-10537.841682,-17090.881418,7312.015571,-18147.023695,-8803.033388,-17745.876938,-20568.142303,-16673.172018,0.014000,-0.012000,1.008000,192.000000,0.000000,56.000000,127.500000,80.000000,15.500000,64.000000,0.000000,0.000000,0.000000,1762865743.728124,0.000000
74.000000,-4410.088588,-11451.133961,-40515.330793,-18505.389214,-6162.375946,-33816.445925,-20253.116817,-32633.278684,-10487.550257,-17033.571545,7197.798156,-18102.320206,-8747.757524,-17665.701230,-20523.438814,-16680.503390,0.014000,-0.012000,1.008000,192.000000,0.000000,0.000000,0.000000,0.000000,0.000000,0.000000,0.000000,0.000000,0.000000,1762865743.728137,0.000000
76.000000,-4446.410173,-11493.646979,-40600.557995,-18532.635991,-6158.687908,-33883.344696,-20319.322684,-32683.614812,-10519.557955,-17078.900883,7275.135192,-18142.195719,-8782.603894,-17722.072330,-20550.797349,-16682.447992,0.014000,-0.012000,1.008000,192.000000,0.000000,0.000000,0.000000,0.000000,0.000000,0.000000,0.000000,0.000000,0.000000,1762865743.728148,0.000000
78.000000,-4386.060463,-11441.254490,-40505.428971,-18498.817801,-6153.524656,-33814.613082,-20249.182910,-32631.043509,-10503.174127,-17065.132208,7271.894189,-18125.968352,-8768.276425,-17715.344455,-20545.969373,-16682.224474,0.014000,-0.012000,1.008000,192.000000,0.000000,0.000000,0.000000,0.000000,0.000000,0.000000,0.000000,0.000000,0.000000,1762865743.728159,0.000000
80.000000,-4420.236280,-11475.765583,-40572.215983,-18518.397929,-6166.823943,-33860.210640,-20293.685233,-32659.899611,-10478.095469,-17038.690095,7207.565869,-18107.304645,-8744.024783,-17668.629309,-20527.775053,-16681.285701,0.014000,-0.012000,1.008000,192.000000,0.000000,0.000000,0.000000,0.000000,0.000000,0.000000,0.000000,0.000000,0.000000,1762865743.728169,0.000000
82.000000,-4412.636687,-11463.159199,-40563.074119,-18515.179278,-6160.408993,-33854.265076,-20292.277073,-32662.581821,-10529.437426,-17090.389680,7317.000010,-18146.710771,-8798.831260,-17746.614545,-20567.203530,-16679.676375,0.010000,-0.012000,1.006000,192.000000,0.000000,40.000000,127.500000,80.000000,15.500000,56.000000,0.000000,0.000000,0.000000,1762865743.728180,0.000000
84.000000,-4408.591021,-11450.686926,-40517.007174,-18500.471830,-6170.914313,-33817.407050,-20251.529843,-32629.076556,-10481.425879,-17035.896127,7204.235459,-18100.777936,-8743.577748,-17669.948062,-20531.060759,-16681.419811,0.010000,-0.012000,1.006000,192.000000,0.000000,0.000000,0.000000,0.000000,0.000000,0.000000,0.000000,0.000000,0.000000,1762865743.728191,0.000000
86.000000,-4432.641498,-11493.624627,-40608.068181,-18529.998485,-6174.177667,-33885.289298,-20321.021416,-32683.815978,-10518.462720,-17083.773563,7275.962207,-18142.642753,-8782.693301,-17726.386216,-20557.346410,-16679.922245,0.010000,-0.012000,1.006000,192.000000,0.000000,0.000000,0.000000,0.000000,0.000000,0.000000,0.000000,0.000000,0.000000,1762865743.728202,0.000000
88.000000,-4395.872879,-11441.075676,-40509.094657,-18493.945121,-6157.257397,-33809.606291,-20248.311192,-32629.165963,-10509.633781,-17068.395563,7275.470468,-18123.710826,-8772.031518,-17719.032493,-20549.925631,-16676.949463,0.010000,-0.012000,1.006000,192.000000,0.000000,0.000000,0.000000,0.000000,0.000000,0.000000,0.000000,0.000000,0.000000,1762865743.728212,0.000000
90.000000,-4440.263443,-11485.645054,-40580.083797,-18523.248258,-6178.648016,-33860.903545,-20297.172105,-32661.732455,-10492.132365,-17047.586089,7206.068302,-18113.965465,-8753.680736,-17680.676899,-20533.988837,-16679.162285,0.010000,-0.012000,1.006000,192.000000,0.000000,0.000000,0.000000,0.000000,0.000000,0.000000,0.000000,0.000000,0.000000,1762865743.728223,0.000000
92.000000,-4428.238205,-11468.165990,-40565.197535,-18513.569953,-6162.018318,-33851.180536,-20292.791163,-32660.793681,-10532.410208,-17094.815325,7320.665696,-18148.878890,-8801.960504,-17752.984792,-20564.946004,-16674.379012,0.010000,-0.016000,1.012000,192.000000,0.000000,40.000000,127.500000,64.000000,15.500000,80.000000,0.000000,0.000000,0.000000,1762865743.728233,0.000000
94.000000,-4382.439480,-11442.729705,-40514.280261,-18497.253179,-6160.654862,-33816.423573,-20248.311192,-32620.851114,-10472.485181,-17028.587106,7213.444378,-18095.301759,-8743.331879,-17672.317347,-20522.053006,-16677.731774,0.010000,-0.016000,1.012000,192.000000,0.000000,0.000000,0.000000,0.000000,0.000000,0.000000,0.000000,0.000000,0.000000,1762865743.728244,0.000000
96.000000,-4426.494768,-11486.472069,-40605.453027,-18528.858546,-6168.433269,-33886.764513,-20320.283809,-32675.903460,-10515.556993,-17076.263377,7289.507364,-18135.221974,-8782.872115,-17727.816728,-20549.813873,-16671.808561,0.010000,-0.016000,1.012000,192.000000,0.000000,0.000000,0.000000,0.000000,0.000000,0.000000,0.000000,0.000000,0.000000,1762865743.728255,0.000000
98.000000,-4391.469585,-11430.860928,-40506.054819,-18493.855714,-6155.804533,-33809.159256,-20247.662991,-32618.951216,-10499.240220,-17062.606461,7293.061291,-18118.189945,-8767.136486,-17717.713740,-20543.711846,-16667.829951,0.010000,-0.016000,1.012000,192.000000,0.000000,0.000000,0.000000,0.000000,0.000000,0.000000,0.000000,0.000000,0.000000,1762865743.728266,0.000000
100.000000,-4419.923356,-11475.698528,-40579.726169,-18521.348360,-6179.340920,-33862.334056,-20297.976768,-32652.501184,-10476.061461,-17035.627906,7230.029372,-18102.364910,-8747.712820,-17676.430068,-20526.724521,-16675.138971,0.010000,-0.016000,1.012000,192.000000,0.000000,0.000000,0.000000,0.000000,0.000000,0.000000,0.000000,0.000000,0.000000,1762865743.728276,0.000000
102.000000,-4408.680428,-11462.443943,-40568.080910,-18515.514554,-6166.734536,-33855.762643,-20295.406317,-32656.189222,-10529.213909,-17091.619026,7342.011612,-18144.587355,-8802.854574,-17755.398781,-20566.085943,-16671.875617,0.008000,-0.018000,1.006000,192.000000,0.000000,32.000000,127.500000,56.000000,15.500000,56.000000,0.000000,0.000000,0.000000,1762865743.728287,0.000000
104.000000,-4389.413224,-11445.769542,-40524.115029,-18501.812935,-6170.109650,-33819.485762,-20255.284936,-32628.651873,-10477.871952,-17029.659990,7231.325773,-18097.224009,-8744.091838,-17673.077306,-20524.891677,-16673.149666,0.008000,-0.018000,1.006000,192.000000,0.000000,0.000000,0.000000,0.000000,0.000000,0.000000,0.000000,0.000000,0.000000,1762865743.728297,0.000000
106.000000,-4441.850417,-11490.316569,-40612.292661,-18527.830366,-6167.606255,-33883.769379,-20325.558820,-32685.402952,-10514.998199,-17076.084563,7297.106957,-18140.988724,-8785.464917,-17728.844908,-20553.747780,-16670.355698,0.008000,-0.018000,1.006000,192.000000,0.000000,0.000000,0.000000,0.000000,0.000000,0.000000,0.000000,0.000000,0.000000,1762865743.728308,0.000000
108.000000,-4392.095434,-11440.650992,-40518.817665,-18494.906246,-6149.926025,-33811.372079,-20256.782503,-32638.643102,-10506.303371,-17060.348935,7295.967018,-18125.096634,-8771.025690,-17717.356112,-20542.594259,-16659.045715,0.008000,-0.018000,1.006000,192.000000,0.000000,0.000000,0.000000,0.000000,0.000000,0.000000,0.000000,0.000000,0.000000,1762865743.728318,0.000000
110.000000,-4426.897100,-11484.661577,-40586.677562,-18520.633104,-6160.073717,-33861.328228,-20303.743518,-32673.064789,-10485.739766,-17043.786293,7222.116854,-18117.787614,-8756.184132,-17679.156980,-20524.981084,-16665.952404,0.008000,-0.018000,1.006000,192.000000,0.000000,0.000000,0.000000,0.000000,0.000000,0.000000,0.000000,0.000000,0.000000,1762865743.728329,0.000000
112.000000,-4424.259594,-11468.344804,-40574.272343,-18512.586476,-6149.858969,-33854.086262,-20302.648282,-32672.796568,-10528.789226,-17094.167125,7336.647193,-18151.449341,-8795.702016,-17752.202481,-20556.273527,-16661.817332,0.008000,-0.016000,1.008000,192.000000,0.000000,32.000000,127.500000,64.000000,15.500000,64.000000,0.000000,0.000000,0.000000,1762865743.728339,0.000000
114.000000,-4415.654172,-11444.026106,-40521.991613,-18494.280397,-6156.519789,-33808.265186,-20256.558985,-32635.424451,-10485.113917,-17028.721217,7222.854462,-18100.442660,-8742.348402,-17666.617652,-20518.588486,-16663.516064,0.008000,-0.016000,1.008000,192.000000,0.000000,0.000000,0.000000,0.000000,0.000000,0.000000,0.000000,0.000000,0.000000,1762865743.728350,0.000000
116.000000,-4461.765821,-11498.363197,-40616.360678,-18529.752616,-6172.836563,-33883.903490,-20330.655018,-32696.198844,-10527.537528,-17078.520903,7282.868896,-18144.699114,-8785.487269,-17722.049978,-20549.679762,-16667.405268,0.008000,-0.016000,1.008000,192.000000,0.000000,0.000000,0.000000,0.000000,0.000000,0.000000,0.000000,0.000000,0.000000,1762865743.728361,0.000000
118.000000,-4399.292695,-11448.049420,-40512.872101,-18494.794487,-6157.480914,-33807.438172,-20255.128474,-32640.520649,-10517.635705,-17065.758057,7275.850448,-18131.422178,-8774.423155,-17715.947952,-20539.912050,-16667.964061,0.008000,-0.016000,1.008000,192.000000,0.000000,0.000000,0.000000,0.000000,0.000000,0.000000,0.000000,0.000000,0.000000,1762865743.728372,0.000000
120.000000,-4436.977737,-11487.991987,-40576.976905,-18520.007255,-6173.216542,-33848.408919,-20298.401451,-32669.332048,-10494.121670,-17043.249851,7200.748587,-18120.179250,-8752.339632,-17674.105486,-20519.571962,-16669.975718,0.008000,-0.016000,1.008000,192.000000,0.000000,0.000000,0.000000,0.000000,0.000000,0.000000,0.000000,0.000000,0.000000,1762865743.728383,0.000000
122.000000,-4421.107998,-11467.875417,-40559.251971,-18512.161793,-6142.885225,-33838.305931,-20292.411183,-32666.381617,-10540.568595,-17094.949436,7307.724036,-18155.673820,-8798.786557,-17746.748656,-20556.586451,-16662.018497,0.014000,-0.010000,1.012000,192.000000,0.000000,56.000000,127.500000,88.000000,15.500000,80.000000,0.000000,0.000000,0.000000,1762865743.728393,0.000000
124.000000,-4392.006027,-11434.504263,-40501.316250,-18492.961644,-6146.685022,-33794.965898,-20243.662029,-32621.231094,-10482.476411,-17028.967086,7194.266581,-18100.465012,-8730.032591,-17657.028753,-20515.861573,-16673.060259,0.014000,-0.010000,1.012000,192.000000,0.000000,0.000000,0.000000,0.000000,0.000000,0.000000,0.000000,0.000000,0.000000,1762865743.728404,0.000000
126.000000,-4431.322745,-11483.164010,-40590.767931,-18524.589363,-6159.067888,-33857.930763,-20312.304236,-32676.685772,-10512.852432,-17067.143865,7261.992367,-18137.278335,-8768.745812,-17706.917847,-20544.963544,-16674.021384,0.014000,-0.010000,1.012000,192.000000,0.000000,0.000000,0.000000,0.000000,0.000000,0.000000,0.000000,0.000000,0.000000,1762865743.728414,0.000000
128.000000,-4387.379216,-11426.636449,-40495.080113,-18491.955816,-6147.467333,-33794.630622,-20240.018694,-32628.875390,-10510.125519,-17060.259528,7246.256738,-18126.907125,-8768.052908,-17704.325045,-20533.608858,-16660.923262,0.014000,-0.010000,1.012000,192.000000,0.000000,0.000000,0.000000,0.000000,0.000000,0.000000,0.000000,0.000000,0.000000,1762865743.728425,0.000000
130.000000,-4436.865978,-11487.813173,-40560.324855,-18519.180241,-6152.876455,-33846.531373,-20284.275148,-32661.397178,-10488.354920,-17042.311077,7167.958578,-18117.228820,-8747.981041,-17664.270719,-20513.067605,-16667.025288,0.014000,-0.010000,1.012000,192.000000,0.000000,0.000000,0.000000,0.000000,0.000000,0.000000,0.000000,0.000000,0.000000,1762865743.728436,0.000000
132.000000,-4428.506425,-11476.413784,-40551.115936,-18514.553429,-6150.618929,-33844.095033,-20283.962224,-32664.481719,-10542.781418,-17102.370215,7279.002044,-18161.284108,-8799.747682,-17742.323010,-20548.428064,-16671.696803,0.014000,-0.008000,1.008000,192.000000,0.000000,56.000000,127.500000,96.000000,15.500000,64.000000,0.000000,0.000000,0.000000,1762865744.208887,0.000000
134.000000,-4403.964210,-11450.463408,-40501.271546,-18496.873200,-6163.649996,-33797.290480,-20239.035218,-32626.796678,-10487.371443,-17037.907784,7168.338557,-18109.338654,-8746.572882,-17662.192006,-20514.989855,-16672.903797,0.014000,-0.008000,1.008000,192.000000,0.000000,0.000000,0.000000,0.000000,0.000000,0.000000,0.000000,0.000000,0.000000,1762865744.208989,0.000000
136.000000,-4451.081687,-11499.123156,-40592.913698,-18528.702084,-6174.781165,-33867.340847,-20310.225524,-32681.849025,-10524.095359,-17084.041784,7236.444323,-18149.370629,-8787.320112,-17714.808013,-20537.185137,-16668.031116,0.014000,-0.008000,1.008000,192.000000,0.000000,0.000000,0.000000,0.000000,0.000000,0.000000,0.000000,0.000000,0.000000,1762865744.209076,0.000000
138.000000,-4398.309219,-11441.723876,-40495.102465,-18492.961644,-6137.409048,-33794.138884,-20239.057569,-32629.523591,-10514.104130,-17065.735706,7239.640622,-18132.159785,-8771.450373,-17706.806088,-20530.524317,-16667.941710,0.014000,-0.008000,1.008000,192.000000,0.000000,0.000000,0.000000,0.000000,0.000000,0.000000,0.000000,0.000000,0.000000,1762865744.209162,0.000000
140.000000,-4432.015649,-11480.481801,-40561.285980,-18516.386272,-6172.076603,-33835.936646,-20282.151733,-32658.580859,-10490.277170,-17041.260545,7171.378395,-18118.033483,-8752.160818,-17661.901434,-20515.839221,-16669.998070,0.014000,-0.008000,1.008000,192.000000,0.000000,0.000000,0.000000,0.000000,0.000000,0.000000,0.000000,0.000000,0.000000,1762865744.209247,0.000000
142.000000,-4423.991373,-11471.004661,-40551.004177,-18511.111261,-6152.518827,-33831.533352,-20282.531712,-32661.978324,-10537.819330,-17091.104936,7284.791146,-18155.495007,-8796.864307,-17735.237507,-20551.557309,-16664.544244,0.015000,-0.011000,1.009000,192.000000,0.000000,64.000000,127.500000,72.000000,15.500000,72.000000,0.000000,0.000000,0.000000,1762865744.209332,0.000000
144.000000,-4381.187782,-11437.454693,-40495.683610,-18490.592359,-6133.072809,-33785.824035,-20235.727159,-32620.381727,-10479.548333,-17017.947676,7181.481383,-18097.425174,-8733.072428,-17646.992820,-20503.188134,-16664.857169,0.015000,-0.011000,1.009000,192.000000,0.000000,0.000000,0.000000,0.000000,0.000000,0.000000,0.000000,0.000000,0.000000,1762865744.209402,0.000000
146.000000,-4464.157458,-11497.737348,-40593.293678,-18527.584496,-6145.992118,-33865.977391,-20312.527753,-32682.161949,-10521.256688,-17065.601595,7248.022526,-18141.368704,-8777.194771,-17706.157888,-20531.597201,-16665.125390,0.015000,-0.011000,1.009000,192.000000,0.000000,0.000000,0.000000,0.000000,0.000000,0.000000,0.000000,0.000000,0.000000,1762865744.209428,0.000000
148.000000,-4396.319913,-11436.940603,-40494.946002,-18493.453383,-6136.894958,-33786.695753,-20238.163500,-32627.176658,-10513.657095,-17055.476255,7250.436515,-18128.382340,-8769.528123,-17702.671016,-20522.500041,-16661.929090,0.015000,-0.011000,1.009000,192.000000,0.000000,0.000000,0.000000,0.000000,0.000000,0.000000,0.000000,0.000000,0.000000,1762865744.209459,0.000000
150.000000,-4427.321783,-11476.547894,-40560.436614,-18517.146232,-6153.099972,-33832.360367,-20281.637643,-32654.870469,-10484.599827,-17028.073016,7182.844839,-18111.551477,-8742.594271,-17654.413599,-20510.810078,-16667.539378,0.015000,-0.011000,1.009000,192.000000,0.000000,0.000000,0.000000,0.000000,0.000000,0.000000,0.000000,0.000000,0.000000,1762865744.209495,0.000000
152.000000,-4420.862129,-11471.965786,-40553.351111,-18516.006293,-6149.277824,-33835.511963,-20283.179913,-32661.754806,-10531.404380,-17085.718165,7297.598695,-18153.595108,-8793.288027,-17736.288039,-20549.456245,-16671.763858,0.016500,-0.011500,1.008500,192.000000,0.000000,72.000000,127.500000,80.000000,15.500000,64.000000,0.000000,0.000000,0.000000,1762865744.209540,0.000000
154.000000,-4396.766948,-11461.996908,-40506.501854,-18503.645778,-6158.330281,-33798.743343,-20239.817529,-32632.295207,-10480.844734,-17034.398560,7182.420156,-18106.969369,-8743.086009,-17661.320288,-20512.262942,-16668.589910,0.016500,-0.011500,1.008500,192.000000,0.000000,0.000000,0.000000,0.000000,0.000000,0.000000,0.000000,0.000000,0.000000,1762865744.209574,0.000000
156.000000,-4461.117621,-11509.963752,-40601.340306,-18538.089816,-6177.329263,-33878.024981,-20313.108899,-32690.543853,-10531.516138,-17084.220598,7244.401544,-18154.220957,-8795.769071,-17724.553373,-20539.509718,-16669.774553,0.016500,-0.011500,1.008500,192.000000,0.000000,0.000000,0.000000,0.000000,0.000000,0.000000,0.000000,0.000000,0.000000,1762865744.209608,0.000000
158.000000,-4405.573536,-11449.546987,-40505.428971,-18500.248313,-6159.470220,-33800.844407,-20239.728122,-32635.379748,-10524.944726,-17072.083601,7246.815532,-18134.685532,-8786.090766,-17717.065539,-20534.704093,-16671.361526,0.016500,-0.011500,1.008500,192.000000,0.000000,0.000000,0.000000,0.000000,0.000000,0.000000,0.000000,0.000000,0.000000,1762865744.209644,0.000000
160.000000,-4451.640481,-11495.971560,-40575.345227,-18523.471775,-6178.826830,-33852.119309,-20284.208093,-32664.481719,-10507.063330,-17045.730894,7174.798211,-18117.161765,-8766.778859,-17673.613748,-20520.980122,-16668.187579,0.016500,-0.011500,1.008500,192.000000,0.000000,0.000000,0.000000,0.000000,0.000000,0.000000,0.000000,0.000000,0.000000,1762865744.209670,0.000000
162.000000,-4443.705612,-11478.380737,-40561.956532,-18514.866354,-6163.426478,-33842.709225,-20280.453000,-32661.151309,-10552.593834,-17097.251665,7295.363521,-18150.175291,-8819.774845,-17747.933298,-20555.938251,-16669.461628,0.012250,-0.013750,1.007250,192.000000,0.000000,32.000000,127.500000,64.000000,15.500000,56.000000,0.000000,0.000000,0.000000,1762865744.209696,0.000000
164.000000,-4412.167300,-11452.586824,-40511.620404,-18496.381461,-6170.869609,-33792.998945,-20237.895279,-32623.868599,-10495.999217,-17033.169214,7188.164555,-18096.464049,-8760.587425,-17661.253233,-20517.157974,-16665.393611,0.012250,-0.013750,1.007250,192.000000,0.000000,0.000000,0.000000,0.000000,0.000000,0.000000,0.000000,0.000000,0.000000,1762865744.209721,0.000000
166.000000,-4445.627862,-11501.872421,-40602.480245,-18527.137462,-6176.614008,-33866.983219,-20310.292579,-32675.925812,-10532.343153,-17075.816342,7253.029317,-18136.719541,-8800.529993,-17714.137460,-20553.166634,-16668.947538,0.012250,-0.013750,1.007250,192.000000,0.000000,0.000000,0.000000,0.000000,0.000000,0.000000,0.000000,0.000000,0.000000,1762865744.209747,0.000000
168.000000,-4408.099283,-11440.315716,-40503.462017,-18489.139496,-6155.424554,-33790.249680,-20237.671761,-32622.147515,-10517.456891,-17058.627851,7257.499666,-18116.535916,-8786.068414,-17704.705024,-20541.789596,-16665.371259,0.012250,-0.013750,1.007250,192.000000,0.000000,0.000000,0.000000,0.000000,0.000000,0.000000,0.000000,0.000000,0.000000,1762865744.209772,0.000000
170.000000,-4431.367449,-11480.012414,-40568.103262,-18515.156927,-6167.382737,-33840.608161,-20282.039974,-32654.110510,-10492.489993,-17028.095368,7186.532877,-18101.113212,-8759.715707,-17658.034582,-20523.103538,-16666.846474,0.012250,-0.013750,1.007250,192.000000,0.000000,0.000000,0.000000,0.000000,0.000000,0.000000,0.000000,0.000000,0.000000,1762865744.209798,0.000000
172.000000,-4431.590966,-11476.369080,-40561.598904,-18513.525249,-6157.257397,-33838.864725,-20284.565721,-32658.804376,-10539.518063,-17084.689985,7299.878573,-18142.888623,-8806.542612,-17739.037304,-20556.787617,-16668.768724,0.011125,-0.013875,1.006625,192.000000,0.000000,40.000000,127.500000,72.000000,15.500000,56.000000,0.000000,0.000000,0.000000,1762865744.209822,0.000000
174.000000,-4405.171204,-11446.529501,-40509.720505,-18494.056880,-6148.875493,-33793.445980,-20238.275258,-32622.393384,-10485.695062,-17026.530746,7189.013921,-18091.613721,-8751.557321,-17656.402905,-20515.615704,-16664.924224,0.011125,-0.013875,1.006625,192.000000,0.000000,0.000000,0.000000,0.000000,0.000000,0.000000,0.000000,0.000000,0.000000,1762865744.209848,0.000000
176.000000,-4438.318841,-11492.149412,-40607.017649,-18527.517441,-6167.226275,-33865.530356,-20314.785280,-32680.910251,-10531.605545,-17067.479142,7255.666823,-18132.495061,-8792.930400,-17707.722510,-20549.188024,-16669.238111,0.011125,-0.013875,1.006625,192.000000,0.000000,0.000000,0.000000,0.000000,0.000000,0.000000,0.000000,0.000000,0.000000,1762865744.209873,0.000000
178.000000,-4386.865126,-11435.130112,-40506.524206,-18491.978168,-6149.590748,-33788.170968,-20243.527918,-32631.602303,-10515.780510,-17050.044781,7259.712489,-18115.664198,-8781.173382,-17697.753632,-20543.711846,-16666.600605,0.011125,-0.013875,1.006625,192.000000,0.000000,0.000000,0.000000,0.000000,0.000000,0.000000,0.000000,0.000000,0.000000,1762865744.209898,0.000000
180.000000,-4443.012708,-11486.829697,-40571.321913,-18518.263819,-6170.422574,-33834.908466,-20287.583207,-32663.967629,-10496.021568,-17034.443263,7184.901200,-18105.516506,-8756.675870,-17657.296974,-20526.277486,-16666.690012,0.011125,-0.013875,1.006625,192.000000,0.000000,0.000000,0.000000,0.000000,0.000000,0.000000,0.000000,0.000000,0.000000,1762865744.209924,0.000000
182.000000,-4441.895120,-11480.884132,-40567.723282,-18516.654493,-6153.591711,-33837.233047,-20290.623044,-32672.505995,-10544.368392,-17093.384813,7299.275076,-18147.806006,-8807.414330,-17736.198632,-20564.923652,-16657.279927,0.009562,-0.012938,1.008313,192.000000,0.000000,32.000000,127.500000,80.000000,15.500000,72.000000,0.000000,0.000000,0.000000,1762865744.209949,0.000000
184.000000,-4410.312105,-11451.893920,-40513.207378,-18500.270665,-6155.469257,-33794.027125,-20244.377285,-32633.323387,-10494.099318,-17032.543365,7185.638807,-18098.788631,-8754.395992,-17657.632251,-20520.242515,-16667.941710,0.009562,-0.012938,1.008313,192.000000,0.000000,0.000000,0.000000,0.000000,0.000000,0.000000,0.000000,0.000000,0.000000,1762865744.209974,0.000000
186.000000,-4441.604548,-11498.251438,-40603.530777,-18533.284191,-6163.962920,-33866.849109,-20316.126384,-32684.419475,-10528.632763,-17077.380964,7253.565759,-18139.334695,-8792.550420,-17712.952818,-20544.516509,-16669.573387,0.009562,-0.012938,1.008313,192.000000,0.000000,0.000000,0.000000,0.000000,0.000000,0.000000,0.000000,0.000000,0.000000,1762865744.209999,0.000000
188.000000,-4397.348094,-11439.064019,-40509.027601,-18499.801278,-6156.050403,-33796.798741,-20245.852500,-32633.815126,-10517.032208,-17062.897034,7262.573512,-18121.855631,-8781.732176,-17704.302693,-20542.214279,-16669.215759,0.009562,-0.012938,1.008313,192.000000,0.000000,0.000000,0.000000,0.000000,0.000000,0.000000,0.000000,0.000000,0.000000,1762865744.210026,0.000000
190.000000,-4430.585138,-11497.424423,-40574.361750,-18524.231735,-6177.262208,-33845.413786,-20288.320814,-32665.062864,-10494.076967,-17040.098255,7186.666988,-18111.707939,-8754.932434,-17663.443704,-20524.154070,-16674.826047,0.009562,-0.012938,1.008313,192.000000,0.000000,0.000000,0.000000,0.000000,0.000000,0.000000,0.000000,0.000000,0.000000,1762865744.210054,0.000000
192.000000,-4426.830045,-11479.252455,-40566.270419,-18518.174412,-6166.622778,-33843.536239,-20287.091468,-32668.885013,-10543.161397,-17095.597636,7302.158451,-18150.667030,-8804.463900,-17740.020781,-20564.208396,-16668.321689,0.007781,-0.011469,1.010156,192.000000,0.000000,24.000000,127.500000,88.000000,15.500000,80.000000,0.000000,0.000000,0.000000,1762865744.210127,0.000000
194.000000,-4402.421940,-11456.386621,-40514.459075,-18500.963569,-6176.993987,-33802.543140,-20242.343276,-32632.786945,-10493.987560,-17038.712447,7189.528011,-18102.342558,-8755.759448,-17660.806198,-20525.405768,-16676.033041,0.007781,-0.011469,1.010156,192.000000,0.000000,0.000000,0.000000,0.000000,0.000000,0.000000,0.000000,0.000000,0.000000,1762865744.210153,0.000000
196.000000,-4456.691975,-11498.497307,-40603.731943,-18531.786624,-6183.453641,-33874.582812,-20313.712396,-32685.917042,-10526.241127,-17081.180761,7255.219788,-18141.771035,-8793.399786,-17712.572838,-20554.060704,-16677.418849,0.007781,-0.011469,1.010156,192.000000,0.000000,0.000000,0.000000,0.000000,0.000000,0.000000,0.000000,0.000000,0.000000,1762865744.210178,0.000000
198.000000,-4397.772777,-11443.623774,-40507.127703,-18499.711871,-6145.790952,-33808.555759,-20243.773787,-32637.078480,-10517.859223,-17070.340165,7261.500628,-18124.493137,-8778.424117,-17711.209382,-20548.405713,-16677.977643,0.007781,-0.011469,1.010156,192.000000,0.000000,0.000000,0.000000,0.000000,0.000000,0.000000,0.000000,0.000000,0.000000,1762865744.210204,0.000000
200.000000,-4427.969984,-11494.183420,-40567.142137,-18521.974209,-6166.578074,-33851.605219,-20283.112858,-32660.056074,-10490.947722,-17043.674534,7188.656293,-18107.170535,-8752.630204,-17666.327079,-20524.757567,-16682.313881,0.007781,-0.011469,1.010156,192.000000,0.000000,0.000000,0.000000,0.000000,0.000000,0.000000,0.000000,0.000000,0.000000,1762865744.210230,0.000000
202.000000,-4410.960306,-11479.207752,-40559.967227,-18519.649627,-6156.877417,-33847.671312,-20285.705660,-32665.331085,-10532.119636,-17100.179744,7306.584097,-18147.962469,-8794.919705,-17745.675772,-20561.257966,-16679.005823,0.010891,-0.010734,1.009078,192.000000,0.000000,56.000000,127.500000,88.000000,15.500000,64.000000,0.000000,0.000000,0.000000,1762865744.210256,0.000000
204.000000,-4386.820422,-11452.430362,-40506.457151,-18501.522362,-6161.794801,-33801.380849,-20240.353971,-32629.411832,-10474.988577,-17039.092426,7200.100386,-18100.062680,-8734.905271,-17661.342640,-20521.673026,-16678.491733,0.010891,-0.010734,1.009078,192.000000,0.000000,0.000000,0.000000,0.000000,0.000000,0.000000,0.000000,0.000000,0.000000,1762865744.210281,0.000000
206.000000,-4430.674545,-11494.272827,-40599.015725,-18531.630162,-6175.272903,-33872.660562,-20310.426689,-32682.519577,-10516.585173,-17083.259473,7264.898093,-18138.731198,-8775.160763,-17710.561181,-20547.869271,-16677.396497,0.010891,-0.010734,1.009078,192.000000,0.000000,0.000000,0.000000,0.000000,0.000000,0.000000,0.000000,0.000000,0.000000,1762865744.210307,0.000000
208.000000,-4393.011855,-11439.958088,-40504.557252,-18498.795450,-6164.141734,-33801.157332,-20240.465729,-32631.423489,-10504.291714,-17071.413049,7274.129364,-18121.699169,-8764.342518,-17709.085966,-20545.477634,-16675.541303,0.010891,-0.010734,1.009078,192.000000,0.000000,0.000000,0.000000,0.000000,0.000000,0.000000,0.000000,0.000000,0.000000,1762865744.210333,0.000000
210.000000,-4418.068161,-11483.476935,-40566.829213,-18518.800261,-6166.823943,-33842.351597,-20281.302366,-32657.038588,-10481.895266,-17042.154615,7195.339465,-18103.974236,-8742.035477,-17660.470922,-20529.116157,-16678.715250,0.010891,-0.010734,1.009078,192.000000,0.000000,0.000000,0.000000,0.000000,0.000000,0.000000,0.000000,0.000000,0.000000,1762865744.210359,0.000000
212.000000,-4393.905925,-11459.873493,-40554.088718,-18512.541772,-6143.399315,-33830.013434,-20280.676518,-32655.831594,-10522.441330,-17084.824095,7316.597678,-18136.920707,-8782.425080,-17729.448405,-20570.690402,-16681.911550,0.010891,-0.010734,1.009078,192.000000,0.000000,0.000000,0.000000,0.000000,0.000000,0.000000,0.000000,0.000000,0.000000,1762865744.210385,0.000000
214.000000,-4396.990466,-11450.105780,-40507.910014,-18505.098642,-6150.685984,-33799.637413,-20240.085750,-32629.277722,-10469.870027,-17022.328618,7209.912802,-18085.243474,-8719.974306,-17647.395152,-20517.269733,-16691.992187,0.014000,-0.012000,1.006000,192.000000,0.000000,56.000000,127.500000,80.000000,15.500000,56.000000,0.000000,0.000000,0.000000,1762865744.210410,0.000000
216.000000,-4443.772667,-11510.030807,-40606.771780,-18541.107302,-6172.255417,-33882.785902,-20315.433480,-32690.745019,-10528.521005,-17087.126325,7253.923387,-18143.849748,-8782.425080,-17720.708873,-20548.673934,-16666.287680,0.014000,-0.012000,1.006000,192.000000,0.000000,0.000000,0.000000,0.000000,0.000000,0.000000,0.000000,0.000000,0.000000,1762865744.210436,0.000000
218.000000,-4393.995332,-11447.580033,-40510.860444,-18504.852772,-6156.162161,-33806.633509,-20243.550270,-32635.871486,-10514.797034,-17071.278938,7267.915579,-18126.638904,-8768.097611,-17713.489260,-20546.572870,-16671.830913,0.014000,-0.012000,1.006000,192.000000,0.000000,0.000000,0.000000,0.000000,0.000000,0.000000,0.000000,0.000000,0.000000,1762865744.210461,0.000000
220.000000,-4418.202271,-11488.103746,-40570.025512,-18526.511613,-6170.154353,-33852.052254,-20282.911692,-32661.508937,-10491.618275,-17044.032162,7187.851630,-18113.987817,-8745.343536,-17667.064687,-20526.858631,-16676.547131,0.014000,-0.012000,1.006000,192.000000,0.000000,0.000000,0.000000,0.000000,0.000000,0.000000,0.000000,0.000000,0.000000,1762865744.210487,0.000000
222.000000,-4421.532681,-11479.565380,-40563.878782,-18523.427072,-6162.085374,-33851.426405,-20287.046765,-32664.302905,-10539.853339,-17096.223485,7311.166204,-18149.616498,-8793.243324,-17742.747693,-20562.844940,-16672.836742,0.014000,-0.012000,1.006000,192.000000,0.000000,0.000000,0.000000,0.000000,0.000000,0.000000,0.000000,0.000000,0.000000,1762865744.210512,0.000000
224.000000,-4390.687274,-11446.529501,-40505.987764,-18503.556371,-6154.843408,-33802.498436,-20236.420064,-32624.717966,-10483.303426,-17040.902917,7204.704846,-18101.739061,-8736.000506,-17666.975280,-20520.488384,-16672.076782,0.014000,-0.014000,1.004000,192.000000,0.000000,56.000000,127.500000,72.000000,15.500000,48.000000,0.000000,0.000000,0.000000,1762865744.210537,0.000000
226.000000,-4432.976774,-11501.715958,-40606.011821,-18540.637915,-6167.025109,-33878.024981,-20313.354768,-32683.972440,-10518.932106,-17081.672499,7267.803820,-18141.234594,-8776.479516,-17718.853679,-20545.432931,-16673.999032,0.014000,-0.014000,1.004000,192.000000,0.000000,0.000000,0.000000,0.000000,0.000000,0.000000,0.000000,0.000000,0.000000,1762865744.210582,0.000000
228.000000,-4377.455041,-11449.859911,-40508.625270,-18505.098642,-6147.266167,-33804.644204,-20241.002171,-32630.484716,-10510.349036,-17076.732764,7272.944721,-18128.471747,-8769.125792,-17720.507708,-20543.890660,-16676.591835,0.014000,-0.014000,1.004000,192.000000,0.000000,0.000000,0.000000,0.000000,0.000000,0.000000,0.000000,0.000000,0.000000,1762865744.210607,0.000000
230.000000,-4427.120617,-11489.511906,-40572.148928,-18529.216174,-6168.366214,-33851.694626,-20284.073983,-32659.877260,-10484.868048,-17045.440322,7191.539668,-18109.785689,-8737.095742,-17671.311518,-20525.584582,-16679.564617,0.014000,-0.014000,1.004000,192.000000,0.000000,0.000000,0.000000,0.000000,0.000000,0.000000,0.000000,0.000000,0.000000,1762865744.210632,0.000000
232.000000,-4417.151739,-11475.586769,-40566.493936,-18522.421243,-6153.412897,-33847.470146,-20286.420916,-32662.470062,-10527.135197,-17096.961093,7309.579230,-18148.565966,-8785.979007,-17747.620374,-20563.046105,-16674.423715,0.014000,-0.014000,1.004000,192.000000,0.000000,0.000000,0.000000,0.000000,0.000000,0.000000,0.000000,0.000000,0.000000,1762865744.210658,0.000000
234.000000,-4390.419053,-11452.899748,-40510.167540,-18506.037415,-6157.436211,-33803.571320,-20238.588183,-32622.683957,-10477.111992,-17036.119644,7202.626133,-18096.933436,-8732.871262,-17667.444666,-20520.108404,-16673.842570,0.012000,-0.016000,1.000000,192.000000,0.000000,48.000000,127.500000,64.000000,15.500000,32.000000,0.000000,0.000000,0.000000,1762865744.210683,0.000000
236.000000,-4432.038001,-11501.291275,-40603.955460,-18536.413436,-6167.628606,-33873.934612,-20310.851373,-32678.272745,-10518.239202,-17080.800781,7265.814515,-18136.317210,-8772.165629,-17719.457176,-20546.639925,-16672.993204,0.012000,-0.016000,1.000000,192.000000,0.000000,0.000000,0.000000,0.000000,0.000000,0.000000,0.000000,0.000000,0.000000,1762865744.210708,0.000000
238.000000,-4384.428785,-11433.677248,-40506.568909,-18500.248313,-6151.110667,-33796.217596,-20240.175157,-32622.952178,-10503.867031,-17063.880511,7280.387852,-18119.888678,-8757.212312,-17713.399853,-20542.840128,-16670.690974,0.012000,-0.016000,1.000000,192.000000,0.000000,0.000000,0.000000,0.000000,0.000000,0.000000,0.000000,0.000000,0.000000,1762865744.210734,0.000000
240.000000,-4425.690106,-11488.506077,-40571.813652,-18525.170508,-6177.329263,-33841.390472,-20282.464657,-32654.311675,-10486.656187,-17036.298458,7197.686398,-18105.449451,-8739.688544,-17665.209492,-20524.355236,-16671.227416,0.012000,-0.016000,1.000000,192.000000,0.000000,0.000000,0.000000,0.000000,0.000000,0.000000,0.000000,0.000000,0.000000,1762865744.210760,0.000000
242.000000,-4408.032228,-11465.528484,-40564.437576,-18516.229810,-6165.885170,-33835.109631,-20284.677480,-32653.104681,-10535.919432,-17084.868799,7316.821196,-18138.351219,-8790.918743,-17737.875013,-20565.080114,-16674.311957,0.012000,-0.016000,1.000000,192.000000,0.000000,0.000000,0.000000,0.000000,0.000000,0.000000,0.000000,0.000000,0.000000,1762865744.210786,0.000000
244.000000,-4380.159602,-11442.014449,-40508.804084,-18498.102546,-6162.644167,-33791.680192,-20235.369532,-32614.994957,-10483.929275,-17021.635714,7209.063436,-18087.769221,-8738.436847,-17656.492312,-20524.377587,-16675.049564,0.010000,-0.012000,1.004000,192.000000,0.000000,40.000000,127.500000,80.000000,15.500000,48.000000,0.000000,0.000000,0.000000,1762865744.210811,0.000000
246.000000,-4429.355792,-11497.513830,-40606.928242,-18535.921697,-6168.522676,-33871.498271,-20311.387814,-32678.920946,-10514.640571,-17070.854255,7264.831038,-18129.924611,-8780.301664,-17710.851754,-20555.781788,-16671.607396,0.010000,-0.012000,1.004000,192.000000,0.000000,0.000000,0.000000,0.000000,0.000000,0.000000,0.000000,0.000000,0.000000,1762865744.210836,0.000000
248.000000,-4386.440442,-11445.233100,-40512.134494,-18502.461136,-6167.203923,-33802.654898,-20238.968162,-32631.423489,-10518.619182,-17069.401392,7271.894189,-18120.693340,-8770.913931,-17715.880897,-20546.572870,-16668.478151,0.010000,-0.012000,1.004000,192.000000,0.000000,0.000000,0.000000,0.000000,0.000000,0.000000,0.000000,0.000000,0.000000,1762865744.210862,0.000000
250.000000,-4430.942766,-11487.254380,-40577.446291,-18528.702084,-6203.838432,-33849.928838,-20279.201302,-32666.068693,-10501.251877,-17040.545290,7190.198563,-18103.437794,-8753.390164,-17668.070515,-20529.965523,-16679.162285,0.010000,-0.012000,1.004000,192.000000,0.000000,0.000000,0.000000,0.000000,0.000000,0.000000,0.000000,0.000000,0.000000,1762865744.210887,0.000000
252.000000,-4448.555940,-11492.909371,-40579.368541,-18529.797319,-6179.027996,-33857.126100,-20288.477276,-32680.396161,-10555.968947,-17106.438232,7298.425710,-18154.667992,-8811.683513,-17758.505673,-20570.869216,-16673.462590,0.010000,-0.012000,1.004000,192.000000,0.000000,0.000000,0.000000,0.000000,0.000000,0.000000,0.000000,0.000000,0.000000,1762865744.689507,0.000000
254.000000,-4411.809672,-11468.210693,-40521.790447,-18511.312426,-6173.037728,-33813.584902,-20241.449206,-32641.235905,-10504.269362,-17047.854310,7186.041139,-18105.516506,-8759.536893,-17679.961643,-20527.909163,-16674.714288,0.010000,-0.014000,1.008000,192.000000,0.000000,40.000000,127.500000,72.000000,15.500000,64.000000,0.000000,0.000000,0.000000,1762865744.689611,0.000000
0.000000,-4448.153609,-11508.332075,-40615.287795,-18540.526156,-6182.045481,-33879.097865,-20314.695873,-32692.622565,-10541.105037,-17085.762869,7250.950605,-18141.055780,-8795.612609,-17725.626257,-20552.652544,-16675.474247,0.010000,-0.014000,1.008000,192.000000,0.000000,0.000000,0.000000,0.000000,0.000000,0.000000,0.000000,0.000000,0.000000,1762865744.689690,0.000000
2.000000,-4395.247030,-11448.697620,-40515.464904,-18502.930522,-6155.402202,-33798.944509,-20242.276221,-32637.927847,-10526.710513,-17071.055421,7268.183800,-18125.275448,-8782.581542,-17717.914905,-20548.025733,-16670.132180,0.010000,-0.014000,1.008000,192.000000,0.000000,0.000000,0.000000,0.000000,0.000000,0.000000,0.000000,0.000000,0.000000,1762865744.689769,0.000000
4.000000,-4431.881539,-11493.356406,-40575.009951,-18526.980999,-6184.526525,-33845.212620,-20282.442305,-32666.292210,-10502.414167,-17043.585127,7183.314226,-18109.584523,-8761.705013,-17668.986937,-20526.210430,-16674.334308,0.010000,-0.014000,1.008000,192.000000,0.000000,0.000000,0.000000,0.000000,0.000000,0.000000,0.000000,0.000000,0.000000,1762865744.689852,0.000000
6.000000,-4429.400495,-11481.308816,-40573.110053,-18523.248258,-6175.049385,-33844.162088,-20288.499628,-32671.500167,-10546.961194,-17094.770622,7302.627838,-18149.862367,-8803.323961,-17745.094627,-20561.034448,-16670.780381,0.010000,-0.014000,1.008000,192.000000,0.000000,0.000000,0.000000,0.000000,0.000000,0.000000,0.000000,0.000000,0.000000,1762865744.689932,0.000000
8.000000,-4407.339323,-11451.938623,-40512.201549,-18501.991749,-6171.093127,-33796.999907,-20236.084787,-32629.322425,-10499.351978,-17030.911688,7196.032369,-18096.195828,-8748.696297,-17663.264890,-20524.042311,-16672.479114,0.008000,-0.014000,1.012000,192.000000,0.000000,32.000000,127.500000,72.000000,15.500000,80.000000,0.000000,0.000000,0.000000,1762865744.690020,0.000000
10.000000,-4442.297452,-11498.139679,-40606.727076,-18537.642781,-6184.817098,-33875.387475,-20309.979655,-32687.325202,-10531.426732,-17072.016546,7252.358765,-18135.691361,-8788.594161,-17714.763309,-20549.500948,-16673.395535,0.008000,-0.014000,1.012000,192.000000,0.000000,0.000000,0.000000,0.000000,0.000000,0.000000,0.000000,0.000000,0.000000,1762865744.690047,0.000000
12.000000,-4399.180937,-11456.721897,-40515.286090,-18506.327987,-6178.402147,-33808.444000,-20241.739779,-32641.392367,-10529.392723,-17067.166217,7263.959320,-18125.275448,-8786.023710,-17715.702083,-20549.523300,-16675.921282,0.008000,-0.014000,1.012000,192.000000,0.000000,0.000000,0.000000,0.000000,0.000000,0.000000,0.000000,0.000000,0.000000,1762865744.690072,0.000000
14.000000,-4438.832931,-11496.195077,-40579.167375,-18533.798281,-6198.809290,-33854.265076,-20284.386907,-32674.540004,-10512.830080,-17043.093388,7180.341444,-18114.814832,-8767.270597,-17670.931538,-20533.273582,-16686.270140,0.008000,-0.014000,1.012000,192.000000,0.000000,0.000000,0.000000,0.000000,0.000000,0.000000,0.000000,0.000000,0.000000,1762865744.690098,0.000000
16.000000,-4446.700745,-11488.483726,-40576.105186,-18528.813842,-6176.546952,-33849.884135,-20288.454925,-32680.105588,-10555.946595,-17098.413956,7293.195402,-18159.115989,-8811.057664,-17749.252051,-20571.293899,-16682.336233,0.008000,-0.014000,1.012000,192.000000,0.000000,0.000000,0.000000,0.000000,0.000000,0.000000,0.000000,0.000000,0.000000,1762865744.690123,0.000000
18.000000,-4404.299486,-11460.208769,-40517.118933,-18505.635083,-6172.277769,-33797.513997,-20238.968162,-32637.480812,-10508.069159,-17034.152691,7186.555229,-18104.533029,-8759.492190,-17665.120085,-20531.708960,-16682.492695,0.008000,-0.012000,1.010000,192.000000,0.000000,32.000000,127.500000,80.000000,15.500000,72.000000,0.000000,0.000000,0.000000,1762865744.690148,0.000000
20.000000,-4441.895120,-11504.353464,-40609.901024,-18535.385255,-6184.638284,-33864.278658,-20311.723091,-32692.220234,-10536.008839,-17066.897996,7246.837884,-18139.044123,-8789.376472,-17704.682673,-20556.497044,-16678.625843,0.008000,-0.012000,1.010000,192.000000,0.000000,0.000000,0.000000,0.000000,0.000000,0.000000,0.000000,0.000000,0.000000,1762865744.690173,0.000000
22.000000,-4392.564820,-11439.242833,-40510.502816,-18498.281359,-6148.584920,-33786.561642,-20242.097407,-32638.553696,-10527.314011,-17060.885377,7262.864085,-18126.169518,-8781.709824,-17701.665187,-20549.076265,-16671.853265,0.008000,-0.012000,1.010000,192.000000,0.000000,0.000000,0.000000,0.000000,0.000000,0.000000,0.000000,0.000000,0.000000,1762865744.690199,0.000000
24.000000,-4422.091475,-11479.140696,-40570.092567,-18521.147194,-6171.383699,-33830.169896,-20281.391773,-32665.040513,-10494.948685,-17024.988475,7184.565924,-18103.482497,-8742.929547,-17650.144416,-20525.092843,-16669.215759,0.008000,-0.012000,1.010000,192.000000,0.000000,0.000000,0.000000,0.000000,0.000000,0.000000,0.000000,0.000000,0.000000,1762865744.690224,0.000000
26.000000,-4421.353867,-11478.179571,-40568.729111,-18521.080139,-6163.873513,-33836.830716,-20286.622082,-32672.729513,-10537.707572,-17085.941683,7299.252725,-18149.638849,-8795.098519,-17736.288039,-20555.044181,-16666.086515,0.008000,-0.012000,1.010000,192.000000,0.000000,0.000000,0.000000,0.000000,0.000000,0.000000,0.000000,0.000000,0.000000,1762865744.690249,0.000000
28.000000,-4400.566745,-11447.177702,-40509.564043,-18499.287188,-6167.941531,-33787.858044,-20236.598878,-32632.295207,-10488.332568,-17022.842708,7198.625171,-18097.715747,-8738.392143,-17651.083189,-20514.386358,-16675.317785,0.008000,-0.013000,1.012000,192.000000,0.000000,32.000000,127.500000,72.000000,15.500000,88.000000,0.000000,0.000000,0.000000,1762865744.690275,0.000000
30.000000,-4446.030193,-11504.711092,-40609.476341,-18532.390122,-6187.409900,-33864.189251,-20312.393643,-32692.510807,-10520.407322,-17066.719182,7252.783448,-18139.066474,-8781.642769,-17703.945065,-20546.170538,-16676.234207,0.008000,-0.013000,1.012000,192.000000,0.000000,0.000000,0.000000,0.000000,0.000000,0.000000,0.000000,0.000000,0.000000,1762865744.690299,0.000000
32.000000,-4394.420015,-11449.234062,-40517.275395,-18497.677862,-6166.555723,-33796.105837,-20241.717427,-32640.654759,-10528.409246,-17062.137075,7262.349994,-18125.789538,-8782.134507,-17708.169545,-20544.963544,-16662.286718,0.008000,-0.013000,1.012000,192.000000,0.000000,0.000000,0.000000,0.000000,0.000000,0.000000,0.000000,0.000000,0.000000,1762865744.690324,0.000000
34.000000,-4439.704649,-11491.903543,-40571.366617,-18522.421243,-6177.686891,-33842.373948,-20277.994308,-32665.308734,-10502.280057,-17036.723141,7182.800136,-18105.851782,-8755.580635,-17664.784809,-20523.260000,-16668.589910,0.008000,-0.013000,1.012000,192.000000,0.000000,0.000000,0.000000,0.000000,0.000000,0.000000,0.000000,0.000000,0.000000,1762865744.690350,0.000000
36.000000,-4420.035114,-11483.789859,-40571.567782,-18522.309485,-6165.259321,-33845.637303,-20285.951529,-32673.176548,-10548.324650,-17098.123383,7304.371274,-18149.482387,-8802.206373,-17746.882766,-20558.508701,-16665.348907,0.008000,-0.013000,1.012000,192.000000,0.000000,0.000000,0.000000,0.000000,0.000000,0.000000,0.000000,0.000000,0.000000,1762865744.690374,0.000000
38.000000,-4394.576477,-11443.914347,-40512.045087,-18502.237618,-6162.666519,-33794.764733,-20235.682456,-32631.468193,-10493.629932,-17035.918478,7199.049854,-18097.268712,-8747.422248,-17666.483541,-20517.605009,-16670.445105,0.008000,-0.011500,1.010000,192.000000,0.000000,32.000000,127.500000,88.000000,15.500000,64.000000,0.000000,0.000000,0.000000,1762865744.690400,0.000000
40.000000,-4448.690051,-11505.560458,-40607.665850,-18536.189918,-6162.979443,-33868.883117,-20310.337282,-32689.538025,-10521.860185,-17076.576302,7255.108029,-18138.999419,-8782.626245,-17714.271571,-20544.315343,-16670.422753,0.008000,-0.011500,1.010000,192.000000,0.000000,0.000000,0.000000,0.000000,0.000000,0.000000,0.000000,0.000000,0.000000,1762865744.690425,0.000000
42.000000,-4410.870899,-11451.692754,-40512.827398,-18500.270665,-6144.047516,-33791.501378,-20240.130453,-32638.106661,-10528.051618,-17071.904787,7269.815477,-18126.661256,-8775.764260,-17714.115109,-20541.074340,-16665.661832,0.008000,-0.011500,1.010000,192.000000,0.000000,0.000000,0.000000,0.000000,0.000000,0.000000,0.000000,0.000000,0.000000,1762865744.690450,0.000000
44.000000,-4430.540434,-11494.161069,-40570.070215,-18525.237563,-6159.738440,-33838.417690,-20279.581282,-32664.437016,-10500.313103,-17033.325676,7191.070281,-18106.969369,-8744.360059,-17660.582681,-20515.727462,-16668.634614,0.008000,-0.011500,1.010000,192.000000,0.000000,0.000000,0.000000,0.000000,0.000000,0.000000,0.000000,0.000000,0.000000,1762865744.690475,0.000000
46.000000,-4425.287774,-11485.153316,-40569.377311,-18523.047092,-6154.128153,-33841.301065,-20286.018584,-32674.204728,-10548.302299,-17093.541276,7302.940762,-18153.572756,-8797.400748,-17741.898327,-20553.613669,-16668.411096,0.008000,-0.011500,1.010000,192.000000,0.000000,0.000000,0.000000,0.000000,0.000000,0.000000,0.000000,0.000000,0.000000,1762865744.690501,0.000000
48.000000,-4411.005010,-11455.984289,-40510.636927,-18505.657435,-6162.621816,-33794.362401,-20236.889450,-32636.117355,-10502.414167,-17036.276106,7193.707787,-18104.778898,-8747.198730,-17666.036506,-20514.542820,-16671.048602,0.009000,-0.011750,1.008000,192.000000,0.000000,40.000000,127.500000,80.000000,15.500000,56.000000,0.000000,0.000000,0.000000,1762865744.690526,0.000000
50.000000,-4447.393650,-11510.142566,-40604.760123,-18538.045113,-6164.387603,-33865.508004,-20308.996178,-32690.543853,-10533.125464,-17075.726935,7250.615329,-18140.944021,-8781.553362,-17714.182164,-20536.447529,-16668.545207,0.009000,-0.011750,1.008000,192.000000,0.000000,0.000000,0.000000,0.000000,0.000000,0.000000,0.000000,0.000000,0.000000,1762865744.690550,0.000000
52.000000,-4392.743634,-11451.580996,-40506.144226,-18498.102546,-6145.343917,-33792.149579,-20237.738816,-32635.692672,-10526.576403,-17064.998098,7271.760079,-18126.258925,-8769.394013,-17711.030568,-20536.760454,-16667.494675,0.009000,-0.011750,1.008000,192.000000,0.000000,0.000000,0.000000,0.000000,0.000000,0.000000,0.000000,0.000000,0.000000,1762865744.690575,0.000000
54.000000,-4428.126446,-11487.500249,-40563.699968,-18520.454290,-6165.751060,-33834.662597,-20276.183817,-32660.525460,-10492.266475,-17029.324714,7191.785537,-18104.175401,-8735.821692,-17654.480655,-20519.370797,-16671.249768,0.009000,-0.011750,1.008000,192.000000,0.000000,0.000000,0.000000,0.000000,0.000000,0.000000,0.000000,0.000000,0.000000,1762865744.690600,0.000000
56.000000,-4425.265422,-11471.429345,-40563.275285,-18514.866354,-6152.071792,-33836.160163,-20279.469523,-32665.487548,-10542.692011,-17080.599616,7308.193422,-18145.839053,-8788.817679,-17733.695237,-20554.261870,-16674.691936,0.009000,-0.011750,1.008000,192.000000,0.000000,0.000000,0.000000,0.000000,0.000000,0.000000,0.000000,0.000000,0.000000,1762865744.690626,0.000000
58.000000,-4398.711550,-11451.312775,-40505.965412,-18496.001482,-6166.712185,-33787.835692,-20230.474500,-32627.377823,-10492.892324,-17020.406368,7201.061511,-18092.306625,-8734.793512,-17655.240614,-20515.615704,-16666.690012,0.010500,-0.012875,1.007000,192.000000,0.000000,48.000000,127.500000,72.000000,15.500000,56.000000,0.000000,0.000000,0.000000,1762865744.690651,0.000000
60.000000,-4437.000088,-11496.731519,-40600.043905,-18530.445520,-6169.506153,-33862.334056,-20304.861105,-32681.223176,-10527.425769,-17064.171083,7257.030279,-18129.969314,-8776.613626,-17703.162754,-20535.911088,-16667.137047,0.010500,-0.012875,1.007000,192.000000,0.000000,0.000000,0.000000,0.000000,0.000000,0.000000,0.000000,0.000000,0.000000,1762865744.690677,0.000000
62.000000,-4394.218849,-11442.662649,-40504.490197,-18495.085060,-6147.534388,-33794.407105,-20235.056607,-32629.054204,-10522.441330,-17054.828054,7279.538486,-18117.228820,-8767.315300,-17706.157888,-20538.973276,-16662.756105,0.010500,-0.012875,1.007000,192.000000,0.000000,0.000000,0.000000,0.000000,0.000000,0.000000,0.000000,0.000000,0.000000,1762865744.690702,0.000000
64.000000,-4428.953460,-11481.599388,-40562.515326,-18516.408624,-6171.920141,-33832.852105,-20272.495779,-32654.736358,-10497.541487,-17024.384978,7194.601857,-18099.950922,-8744.628280,-17656.201739,-20517.493250,-16666.533550,0.010500,-0.012875,1.007000,192.000000,0.000000,0.000000,0.000000,0.000000,0.000000,0.000000,0.000000,0.000000,0.000000,1762865744.690727,0.000000
66.000000,-4425.623050,-11482.091127,-40570.897230,-18521.683636,-6172.233066,-33846.397262,-20286.443268,-32672.394237,-10543.139046,-17086.209904,7305.354751,-18144.766169,-8796.260809,-17738.210289,-20558.441646,-16668.366393,0.010500,-0.012875,1.007000,192.000000,0.000000,0.000000,0.000000,0.000000,0.000000,0.000000,0.000000,0.000000,0.000000,1762865744.690752,0.000000
68.000000,-4391.916620,-11443.467312,-40505.138398,-18496.850848,-6173.685929,-33793.647145,-20230.765072,-32625.634387,-10497.362673,-17026.351932,7200.502718,-18093.446564,-8739.554434,-17660.515626,-20514.743986,-16670.333346,0.011250,-0.013438,1.004500,192.000000,0.000000,48.000000,127.500000,72.000000,15.500000,40.000000,0.000000,0.000000,0.000000,1762865744.690776,0.000000
70.000000,-4434.742562,-11500.173688,-40604.760123,-18535.564069,-6185.867630,-33872.235879,-20308.392681,-32687.079333,-10530.085627,-17065.333374,7256.963224,-18131.690399,-8775.205466,-17708.661283,-20542.594259,-16672.881445,0.011250,-0.013438,1.004500,192.000000,0.000000,0.000000,0.000000,0.000000,0.000000,0.000000,0.000000,0.000000,0.000000,1762865744.690801,0.000000
72.000000,-4393.369483,-11445.836597,-40507.127703,-18499.845982,-6155.268092,-33799.436247,-20236.330657,-32634.239809,-10523.268345,-17061.108894,7273.123535,-18121.408596,-8768.388184,-17711.298789,-20540.001457,-16671.115657,0.011250,-0.013438,1.004500,192.000000,0.000000,0.000000,0.000000,0.000000,0.000000,0.000000,0.000000,0.000000,0.000000,1762865744.690826,0.000000
74.000000,-4423.410228,-11476.994929,-40561.174221,-18521.191898,-6157.235045,-33838.641207,-20271.579358,-32657.351513,-10486.879705,-17027.715388,7191.450261,-18100.107384,-8734.391181,-17658.816893,-20513.849916,-16677.418849,0.011250,-0.013438,1.004500,192.000000,0.000000,0.000000,0.000000,0.000000,0.000000,0.000000,0.000000,0.000000,0.000000,1762865744.690851,0.000000
76.000000,-4399.784434,-11468.568321,-40564.772852,-18516.073348,-6152.541179,-33837.903599,-20279.089544,-32664.951106,-10533.348982,-17079.079697,7308.461643,-18140.742855,-8787.588333,-17734.298734,-20555.982954,-16675.943634,0.011250,-0.013438,1.004500,192.000000,0.000000,0.000000,0.000000,0.000000,0.000000,0.000000,0.000000,0.000000,0.000000,1762865744.690877,0.000000
78.000000,-4394.151794,-11445.411914,-40504.758418,-18496.828496,-6153.792876,-33789.377962,-20229.312209,-32625.366166,-10482.923446,-17017.321827,7202.760244,-18089.356195,-8728.423265,-17657.654602,-20519.951942,-16663.761933,0.013625,-0.011719,1.001250,192.000000,0.000000,64.000000,127.500000,88.000000,15.500000,24.000000,0.000000,0.000000,0.000000,1762865744.690902,0.000000
80.000000,-4446.656042,-11499.301970,-40603.307259,-18530.669037,-6168.276807,-33865.597411,-20306.045748,-32687.526368,-10519.692066,-17061.265357,7253.744573,-18131.466881,-8771.338614,-17705.353225,-20544.158881,-16665.728887,0.013625,-0.011719,1.001250,192.000000,0.000000,0.000000,0.000000,0.000000,0.000000,0.000000,0.000000,0.000000,0.000000,1762865744.690928,0.000000
82.000000,-4391.134309,-11442.617946,-40508.960546,-18495.688557,-6159.805496,-33793.110704,-20237.783520,-32637.413757,-10518.529775,-17057.711429,7271.268341,-18122.347369,-8769.081088,-17707.141364,-20541.409617,-16660.766800,0.013625,-0.011719,1.001250,192.000000,0.000000,0.000000,0.000000,0.000000,0.000000,0.000000,0.000000,0.000000,0.000000,1762865744.690952,0.000000
84.000000,-4423.656097,-11490.964769,-40566.628047,-18516.542735,-6169.349691,-33832.963864,-20274.462733,-32665.264030,-10491.104185,-17024.250868,7184.431813,-18103.393090,-8740.314393,-17656.089980,-20514.587523,-16661.705573,0.013625,-0.011719,1.001250,192.000000,0.000000,0.000000,0.000000,0.000000,0.000000,0.000000,0.000000,0.000000,0.000000,1762865744.690977,0.000000
86.000000,-4435.234301,-11491.031824,-40575.322875,-18520.208421,-6151.177722,-33839.848201,-20288.946663,-32683.860682,-10544.234281,-17083.639453,7293.642437,-18149.392980,-8795.299684,-17736.019818,-20552.071399,-16654.418904,0.013625,-0.011719,1.001250,192.000000,0.000000,0.000000,0.000000,0.000000,0.000000,0.000000,0.000000,0.000000,0.000000,1762865744.690994,0.000000
88.000000,-4396.789300,-11454.821998,-40509.809912,-18497.230827,-6150.551874,-33785.175834,-20233.670799,-32637.413757,-10500.313103,-17021.233382,7185.348235,-18100.196791,-8743.711858,-17658.392210,-20515.213372,-16656.296451,0.015813,-0.010859,1.001625,192.000000,0.000000,72.000000,127.500000,88.000000,15.500000,40.000000,0.000000,0.000000,0.000000,1762865744.691004,0.000000
90.000000,-4418.336382,-11501.894772,-40605.005992,-18531.585459,-6158.106763,-33858.310742,-20309.957303,-32692.108475,-10529.482130,-17060.818322,7241.339355,-18133.925573,-8780.100498,-17702.156925,-20536.380474,-16655.000049,0.015813,-0.010859,1.001625,192.000000,0.000000,0.000000,0.000000,0.000000,0.000000,0.000000,0.000000,0.000000,0.000000,1762865744.691015,0.000000
92.000000,-4406.221736,-11440.271013,-40507.798255,-18495.599150,-6141.097086,-33783.141826,-20237.984686,-32637.793736,-10513.880612,-17049.933022,7271.089527,-18118.614628,-8766.354175,-17703.565085,-20533.452396,-16653.681297,0.015813,-0.010859,1.001625,192.000000,0.000000,0.000000,0.000000,0.000000,0.000000,0.000000,0.000000,0.000000,0.000000,1762865744.691025,0.000000
94.000000,-4438.430600,-11482.359348,-40565.912791,-18516.050996,-6169.930836,-33827.107707,-20273.926291,-32663.341780,-10491.193591,-17017.970028,7188.790403,-18100.174439,-8741.811960,-17649.563271,-20514.811041,-16658.397515,0.015813,-0.010859,1.001625,192.000000,0.000000,0.000000,0.000000,0.000000,0.000000,0.000000,0.000000,0.000000,0.000000,1762865744.691036,0.000000
96.000000,-4421.398571,-11473.083374,-40570.070215,-18518.062653,-6158.911426,-33837.300102,-20286.219750,-32674.897632,-10541.619127,-17080.443153,7301.778472,-18147.403675,-8794.584429,-17732.801167,-20551.534957,-16655.268270,0.015813,-0.010859,1.001625,192.000000,0.000000,0.000000,0.000000,0.000000,0.000000,0.000000,0.000000,0.000000,0.000000,1762865744.691047,0.000000
98.000000,-4402.131367,-11454.084391,-40509.184064,-18500.136554,-6159.291406,-33791.367268,-20235.369532,-32632.921056,-10490.321873,-17024.250868,7198.133433,-18100.666177,-8742.616623,-17658.794541,-20514.945151,-16664.454837,0.015813,-0.010859,1.001625,192.000000,0.000000,0.000000,0.000000,0.000000,0.000000,0.000000,0.000000,0.000000,0.000000,1762865744.691058,0.000000
100.000000,-4438.072972,-11501.112461,-40602.882576,-18533.105377,-6169.103821,-33863.965734,-20307.699777,-32687.101684,-10528.096322,-17060.527749,7251.397640,-18134.305553,-8777.708862,-17702.022815,-20540.537899,-16673.797867,0.012000,-0.008000,1.004000,192.000000,0.000000,48.000000,127.500000,96.000000,15.500000,48.000000,0.000000,0.000000,0.000000,1762865744.691068,0.000000
102.000000,-4392.497765,-11441.880338,-40512.134494,-18497.834325,-6160.274882,-33791.791951,-20238.766997,-32638.464289,-10524.631801,-17057.174987,7270.486029,-18124.984875,-8781.061623,-17707.342530,-20542.616611,-16658.151645,0.012000,-0.008000,1.004000,192.000000,0.000000,0.000000,0.000000,0.000000,0.000000,0.000000,0.000000,0.000000,0.000000,1762865744.691079,0.000000
104.000000,-4425.086609,-11483.409880,-40564.974018,-18517.883839,-6178.871534,-33831.756870,-20272.719297,-32658.983190,-10496.155679,-17022.865060,7184.297703,-18101.917875,-8754.999489,-17651.060838,-20522.835317,-16665.326555,0.012000,-0.008000,1.004000,192.000000,0.000000,0.000000,0.000000,0.000000,0.000000,0.000000,0.000000,0.000000,0.000000,1762865744.691091,0.000000
106.000000,-4421.175053,-11487.075566,-40574.093529,-18521.661284,-6164.924045,-33843.804460,-20286.532675,-32676.395199,-10546.581214,-17083.482991,7301.264382,-18145.257908,-8803.212202,-17738.567917,-20559.782751,-16663.918396,0.012000,-0.008000,1.004000,192.000000,0.000000,0.000000,0.000000,0.000000,0.000000,0.000000,0.000000,0.000000,0.000000,1762865744.691102,0.000000
108.000000,-4388.072120,-11448.608213,-40509.698154,-18497.968435,-6159.179647,-33788.439189,-20231.949715,-32630.372957,-10498.144984,-17023.513260,7191.807889,-18095.882904,-8750.819713,-17660.113294,-20518.655541,-16661.660869,0.012000,-0.008000,1.004000,192.000000,0.000000,0.000000,0.000000,0.000000,0.000000,0.000000,0.000000,0.000000,0.000000,1762865744.691113,0.000000
110.000000,-4441.515141,-11493.758737,-40603.061390,-18531.272534,-6161.258359,-33863.697513,-20304.995216,-32682.564280,-10526.643458,-17061.175950,7244.803875,-18133.076207,-8784.168516,-17701.106393,-20546.081131,-16665.505369,0.008000,-0.010000,1.016000,192.000000,0.000000,32.000000,127.500000,88.000000,15.500000,96.000000,0.000000,0.000000,0.000000,1762865744.691123,0.000000
112.000000,-4389.949666,-11435.398333,-40506.770075,-18497.029662,-6149.121362,-33790.272032,-20235.704808,-32630.060033,-10518.686237,-17052.883453,7270.933064,-18122.146204,-8772.947940,-17704.056824,-20537.408654,-16662.085552,0.008000,-0.010000,1.016000,192.000000,0.000000,0.000000,0.000000,0.000000,0.000000,0.000000,0.000000,0.000000,0.000000,1762865744.691133,0.000000
114.000000,-4419.230451,-11480.146525,-40563.409396,-18519.627275,-6177.396319,-33830.751041,-20273.635718,-32657.127995,-10485.136269,-17020.361664,7186.488174,-18100.375605,-8740.873187,-17651.485521,-20514.118137,-16666.131218,0.008000,-0.010000,1.016000,192.000000,0.000000,0.000000,0.000000,0.000000,0.000000,0.000000,0.000000,0.000000,0.000000,1762865744.691144,0.000000
116.000000,-4423.186710,-11474.938568,-40573.557088,-18519.850793,-6161.258359,-33838.842373,-20286.711489,-32674.651763,-10539.473360,-17080.107877,7300.973809,-18148.051876,-8796.931362,-17735.170452,-20560.743876,-16666.086515,0.008000,-0.010000,1.016000,192.000000,0.000000,0.000000,0.000000,0.000000,0.000000,0.000000,0.000000,0.000000,0.000000,1762865745.169778,0.000000
118.000000,-4399.359751,-11446.663612,-40512.715639,-18501.298845,-6159.783144,-33789.981459,-20235.302476,-32636.474983,-10489.785432,-17019.579353,7194.154822,-18101.359081,-8745.365887,-17658.839245,-20526.053968,-16666.377087,0.008000,-0.010000,1.016000,192.000000,0.000000,0.000000,0.000000,0.000000,0.000000,0.000000,0.000000,0.000000,0.000000,1762865745.169894,0.000000
120.000000,-4444.510274,-11506.968618,-40607.889367,-18537.218098,-6171.696624,-33864.926859,-20308.727957,-32691.169702,-10522.374275,-17063.947566,7244.915634,-18141.435759,-8783.497963,-17709.130670,-20548.338657,-16669.305166,0.010000,-0.014000,1.014000,192.000000,0.000000,40.000000,127.500000,72.000000,15.500000,88.000000,0.000000,0.000000,0.000000,1762865745.169982,0.000000
122.000000,-4399.471509,-11455.269033,-40515.599014,-18506.819726,-6157.704432,-33802.811361,-20241.806834,-32642.577010,-10520.317915,-17058.136112,7270.821306,-18132.249192,-8777.038309,-17711.052920,-20543.980067,-16668.813428,0.010000,-0.014000,1.014000,192.000000,0.000000,0.000000,0.000000,0.000000,0.000000,0.000000,0.000000,0.000000,0.000000,1762865745.170069,0.000000
124.000000,-4438.341193,-11497.871458,-40568.773814,-18529.372636,-6177.642188,-33843.200963,-20276.072058,-32665.621658,-10495.239257,-17035.292630,7180.296741,-18113.920762,-8754.485399,-17663.913091,-20524.087015,-16680.235169,0.010000,-0.014000,1.014000,192.000000,0.000000,0.000000,0.000000,0.000000,0.000000,0.000000,0.000000,0.000000,0.000000,1762865745.170159,0.000000
126.000000,-4424.036077,-11487.008510,-40575.166413,-18527.495089,-6159.604330,-33848.274809,-20285.862122,-32677.110455,-10548.302299,-17094.658863,7298.649227,-18157.663126,-8805.805004,-17745.407551,-20563.515492,-16670.243939,0.010000,-0.014000,1.014000,192.000000,0.000000,0.000000,0.000000,0.000000,0.000000,0.000000,0.000000,0.000000,0.000000,1762865745.170247,0.000000
128.000000,-4403.092492,-11466.534313,-40512.112142,-18506.775022,-6171.227237,-33799.190378,-20232.195584,-32636.407928,-10499.553144,-17035.896127,7196.658218,-18109.025730,-8754.239530,-17667.489370,-20524.489346,-16675.027213,0.010000,-0.014000,1.014000,192.000000,0.000000,0.000000,0.000000,0.000000,0.000000,0.000000,0.000000,0.000000,0.000000,1762865745.170335,0.000000
130.000000,-4457.943673,-11511.863650,-40608.761085,-18540.257936,-6181.710205,-33876.728580,-20306.336320,-32692.220234,-10530.510310,-17075.436363,7249.676555,-18143.402713,-8793.869173,-17713.332798,-20549.120968,-16675.094268,0.016000,-0.010000,1.004000,192.000000,0.000000,64.000000,127.500000,88.000000,15.500000,48.000000,0.000000,0.000000,0.000000,1762865745.170361,0.000000
132.000000,-4397.079873,-11450.463408,-40511.128665,-18507.378519,-6167.181571,-33802.476085,-20237.202375,-32638.710158,-10523.313048,-17070.049592,7277.146849,-18129.164652,-8780.100498,-17719.703045,-20547.668105,-16675.965986,0.016000,-0.010000,1.004000,192.000000,0.000000,0.000000,0.000000,0.000000,0.000000,0.000000,0.000000,0.000000,0.000000,1762865745.170387,0.000000
134.000000,-4428.528777,-11486.740290,-40565.711625,-18532.501880,-6182.336054,-33842.105727,-20274.283919,-32662.626524,-10494.814574,-17035.158519,7191.494965,-18109.808041,-8750.059754,-17662.057896,-20521.762433,-16676.502428,0.016000,-0.010000,1.004000,192.000000,0.000000,0.000000,0.000000,0.000000,0.000000,0.000000,0.000000,0.000000,0.000000,1762865745.170412,0.000000
136.000000,-4427.031210,-11481.644092,-40569.779643,-18528.970305,-6156.229217,-33846.397262,-20284.297500,-32671.008428,-10540.166264,-17090.926122,7308.282829,-18152.678687,-8805.760301,-17749.207348,-20562.554367,-16676.211855,0.016000,-0.010000,1.004000,192.000000,0.000000,0.000000,0.000000,0.000000,0.000000,0.000000,0.000000,0.000000,0.000000,1762865745.170438,0.000000
138.000000,-4398.219812,-11452.855045,-40509.273471,-18505.255104,-6170.288464,-33796.195244,-20231.033293,-32632.071690,-10491.551219,-17026.575449,7205.643619,-18100.040329,-8748.651594,-17668.674012,-20526.255134,-16671.383878,0.016000,-0.010000,1.004000,192.000000,0.000000,0.000000,0.000000,0.000000,0.000000,0.000000,0.000000,0.000000,0.000000,1762865745.170464,0.000000
140.000000,-4452.601606,-11515.551688,-40610.325707,-18534.222965,-6179.027996,-33870.827719,-20307.118631,-32696.221196,-10532.678429,-17065.892168,7247.106105,-18137.546556,-8791.611647,-17708.884801,-20554.351277,-16668.411096,0.016000,-0.010000,1.004000,192.000000,0.000000,64.000000,127.500000,88.000000,15.500000,48.000000,0.000000,0.000000,0.000000,1762865745.170489,0.000000
142.000000,-4410.937954,-11458.890016,-40519.711735,-18502.707005,-6158.620853,-33810.008622,-20241.069226,-32653.171736,-10530.555013,-17073.290595,7264.093431,-18135.892527,-8789.398824,-17723.905173,-20554.485387,-16670.713326,0.016000,-0.010000,1.004000,192.000000,0.000000,0.000000,0.000000,0.000000,0.000000,0.000000,0.000000,0.000000,0.000000,1762865745.170514,0.000000
144.000000,-4442.453914,-11496.105670,-40570.919582,-18523.181203,-6184.817098,-33847.224277,-20273.255738,-32671.030780,-10502.324760,-17040.455883,7175.267598,-18114.524259,-8763.426097,-17670.953890,-20526.411596,-16673.574349,0.016000,-0.010000,1.004000,192.000000,0.000000,0.000000,0.000000,0.000000,0.000000,0.000000,0.000000,0.000000,0.000000,1762865745.170540,0.000000
146.000000,-4445.560806,-11489.646016,-40577.111015,-18525.215212,-6183.364234,-33850.621742,-20286.733840,-32678.965649,-10550.492770,-17096.402299,7298.336303,-18155.763227,-8812.108196,-17751.867205,-20566.398867,-16674.401364,0.016000,-0.010000,1.004000,192.000000,0.000000,0.000000,0.000000,0.000000,0.000000,0.000000,0.000000,0.000000,0.000000,1762865745.170565,0.000000
148.000000,-4401.952553,-11459.627624,-40513.453247,-18507.602037,-6175.362310,-33800.531483,-20234.251944,-32634.463326,-10499.128461,-17031.693999,7197.798156,-18101.984930,-8759.112210,-17672.406754,-20528.289143,-16674.535474,0.016000,-0.010000,1.004000,192.000000,0.000000,0.000000,0.000000,0.000000,0.000000,0.000000,0.000000,0.000000,0.000000,1762865745.170590,0.000000
150.000000,-4456.289644,-11505.403996,-40608.895196,-18543.476587,-6176.882228,-33879.902527,-20308.772660,-32691.728496,-10534.377162,-17071.971842,7243.596881,-18137.635963,-8797.803080,-17717.378463,-20550.462073,-16676.837704,0.010000,-0.012000,1.006000,192.000000,0.000000,40.000000,127.500000,80.000000,15.500000,56.000000,0.000000,0.000000,0.000000,1762865745.170615,0.000000
152.000000,-4407.160509,-11458.688850,-40522.595110,-18506.976188,-6171.093127,-33808.354593,-20242.812662,-32647.449690,-10531.963173,-17073.312947,7268.742593,-18131.131605,-8791.410481,-17725.648609,-20551.579660,-16674.915454,0.010000,-0.012000,1.006000,192.000000,0.000000,0.000000,0.000000,0.000000,0.000000,0.000000,0.000000,0.000000,0.000000,1762865745.170640,0.000000
154.000000,-4432.194463,-11490.271865,-40577.893326,-18519.761386,-6187.834583,-33835.981349,-20278.106067,-32672.126016,-10508.762063,-17036.767845,7174.306473,-18110.791518,-8767.002376,-17665.053030,-20533.608858,-16678.245864,0.010000,-0.012000,1.006000,192.000000,0.000000,0.000000,0.000000,0.000000,0.000000,0.000000,0.000000,0.000000,0.000000,1762865745.170666,0.000000
156.000000,-4441.738658,-11481.800554,-40583.391855,-18519.537868,-6173.194191,-33840.876382,-20289.796029,-32680.887900,-10554.270214,-17088.601540,7294.067120,-18150.912899,-8814.030446,-17738.098531,-20571.472713,-16671.138009,0.010000,-0.012000,1.006000,192.000000,0.000000,0.000000,0.000000,0.000000,0.000000,0.000000,0.000000,0.000000,0.000000,1762865745.170691,0.000000
158.000000,-4412.793149,-11451.156312,-40518.907072,-18502.908171,-6170.020243,-33789.757942,-20237.314133,-32636.117355,-10502.369464,-17027.670685,7194.691264,-18098.878038,-8764.901312,-17663.913091,-20530.390207,-16671.495637,0.010000,-0.012000,1.006000,192.000000,0.000000,0.000000,0.000000,0.000000,0.000000,0.000000,0.000000,0.000000,0.000000,1762865745.170716,0.000000
160.000000,-4426.718286,-11499.637246,-40614.930167,-18537.508671,-6175.988159,-33868.301972,-20311.432518,-32690.499150,-10527.492824,-17061.399467,7243.462770,-18130.997495,-8787.118946,-17701.240504,-20556.541748,-16669.036945,0.014000,-0.012000,1.014000,192.000000,0.000000,56.000000,127.500000,80.000000,15.500000,88.000000,0.000000,0.000000,0.000000,1762865745.170742,0.000000
162.000000,-4401.550222,-11447.244757,-40522.952738,-18506.596208,-6164.789935,-33803.638375,-20245.003133,-32643.605190,-10523.469510,-17064.729877,7269.614311,-18124.291971,-8785.241399,-17719.703045,-20555.737085,-16667.114695,0.014000,-0.012000,1.014000,192.000000,0.000000,0.000000,0.000000,0.000000,0.000000,0.000000,0.000000,0.000000,0.000000,1762865745.170767,0.000000
164.000000,-4429.556957,-11489.869534,-40576.932201,-18530.289058,-6179.787955,-33841.815155,-20278.709564,-32669.846138,-10497.765004,-17034.331505,7180.743775,-18106.209410,-8756.452353,-17666.215320,-20530.457262,-16673.842570,0.014000,-0.012000,1.014000,192.000000,0.000000,0.000000,0.000000,0.000000,0.000000,0.000000,0.000000,0.000000,0.000000,1762865745.170793,0.000000
166.000000,-4424.572518,-11486.337958,-40588.264535,-18528.389159,-6165.259321,-33845.525544,-20291.025375,-32688.040458,-10542.714362,-17094.882380,7293.329512,-18153.371591,-8813.382246,-17747.888595,-20570.936271,-16670.959195,0.014000,-0.012000,1.014000,192.000000,0.000000,0.000000,0.000000,0.000000,0.000000,0.000000,0.000000,0.000000,0.000000,1762865745.170818,0.000000
168.000000,-4419.968059,-11459.448810,-40524.047974,-18500.516534,-6168.902656,-33791.769599,-20236.420064,-32648.589629,-10504.850507,-17036.052589,7187.270485,-18109.271599,-8764.186056,-17666.148265,-20532.446567,-16666.354736,0.014000,-0.012000,1.014000,192.000000,0.000000,0.000000,0.000000,0.000000,0.000000,0.000000,0.000000,0.000000,0.000000,1762865745.170843,0.000000
170.000000,-4467.532571,-11510.723711,-40620.473399,-18533.954744,-6177.709243,-33861.328228,-20311.968960,-32700.669193,-10538.065200,-17066.383906,7235.997288,-18138.999419,-8795.702016,-17698.245370,-20552.339620,-16668.858131,0.012000,-0.013000,1.015000,192.000000,0.000000,40.000000,127.500000,72.000000,15.500000,96.000000,0.000000,0.000000,0.000000,1762865745.170868,0.000000
172.000000,-4400.611448,-11442.617946,-40528.875950,-18505.411566,-6157.637377,-33790.741419,-20247.126549,-32649.059015,-10530.376200,-17064.394601,7264.004024,-18128.404692,-8796.193754,-17709.644760,-20556.809969,-16666.622957,0.012000,-0.013000,1.015000,192.000000,0.000000,0.000000,0.000000,0.000000,0.000000,0.000000,0.000000,0.000000,0.000000,1762865745.170893,0.000000
174.000000,-4425.868920,-11488.550781,-40579.793224,-18530.713741,-6175.116441,-33832.427422,-20280.028317,-32672.103664,-10497.407376,-17025.279048,7174.105307,-18105.024768,-8754.485399,-17652.513701,-20529.607896,-16671.339175,0.012000,-0.013000,1.015000,192.000000,0.000000,0.000000,0.000000,0.000000,0.000000,0.000000,0.000000,0.000000,0.000000,1762865745.170919,0.000000
176.000000,-4429.735771,-11488.573133,-40590.812634,-18534.021799,-6170.601388,-33842.888039,-20294.847524,-32685.157083,-10548.011726,-17087.975691,7292.010759,-18153.595108,-8810.007132,-17736.556260,-20567.874082,-16669.126352,0.012000,-0.013000,1.015000,192.000000,0.000000,0.000000,0.000000,0.000000,0.000000,0.000000,0.000000,0.000000,0.000000,1762865745.170948,0.000000
178.000000,-4386.172221,-11457.168932,-40521.879854,-18512.854697,-6171.562513,-33794.764733,-20238.029389,-32640.319483,-10501.743615,-17031.671647,7192.053758,-18106.008244,-8758.084030,-17664.673050,-20533.765320,-16669.908663,0.012000,-0.013000,1.015000,192.000000,0.000000,0.000000,0.000000,0.000000,0.000000,0.000000,0.000000,0.000000,0.000000,1762865745.170972,0.000000
180.000000,-4452.959234,-11507.639171,-40619.936957,-18544.549470,-6185.621761,-33872.437045,-20312.706567,-32694.790685,-10535.025362,-17071.793028,7235.952584,-18142.709809,-8794.919705,-17708.482469,-20556.720562,-16676.010689,0.010000,-0.014500,1.015500,192.000000,0.000000,32.000000,127.500000,64.000000,15.500000,96.000000,0.000000,0.000000,0.000000,1762865745.170995,0.000000
182.000000,-4407.384027,-11441.254490,-40526.081982,-18507.758499,-6176.055214,-33799.168026,-20245.427817,-32644.298094,-10528.342191,-17065.065153,7268.496724,-18131.198660,-8789.152955,-17715.769138,-20557.771094,-16677.150628,0.010000,-0.014500,1.015500,192.000000,0.000000,0.000000,0.000000,0.000000,0.000000,0.000000,0.000000,0.000000,0.000000,1762865745.171018,0.000000
184.000000,-4429.176978,-11484.706281,-40573.534736,-18522.644761,-6174.803516,-33831.622759,-20274.663898,-32662.492414,-10500.491917,-17024.250868,7177.100441,-18105.896486,-8759.358079,-17654.771227,-20534.681742,-16681.397460,0.010000,-0.014500,1.015500,192.000000,0.000000,0.000000,0.000000,0.000000,0.000000,0.000000,0.000000,0.000000,0.000000,1762865745.171041,0.000000
186.000000,-4432.730905,-11488.126098,-40586.051713,-18527.584496,-6168.299159,-33844.810289,-20290.488933,-32679.099760,-10551.185674,-17082.097183,7295.363521,-18148.185986,-8811.728217,-17736.265687,-20570.153960,-16676.256558,0.010000,-0.014500,1.015500,192.000000,0.000000,0.000000,0.000000,0.000000,0.000000,0.000000,0.000000,0.000000,0.000000,1762865745.171064,0.000000
188.000000,-4400.119710,-11453.726763,-40520.941081,-18510.507764,-6167.807420,-33798.765695,-20236.889450,-32635.066823,-10491.126536,-17026.351932,7194.110119,-18100.532067,-8752.607853,-17661.655565,-20531.351332,-16679.430506,0.010000,-0.014500,1.015500,192.000000,0.000000,0.000000,0.000000,0.000000,0.000000,0.000000,0.000000,0.000000,0.000000,1762865745.171088,0.000000
190.000000,-4444.845551,-11503.727615,-40619.467571,-18542.180186,-6188.035749,-33871.341809,-20311.991312,-32692.488455,-10533.505444,-17063.612290,7237.070171,-18140.452282,-8787.945961,-17706.493164,-20558.754570,-16682.045660,0.010000,-0.014250,1.012750,192.000000,0.000000,40.000000,127.500000,72.000000,15.500000,72.000000,0.000000,0.000000,0.000000,1762865745.171110,0.000000
192.000000,-4417.218794,-11459.694679,-40533.525113,-18509.010197,-6170.154353,-33804.800666,-20249.272317,-32651.338893,-10535.494749,-17063.053496,7262.618215,-18133.545593,-8790.337597,-17716.082062,-20561.168559,-16675.965986,0.010000,-0.014250,1.012750,192.000000,0.000000,0.000000,0.000000,0.000000,0.000000,0.000000,0.000000,0.000000,0.000000,1762865745.171134,0.000000
194.000000,-4422.583213,-11492.395281,-40580.866108,-18525.617543,-6184.437118,-33837.009530,-20278.754268,-32669.264992,-10510.751368,-17027.469519,7169.389089,-18111.551477,-8763.269635,-17659.599204,-20536.045198,-16676.837704,0.010000,-0.014250,1.012750,192.000000,0.000000,0.000000,0.000000,0.000000,0.000000,0.000000,0.000000,0.000000,0.000000,1762865745.171157,0.000000
196.000000,-4441.738658,-11487.410842,-40593.383085,-18527.495089,-6177.485726,-33850.778204,-20292.835867,-32682.698391,-10552.794999,-17083.572398,7290.624951,-18153.036315,-8814.589240,-17739.797263,-20574.289033,-16676.547131,0.010000,-0.014250,1.012750,192.000000,0.000000,0.000000,0.000000,0.000000,0.000000,0.000000,0.000000,0.000000,0.000000,1762865745.171180,0.000000
198.000000,-4416.391780,-11460.700507,-40526.931349,-18507.534982,-6183.945380,-33800.509131,-20238.319962,-32640.811222,-10505.811632,-17027.782443,7186.935209,-18104.510677,-8767.538818,-17666.774114,-20539.934402,-16676.256558,0.010000,-0.014250,1.012750,192.000000,0.000000,0.000000,0.000000,0.000000,0.000000,0.000000,0.000000,0.000000,0.000000,1762865745.171204,0.000000
200.000000,-4462.682243,-11523.486557,-40624.004975,-18544.102436,-6193.735444,-33877.287373,-20315.545239,-32701.853836,-10540.367429,-17074.564645,7226.877776,-18144.699114,-8805.872060,-17711.745824,-20559.156902,-16679.542265,0.011000,-0.015125,1.008375,192.000000,0.000000,48.000000,127.500000,64.000000,15.500000,48.000000,0.000000,0.000000,0.000000,1762865745.171227,0.000000
202.000000,-4410.468568,-11468.300100,-40532.653395,-18510.463060,-6170.959016,-33807.818151,-20250.635773,-32654.870469,-10541.149740,-17075.369307,7258.527846,-18140.742855,-8801.200545,-17723.145214,-20563.381381,-16676.994166,0.011000,-0.015125,1.008375,192.000000,0.000000,0.000000,0.000000,0.000000,0.000000,0.000000,0.000000,0.000000,0.000000,1762865745.171250,0.000000
204.000000,-4442.766838,-11504.398168,-40578.206250,-18526.735130,-6186.605237,-33838.976483,-20279.469523,-32670.807263,-10509.522022,-17038.533633,7169.210275,-18116.915896,-8764.722498,-17664.203663,-20532.558326,-16681.419811,0.011000,-0.015125,1.008375,192.000000,0.000000,0.000000,0.000000,0.000000,0.000000,0.000000,0.000000,0.000000,0.000000,1762865745.171274,0.000000
206.000000,-4436.843626,-11493.803441,-40591.125559,-18526.824537,-6173.954150,-33848.990065,-20296.456849,-32684.486530,-10554.270214,-17091.529619,7291.004931,-18159.473617,-8814.231612,-17743.440597,-20575.026640,-16677.128276,0.011000,-0.015125,1.008375,192.000000,0.000000,0.000000,0.000000,0.000000,0.000000,0.000000,0.000000,0.000000,0.000000,1762865745.171297,0.000000
208.000000,-4397.415149,-11447.915309,-40517.074229,-18502.572894,-6178.558609,-33786.472235,-20236.598878,-32632.630483,-10501.765967,-17024.139109,7193.037235,-18104.913009,-8755.379469,-17660.694439,-20535.575811,-16676.301262,0.011000,-0.015125,1.008375,192.000000,0.000000,0.000000,0.000000,0.000000,0.000000,0.000000,0.000000,0.000000,0.000000,1762865745.171321,0.000000
210.000000,-4442.990356,-11506.566287,-40614.974870,-18535.608773,-6176.256380,-33861.976428,-20310.136117,-32688.308679,-10523.201290,-17051.899976,7246.301442,-18134.529070,-8783.296798,-17692.322158,-20551.557309,-16676.033041,0.012500,-0.014562,1.007188,192.000000,0.000000,56.000000,127.500000,72.000000,15.500000,56.000000,0.000000,0.000000,0.000000,1762865745.171345,0.000000
212.000000,-4395.694065,-11457.548911,-40529.658261,-18507.557333,-6167.002757,-33795.904672,-20249.093503,-32647.829669,-10524.788263,-17059.343107,7272.810611,-18133.344428,-8790.494059,-17706.873144,-20556.966431,-16673.015556,0.012500,-0.014562,1.007188,192.000000,0.000000,0.000000,0.000000,0.000000,0.000000,0.000000,0.000000,0.000000,0.000000,1762865745.171368,0.000000
214.000000,-4421.219757,-11492.730557,-40574.428806,-18526.243392,-6189.622723,-33828.381756,-20277.614329,-32664.302905,-10493.831097,-17025.100234,7177.547476,-18111.618532,-8754.440696,-17650.367934,-20535.106425,-16680.682204,0.012500,-0.014562,1.007188,192.000000,0.000000,0.000000,0.000000,0.000000,0.000000,0.000000,0.000000,0.000000,0.000000,1762865745.171391,0.000000
216.000000,-4434.787266,-11487.477897,-40588.733922,-18531.496052,-6178.893885,-33846.397262,-20294.065212,-32681.469045,-10547.743505,-17085.002909,7294.760024,-18159.518321,-8805.112100,-17734.969286,-20572.031507,-16675.496599,0.012500,-0.014562,1.007188,192.000000,0.000000,0.000000,0.000000,0.000000,0.000000,0.000000,0.000000,0.000000,0.000000,1762865745.171414,0.000000
218.000000,-4406.109977,-11459.046478,-40522.103372,-18513.413490,-6181.307874,-33795.100009,-20239.281087,-32639.626579,-10502.950609,-17026.441339,7193.461918,-18112.289084,-8754.127771,-17665.701230,-20536.112253,-16677.128276,0.012500,-0.014562,1.007188,192.000000,0.000000,0.000000,0.000000,0.000000,0.000000,0.000000,0.000000,0.000000,0.000000,1762865745.171437,0.000000
220.000000,-4444.845551,-11511.729540,-40618.238225,-18545.711761,-6185.353540,-33868.905469,-20314.450003,-32694.164836,-10530.957345,-17063.612290,7236.712544,-18149.013001,-8788.974141,-17706.180239,-20552.049047,-16677.552960,0.013250,-0.016281,1.010594,192.000000,0.000000,56.000000,127.500000,56.000000,15.500000,88.000000,0.000000,0.000000,0.000000,1762865745.171461,0.000000
222.000000,-4396.275210,-11449.345821,-40524.115029,-18507.780851,-6171.294292,-33795.412933,-20247.327715,-32639.715986,-10528.878633,-17057.778485,7272.765907,-18137.904184,-8785.867248,-17710.874106,-20555.312402,-16671.182712,0.013250,-0.016281,1.010594,192.000000,0.000000,0.000000,0.000000,0.000000,0.000000,0.000000,0.000000,0.000000,0.000000,1762865745.171484,0.000000
224.000000,-4419.990411,-11478.268978,-40568.147965,-18521.147194,-6178.648016,-33824.179628,-20273.948642,-32656.658609,-10491.238295,-17016.383054,7184.700034,-18108.422233,-8751.132637,-17647.618669,-20524.221125,-16675.764820,0.013250,-0.016281,1.010594,192.000000,0.000000,0.000000,0.000000,0.000000,0.000000,0.000000,0.000000,0.000000,0.000000,1762865745.171521,0.000000
226.000000,-4429.601661,-11475.050327,-40582.073102,-18523.203555,-6175.138792,-33834.573190,-20290.801858,-32672.327181,-10536.299412,-17073.402354,7302.829004,-18155.025620,-8798.831260,-17726.520327,-20567.628213,-16672.523817,0.013250,-0.016281,1.010594,192.000000,0.000000,0.000000,0.000000,0.000000,0.000000,0.000000,0.000000,0.000000,0.000000,1762865745.171545,0.000000
228.000000,-4386.552201,-11456.297214,-40514.526131,-18504.249275,-6172.009548,-33780.459616,-20235.302476,-32628.003672,-10487.684368,-17014.259638,7208.862270,-18103.214276,-8746.371716,-17650.792617,-20529.362026,-16674.535474,0.013250,-0.016281,1.010594,192.000000,0.000000,0.000000,0.000000,0.000000,0.000000,0.000000,0.000000,0.000000,0.000000,1762865745.171568,0.000000
230.000000,-4439.145856,-11510.991932,-40613.343193,-18541.375523,-6184.884153,-33857.193155,-20311.790146,-32686.609946,-10524.408284,-17060.550101,7247.262567,-18140.318172,-8782.067452,-17695.786678,-20553.010172,-16675.809524,0.011625,-0.014141,1.014297,192.000000,0.000000,40.000000,127.500000,80.000000,15.500000,104.000000,0.000000,0.000000,0.000000,1762865745.171591,0.000000
232.000000,-4403.271306,-11450.530464,-40522.393945,-18509.479583,-6165.616949,-33790.428494,-20247.528881,-32639.492469,-10518.932106,-17060.103066,7280.209038,-18133.500890,-8775.674853,-17706.962551,-20552.786655,-16674.669585,0.011625,-0.014141,1.014297,192.000000,0.000000,0.000000,0.000000,0.000000,0.000000,0.000000,0.000000,0.000000,0.000000,1762865745.171615,0.000000
234.000000,-4427.433542,-11486.695586,-40570.629009,-18527.651552,-6182.000778,-33825.185457,-20276.228520,-32660.525460,-10490.076004,-17025.457862,7185.080014,-18114.077224,-8747.802227,-17652.826625,-20529.049102,-16674.960157,0.011625,-0.014141,1.014297,192.000000,0.000000,0.000000,0.000000,0.000000,0.000000,0.000000,0.000000,0.000000,0.000000,1762865745.171638,0.000000
236.000000,-4425.578347,-11491.277694,-40583.637724,-18526.422206,-6182.067833,-33837.769489,-20290.377175,-32675.545833,-10538.400476,-17078.967938,7305.488861,-18159.115989,-8802.049911,-17730.677751,-20570.869216,-16674.155494,0.011625,-0.014141,1.014297,192.000000,0.000000,0.000000,0.000000,0.000000,0.000000,0.000000,0.000000,0.000000,0.000000,1762865745.650638,0.000000
238.000000,-4399.940896,-11457.951243,-40517.811837,-18505.076290,-6183.341883,-33787.947451,-20235.056607,-32633.032815,-10497.742653,-17026.441339,7201.910877,-18111.395015,-8758.486361,-17659.554501,-20535.553460,-16670.892140,0.011625,-0.014141,1.014297,192.000000,0.000000,0.000000,0.000000,0.000000,0.000000,0.000000,0.000000,0.000000,0.000000,1762865745.650714,0.000000
240.000000,-4447.751277,-11503.817022,-40616.763010,-18538.179223,-6188.214563,-33863.473995,-20312.304236,-32689.247452,-10523.894194,-17060.438342,7243.105142,-18145.079094,-8791.656350,-17700.502896,-20558.106370,-16671.272119,0.011625,-0.014141,1.014297,192.000000,0.000000,0.000000,0.000000,0.000000,0.000000,0.000000,0.000000,0.000000,0.000000,1762865745.650759,0.000000
242.000000,-4391.961323,-11452.564472,-40526.551369,-18507.534982,-6172.702452,-33795.167064,-20249.227613,-32641.794698,-10524.564746,-17056.325621,7279.314969,-18135.646657,-8791.455184,-17707.387234,-20559.626288,-16669.595739,0.014000,-0.012000,1.014000,192.000000,0.000000,56.000000,127.500000,80.000000,15.500000,88.000000,0.000000,0.000000,0.000000,1762865745.650805,0.000000
244.000000,-4426.673582,-11488.975464,-40574.004122,-18526.779834,-6191.902601,-33830.348710,-20276.854369,-32659.899611,-10494.747519,-17016.405406,7187.091671,-18112.847878,-8753.747791,-17654.301841,-20536.738102,-16675.228378,0.014000,-0.012000,1.014000,192.000000,0.000000,0.000000,0.000000,0.000000,0.000000,0.000000,0.000000,0.000000,0.000000,1762865745.650851,0.000000
246.000000,-4422.583213,-11488.774298,-40590.030323,-18531.451348,-6182.939551,-33844.206791,-20296.210980,-32680.217347,-10545.485979,-17078.610310,7304.483033,-18161.351164,-8810.610629,-17735.997467,-20578.379402,-16668.969890,0.014000,-0.012000,1.014000,192.000000,0.000000,0.000000,0.000000,0.000000,0.000000,0.000000,0.000000,0.000000,0.000000,1762865745.650885,0.000000
248.000000,-4412.301411,-11450.821036,-40517.834189,-18508.607865,-6177.865705,-33785.868738,-20237.403540,-32633.211629,-10500.111938,-17020.540478,7204.034293,-18115.686550,-8763.560207,-17661.253233,-20539.844995,-16674.311957,0.014000,-0.012000,1.014000,192.000000,0.000000,0.000000,0.000000,0.000000,0.000000,0.000000,0.000000,0.000000,0.000000,1762865745.650908,0.000000
250.000000,-4438.475303,-11507.192136,-40612.404419,-18544.862395,-6177.843353,-33864.278658,-20312.237181,-32688.398086,-10523.357752,-17052.481121,7248.961300,-18147.090751,-8789.264713,-17695.943140,-20558.352239,-16680.972777,0.014000,-0.012000,1.014000,192.000000,0.000000,0.000000,0.000000,0.000000,0.000000,0.000000,0.000000,0.000000,0.000000,1762865745.650930,0.000000
252.000000,-4387.267457,-11450.463408,-40524.271491,-18510.038377,-6166.578074,-33798.363364,-20246.880680,-32641.481774,-10523.357752,-17056.280918,7283.204172,-18141.726332,-8794.383263,-17708.638931,-20555.647678,-16675.250730,0.016000,-0.014000,1.014000,192.000000,0.000000,64.000000,127.500000,72.000000,15.500000,88.000000,0.000000,0.000000,0.000000,1762865745.650953,0.000000
254.000000,-4432.239167,-11487.880229,-40572.484204,-18530.780796,-6187.119327,-33831.823925,-20276.854369,-32665.040513,-10488.690196,-17018.551173,7187.091671,-18116.222991,-8759.782763,-17653.184253,-20532.714788,-16678.134105,0.016000,-0.014000,1.014000,192.000000,0.000000,0.000000,0.000000,0.000000,0.000000,0.000000,0.000000,0.000000,0.000000,1762865745.650975,0.000000
0.000000,-4445.314937,-11495.636284,-40587.683390,-18534.334723,-6184.146545,-33847.805422,-20293.573474,-32683.883033,-10546.938842,-17085.025261,7302.337265,-18167.900225,-8818.389036,-17740.870147,-20578.871140,-16678.402326,0.016000,-0.014000,1.014000,192.000000,0.000000,0.000000,0.000000,0.000000,0.000000,0.000000,0.000000,0.000000,0.000000,1762865745.650998,0.000000
2.000000,-4409.149815,-11467.428382,-40519.711735,-18511.267723,-6188.371025,-33796.664631,-20236.487119,-32637.659626,-10504.895211,-17029.615287,7201.977933,-18119.039311,-8769.662234,-17669.165751,-20538.503890,-16673.954329,0.016000,-0.014000,1.014000,192.000000,0.000000,0.000000,0.000000,0.000000,0.000000,0.000000,0.000000,0.000000,0.000000,1762865745.651020,0.000000
4.000000,-4453.026289,-11511.282505,-40618.394687,-18547.522253,-6195.031845,-33870.425388,-20312.214829,-32691.549682,-10531.046752,-17061.354764,7244.110971,-18150.130588,-8800.909972,-17703.095699,-20558.486349,-16675.965986,0.016000,-0.014000,1.014000,192.000000,0.000000,0.000000,0.000000,0.000000,0.000000,0.000000,0.000000,0.000000,0.000000,1762865745.651043,0.000000
6.000000,-4401.214945,-11455.783123,-40530.328814,-18514.821650,-6182.738386,-33801.358497,-20248.020619,-32646.220344,-10534.399514,-17065.601595,7273.458811,-18145.995515,-8806.497908,-17718.853679,-20565.325983,-16677.195332,0.014000,-0.018000,1.012000,192.000000,0.000000,56.000000,127.500000,56.000000,15.500000,80.000000,0.000000,0.000000,0.000000,1762865745.651065,0.000000
8.000000,-4418.828120,-11489.444851,-40571.791300,-18528.702084,-6199.368083,-33835.534315,-20273.300442,-32663.565298,-10497.519135,-17021.970990,7182.174287,-18115.530087,-8771.852705,-17657.654602,-20537.006323,-16680.257521,0.014000,-0.018000,1.012000,192.000000,0.000000,0.000000,0.000000,0.000000,0.000000,0.000000,0.000000,0.000000,0.000000,1762865745.651088,0.000000
10.000000,-4439.592891,-11486.293255,-40585.783492,-18529.506746,-6174.490592,-33844.966751,-20292.142962,-32679.770312,-10547.296470,-17080.420802,7301.644361,-18163.251062,-8820.065417,-17738.299696,-20576.457152,-16681.688032,0.014000,-0.018000,1.012000,192.000000,0.000000,0.000000,0.000000,0.000000,0.000000,0.000000,0.000000,0.000000,0.000000,1762865745.651111,0.000000
