Sample Index, EXG Channel 0, EXG Channel 1, EXG Channel 2, EXG Channel 3, EXG Channel 4, EXG Channel 5, EXG Channel 6, EXG Channel 7, EXG Channel 8, EXG Channel 9, EXG Channel 10, EXG Channel 11, EXG Channel 12, EXG Channel 13, EXG Channel 14, EXG Channel 15, Accel Channel 0, Accel Channel 1, Accel Channel 2, Not Used, Digital Channel 0 (D11), Digital Channel 1 (D12), Digital Channel 2 (D13), Digital Channel 3 (D17), Not Used, Digital Channel 4 (D18), Analog Channel 0, Analog Channel 1, Analog Channel 2, Timestamp, Marker Channel, Timestamp (Formatted)
100.000000,22775.980565,34412.209322,21604.279769,11571.855732,33758.532555,31752.418787,17820.688226,16896.711814,35283.077989,33442.657702,16178.036175,2087.272952,20102.890742,30443.277114,18564.643689,23692.603253,0.022000,-0.016000,1.002000,192.000000,0.000000,0.000000,0.000000,0.000000,0.000000,0.000000,0.000000,0.000000,0.000000,1763133116.256184,0.000000
102.000000,22835.682075,34513.954462,21654.101807,11588.328968,33968.035456,31872.537061,17888.235198,17036.141996,35282.496844,33456.828708,16190.821372,2081.014464,20112.725510,30450.027341,18589.476477,23748.124987,0.022000,-0.016000,1.002000,192.000000,0.000000,0.000000,0.000000,0.000000,0.000000,0.000000,0.000000,0.000000,0.000000,1763133116.256285,0.000000
104.000000,22792.610263,34450.676674,21622.630551,11572.973320,33864.122196,31796.474075,17841.005962,16928.741864,35386.454807,33478.576956,16194.308245,2082.892011,20139.860527,30464.287754,18651.167292,23809.994615,0.022000,-0.016000,1.002000,192.000000,0.000000,0.000000,0.000000,0.000000,0.000000,0.000000,0.000000,0.000000,0.000000,1763133116.256364,0.000000
106.000000,22789.816295,34454.498822,21624.910429,11580.438802,33827.018300,31800.698555,17851.511282,16964.817579,35207.931424,33426.363281,16172.559997,2082.176755,20074.906358,30427.385024,18515.671017,23628.811375,0.022000,-0.016000,1.002000,192.000000,0.000000,0.000000,0.000000,0.000000,0.000000,0.000000,0.000000,0.000000,0.000000,1763133116.256444,0.000000
108.000000,22802.713251,34491.893291,21636.913316,11583.366881,33959.765310,31861.785872,17873.907730,16991.505562,35386.633621,33480.275688,16192.765974,2071.202048,20141.738074,30469.249841,18665.204187,23868.913814,0.018000,-0.015000,1.004000,192.000000,0.000000,56.000000,127.500000,72.000000,15.500000,56.000000,0.000000,0.000000,0.000000,1763133116.256522,0.000000
110.000000,22772.538396,34409.035374,21599.809420,11574.694404,33756.722064,31756.285638,17820.777633,16891.861485,35282.787416,33443.909400,16177.723250,2085.149537,20105.371786,30441.108995,18566.051849,23692.938530,0.018000,-0.015000,1.004000,192.000000,0.000000,0.000000,0.000000,0.000000,0.000000,0.000000,0.000000,0.000000,0.000000,1763133116.256602,0.000000
112.000000,22821.399310,34499.962270,21643.484729,11588.954817,33958.558316,31878.348515,17887.609349,17027.536574,35281.915698,33453.475947,16186.507486,2079.494545,20100.812030,30447.680407,18578.591177,23753.399998,0.018000,-0.015000,1.004000,192.000000,0.000000,0.000000,0.000000,0.000000,0.000000,0.000000,0.000000,0.000000,0.000000,1763133116.256682,0.000000
114.000000,22787.514065,34446.005159,21618.115499,11577.555427,33862.579925,31813.237883,17843.643468,16926.484338,35375.033066,33472.139653,16188.049756,2079.092214,20129.623429,30459.057445,18644.998210,23816.342511,0.018000,-0.015000,1.004000,192.000000,0.000000,0.000000,0.000000,0.000000,0.000000,0.000000,0.000000,0.000000,0.000000,1763133116.256702,0.000000
116.000000,22795.739507,34450.386101,21625.268057,11580.572913,33833.120326,31808.387555,17852.964145,16963.096495,35208.423163,33426.452688,16173.185846,2086.065958,20072.268852,30429.664901,18511.893572,23629.034892,0.018000,-0.015000,1.004000,192.000000,0.000000,0.000000,0.000000,0.000000,0.000000,0.000000,0.000000,0.000000,0.000000,1763133116.256723,0.000000
118.000000,22806.803621,34484.964250,21637.650923,11581.489334,33960.860546,31859.885974,17875.606462,16991.863190,35388.332354,33477.168796,16192.453050,2069.972702,20142.587440,30464.645382,18667.864045,23869.338497,0.015000,-0.015500,1.008000,192.000000,0.000000,48.000000,127.500000,64.000000,15.500000,80.000000,0.000000,0.000000,0.000000,1763133116.256743,0.000000
120.000000,22770.437332,34407.627214,21600.368214,11571.095773,33758.823128,31755.480976,17821.425834,16888.352262,35277.959440,33441.316598,16171.196541,2080.835650,20096.028757,30435.744576,18567.638823,23703.712070,0.015000,-0.015500,1.008000,192.000000,0.000000,0.000000,0.000000,0.000000,0.000000,0.000000,0.000000,0.000000,0.000000,1763133116.256763,0.000000
122.000000,22826.808432,34502.488017,21645.228165,11588.530134,33963.900383,31880.002544,17890.313910,17029.503528,35275.746617,33451.732511,16182.260654,2080.835650,20102.130783,30445.355826,18579.597006,23755.545766,0.015000,-0.015500,1.008000,192.000000,0.000000,0.000000,0.000000,0.000000,0.000000,0.000000,0.000000,0.000000,0.000000,1763133116.256783,0.000000
124.000000,22782.171998,34444.574647,21614.427461,11573.934445,33860.389454,31804.811276,17844.403427,16925.903192,35376.441226,33473.212537,16188.161515,2080.902705,20131.791548,30458.968038,18649.692076,23814.241447,0.015000,-0.015500,1.008000,192.000000,0.000000,0.000000,0.000000,0.000000,0.000000,0.000000,0.000000,0.000000,0.000000,1763133116.256803,0.000000
126.000000,22795.471286,34450.207287,21622.764662,11580.148230,33827.644149,31806.130029,17855.176968,16963.141199,35197.694325,33420.127144,16168.402573,2083.294342,20067.731448,30420.768907,18513.078214,23636.187450,0.015000,-0.015500,1.008000,192.000000,0.000000,0.000000,0.000000,0.000000,0.000000,0.000000,0.000000,0.000000,0.000000,1763133116.256823,0.000000
128.000000,22802.176810,34482.058523,21641.048389,11580.930541,33958.826537,31855.996770,17878.489837,16989.628016,35382.900880,33481.706200,16191.827201,2072.051414,20148.957687,30461.851413,18670.076867,23863.459988,0.016500,-0.017750,1.009000,192.000000,0.000000,72.000000,127.500000,48.000000,15.500000,72.000000,0.000000,0.000000,0.000000,1763133116.256842,0.000000
130.000000,22763.776513,34400.228786,21605.084432,11571.431049,33755.805642,31746.182650,17822.386959,16884.865389,35277.132425,33442.188316,16171.867093,2081.237981,20092.675995,30433.174125,18571.192750,23693.810248,0.016500,-0.017750,1.009000,192.000000,0.000000,0.000000,0.000000,0.000000,0.000000,0.000000,0.000000,0.000000,0.000000,1763133116.256862,0.000000
132.000000,22823.634484,34508.008898,21647.262174,11591.301750,33959.832365,31864.646895,17891.565608,17030.509356,35272.259745,33449.072653,16183.557055,2079.494545,20101.661396,30441.936009,18578.747640,23749.622554,0.016500,-0.017750,1.009000,192.000000,0.000000,0.000000,0.000000,0.000000,0.000000,0.000000,0.000000,0.000000,0.000000,1763133116.256883,0.000000
134.000000,22795.583045,34447.838002,21619.076624,11582.182238,33861.819966,31794.752991,17849.857253,16934.687428,35381.604479,33476.699409,16192.609512,2087.407063,20134.741978,30464.086588,18645.445245,23810.285188,0.016500,-0.017750,1.009000,192.000000,0.000000,0.000000,0.000000,0.000000,0.000000,0.000000,0.000000,0.000000,0.000000,1763133116.256902,0.000000
136.000000,22798.578179,34455.012912,21620.060101,11586.764346,33825.431326,31797.703421,17855.959279,16969.645556,35204.913939,33423.256388,16175.421020,2092.547964,20073.073515,30430.335454,18513.480546,23632.588820,0.016500,-0.017750,1.009000,192.000000,0.000000,0.000000,0.000000,0.000000,0.000000,0.000000,0.000000,0.000000,0.000000,1763133116.256922,0.000000
138.000000,22813.643254,34495.514273,21639.953153,11590.161811,33959.988828,31863.819881,17882.691965,17005.095423,35387.550043,33491.451560,16198.555076,2084.680150,20141.894536,30475.351867,18668.467542,23866.902157,0.017250,-0.018875,1.009500,192.000000,0.000000,72.000000,127.500000,48.000000,15.500000,72.000000,0.000000,0.000000,0.000000,1763133116.256945,0.000000
140.000000,22773.477170,34408.878912,21605.620874,11575.163791,33755.470366,31756.978542,17824.622133,16891.749727,35286.296640,33452.514822,16179.600797,2092.458557,20102.466059,30448.753291,18572.645613,23697.610044,0.017250,-0.018875,1.009500,192.000000,0.000000,0.000000,0.000000,0.000000,0.000000,0.000000,0.000000,0.000000,0.000000,1763133116.256965,0.000000
142.000000,22813.129164,34498.241186,21650.726694,11589.625369,33958.424206,31871.441826,17890.984463,17027.402464,35268.079968,33449.519688,16178.326747,2077.393481,20106.467021,30450.429672,18581.698070,23758.295030,0.017250,-0.018875,1.009500,192.000000,0.000000,0.000000,0.000000,0.000000,0.000000,0.000000,0.000000,0.000000,0.000000,1763133116.256985,0.000000
144.000000,22783.602510,34438.807897,21624.731615,11575.029680,33865.440949,31797.703421,17848.784369,16928.406588,35378.631697,33474.531290,16187.736832,2080.142746,20132.283286,30466.880556,18649.155635,23821.662226,0.017250,-0.018875,1.009500,192.000000,0.000000,0.000000,0.000000,0.000000,0.000000,0.000000,0.000000,0.000000,0.000000,1763133116.257005,0.000000
146.000000,22783.557806,34436.997406,21624.731615,11577.644834,33815.641262,31787.421618,17854.349953,16959.564919,35196.107351,33418.495467,16163.731058,2080.500374,20070.346602,30422.244122,18515.380444,23633.706407,0.017250,-0.018875,1.009500,192.000000,0.000000,0.000000,0.000000,0.000000,0.000000,0.000000,0.000000,0.000000,0.000000,1763133116.257026,0.000000
148.000000,22805.551923,34484.159587,21640.109615,11586.786698,33957.038397,31855.370922,17881.619082,17000.490964,35375.904784,33480.163929,16185.769878,2071.805545,20137.848870,30465.405341,18663.371344,23868.824407,0.019625,-0.020438,1.008750,192.000000,0.000000,88.000000,127.500000,40.000000,15.500000,64.000000,0.000000,0.000000,0.000000,1763133116.257046,0.000000
150.000000,22769.006821,34402.531016,21599.340033,11577.264855,33747.222572,31742.181688,17824.666837,16894.767212,35280.038152,33445.876353,16173.856398,2087.205897,20091.469001,30439.499669,18565.515407,23700.694585,0.019625,-0.020438,1.008750,192.000000,0.000000,0.000000,0.000000,0.000000,0.000000,0.000000,0.000000,0.000000,0.000000,1763133116.257065,0.000000
152.000000,22823.410967,34504.209102,21642.098921,11594.565105,33947.293037,31859.595401,17891.833829,17036.052589,35267.208250,33452.336008,16182.439468,2083.003769,20100.007367,30447.926277,18576.244244,23750.650734,0.019625,-0.020438,1.008750,192.000000,0.000000,0.000000,0.000000,0.000000,0.000000,0.000000,0.000000,0.000000,0.000000,1763133116.257085,0.000000
154.000000,22792.476152,34448.374444,21619.613066,11580.215285,33853.348655,31799.826837,17848.873776,16937.436692,35374.116644,33480.096874,16187.312148,2083.719025,20129.042283,30465.651210,18643.590050,23820.455232,0.019625,-0.020438,1.008750,192.000000,0.000000,0.000000,0.000000,0.000000,0.000000,0.000000,0.000000,0.000000,0.000000,1763133116.257105,0.000000
156.000000,22799.293435,34448.866182,21626.072720,11583.210419,33813.719012,31789.545034,17854.886395,16971.009013,35206.210340,33428.620807,16173.454067,2089.195202,20070.815989,30425.708643,18504.986883,23634.332256,0.019625,-0.020438,1.008750,192.000000,0.000000,0.000000,0.000000,0.000000,0.000000,0.000000,0.000000,0.000000,0.000000,1763133116.257125,0.000000
158.000000,22815.431394,34490.306317,21643.372970,11584.618579,33955.026740,31848.821860,17879.562721,17004.760147,35386.074827,33484.746037,16196.252846,2078.466365,20140.888708,30467.327591,18666.679402,23868.019744,0.019625,-0.020438,1.008750,192.000000,0.000000,0.000000,0.000000,0.000000,0.000000,0.000000,0.000000,0.000000,0.000000,1763133116.257145,0.000000
160.000000,22772.426638,34407.314289,21605.509115,11574.247369,33749.524802,31745.288580,17825.359741,16897.717643,35285.939012,33450.413758,16178.483209,2088.725816,20095.000576,30437.309198,18572.489151,23696.134829,0.016000,-0.022000,1.004000,192.000000,0.000000,64.000000,127.500000,40.000000,15.500000,48.000000,0.000000,0.000000,0.000000,1763133116.257166,0.000000
162.000000,22810.402252,34488.428770,21642.657714,11589.737128,33942.688577,31859.126015,17890.448021,17029.458824,35269.175204,33455.599362,16183.869980,2085.127185,20104.835344,30446.518117,18571.818599,23740.681856,0.016000,-0.022000,1.004000,192.000000,0.000000,0.000000,0.000000,0.000000,0.000000,0.000000,0.000000,0.000000,0.000000,1763133116.257185,0.000000
164.000000,22777.031097,34429.174296,21611.454679,11577.667186,33845.860821,31781.118426,17846.325677,16924.740902,35361.979647,33467.401083,16175.912759,2074.957141,20124.303713,30451.681370,18645.445245,23826.914886,0.016000,-0.022000,1.004000,192.000000,0.000000,0.000000,0.000000,0.000000,0.000000,0.000000,0.000000,0.000000,0.000000,1763133116.257205,0.000000
166.000000,22786.575292,34439.590208,21617.333188,11586.272608,33808.041669,31787.645136,17854.193491,16960.079010,35195.705020,33422.027042,16163.708706,2087.116490,20068.044373,30421.797087,18504.629255,23631.247715,0.016000,-0.022000,1.004000,192.000000,0.000000,0.000000,0.000000,0.000000,0.000000,0.000000,0.000000,0.000000,0.000000,1763133116.257225,0.000000
168.000000,22801.729775,34480.315087,21632.130043,11587.703119,33945.013159,31849.961799,17877.528712,16992.354929,35375.703618,33479.694543,16182.506523,2075.203010,20141.626315,30464.533623,18654.832978,23878.592119,0.016000,-0.022000,1.004000,192.000000,0.000000,0.000000,0.000000,0.000000,0.000000,0.000000,0.000000,0.000000,0.000000,1763133116.257245,0.000000
170.000000,22769.833835,34403.648603,21599.898827,11576.259026,33742.662816,31738.471298,17822.632828,16889.916884,35282.072160,33442.702406,16167.419096,2084.233115,20086.641024,30439.119689,18567.974099,23711.646940,0.018000,-0.016000,1.004000,192.000000,0.000000,72.000000,127.500000,64.000000,15.500000,48.000000,0.000000,0.000000,0.000000,1763133116.257265,0.000000
172.000000,22825.064996,34499.962270,21642.411845,11591.704082,33936.541848,31851.012331,17889.129268,17032.833938,35268.258782,33448.670322,16180.561922,2080.992112,20093.570065,30442.159527,18571.975061,23754.405827,0.018000,-0.016000,1.004000,192.000000,0.000000,0.000000,0.000000,0.000000,0.000000,0.000000,0.000000,0.000000,0.000000,1763133116.257285,0.000000
174.000000,22788.117562,34449.179107,21618.450775,11581.534038,33847.738367,31790.863787,17848.717314,16935.402684,35383.392618,33478.733418,16188.921474,2085.417758,20130.092815,30463.840719,18641.488986,23827.227810,0.018000,-0.016000,1.004000,192.000000,0.000000,0.000000,0.000000,0.000000,0.000000,0.000000,0.000000,0.000000,0.000000,1763133116.257304,0.000000
176.000000,22792.453801,34452.733034,21621.602371,11586.920808,33803.079582,31794.395363,17854.662878,16964.392896,35204.265738,33430.610112,16169.497808,2091.720950,20065.496274,30429.955474,18506.618560,23635.785119,0.018000,-0.016000,1.004000,192.000000,0.000000,0.000000,0.000000,0.000000,0.000000,0.000000,0.000000,0.000000,0.000000,1763133116.257324,0.000000
178.000000,22818.314769,34495.938956,21639.640229,11589.111279,33958.245392,31860.712988,17882.446096,17003.173173,35387.125359,33490.848063,16193.145954,2083.160231,20143.302696,30477.251765,18660.420914,23868.779703,0.018000,-0.016000,1.004000,192.000000,0.000000,0.000000,0.000000,0.000000,0.000000,0.000000,0.000000,0.000000,0.000000,1763133116.257344,0.000000
180.000000,22768.358620,34407.761324,21601.932836,11575.141439,33752.855212,31743.276923,17825.784424,16890.788602,35287.883614,33448.402101,16172.984680,2086.155365,20102.443707,30445.109957,18571.326860,23706.528390,0.020000,-0.020000,1.004000,192.000000,0.000000,80.000000,127.500000,48.000000,15.500000,48.000000,0.000000,0.000000,0.000000,1763133116.257364,0.000000
182.000000,22817.197182,34501.392782,21645.138758,11588.552486,33943.314426,31858.522518,17890.783297,17027.089539,35268.325838,33452.268952,16179.801962,2078.466365,20103.494239,30444.349998,18571.103343,23749.734312,0.020000,-0.020000,1.004000,192.000000,0.000000,0.000000,0.000000,0.000000,0.000000,0.000000,0.000000,0.000000,0.000000,1763133116.257384,0.000000
184.000000,22781.568501,34444.149964,21618.137851,11575.029680,33852.946324,31789.500331,17847.733837,16929.546527,35372.999057,33473.816034,16182.774744,2073.593685,20127.745882,30457.403416,18645.601707,23827.071348,0.020000,-0.020000,1.004000,192.000000,0.000000,0.000000,0.000000,0.000000,0.000000,0.000000,0.000000,0.000000,0.000000,1763133116.257404,0.000000
186.000000,22790.844475,34449.983770,21624.061063,11581.310520,33810.008622,31793.166017,17854.908747,16959.430809,35195.436799,33424.396327,16164.826294,2080.299208,20064.982184,30423.138192,18506.752671,23635.673360,0.020000,-0.020000,1.004000,192.000000,0.000000,0.000000,0.000000,0.000000,0.000000,0.000000,0.000000,0.000000,0.000000,1763133116.257424,0.000000
188.000000,22796.946501,34479.935107,21639.640229,11582.383404,33950.914019,31847.078424,17879.719183,16991.662024,35375.837728,33486.064790,16189.592026,2073.727795,20141.559260,30467.215832,18660.063286,23864.801093,0.020000,-0.020000,1.004000,192.000000,0.000000,0.000000,0.000000,0.000000,0.000000,0.000000,0.000000,0.000000,0.000000,1763133116.257443,0.000000
190.000000,22760.781379,34394.439685,21603.050423,11573.330948,33745.725005,31733.419804,17823.102215,16885.558294,35274.964306,33442.769461,16165.407439,2077.862868,20094.106507,30434.135250,18561.916776,23717.860725,0.016000,-0.024000,1.010000,192.000000,0.000000,64.000000,127.500000,32.000000,15.500000,72.000000,0.000000,0.000000,0.000000,1763133116.257463,0.000000
192.000000,22811.788060,34490.261613,21646.658676,11588.999520,33939.648740,31855.236811,17887.765811,17022.060397,35258.491070,33448.245638,16174.817523,2074.778327,20094.911169,30441.980713,18564.420171,23753.623516,0.016000,-0.024000,1.010000,192.000000,0.000000,0.000000,0.000000,0.000000,0.000000,0.000000,0.000000,0.000000,0.000000,1763133116.257483,0.000000
194.000000,22781.389687,34440.037243,21620.149508,11577.555427,33853.460414,31800.899720,17847.979706,16927.937201,35368.551060,33470.485624,16176.493904,2073.861906,20124.594286,30459.504480,18646.093446,23829.217116,0.016000,-0.024000,1.010000,192.000000,0.000000,0.000000,0.000000,0.000000,0.000000,0.000000,0.000000,0.000000,0.000000,1763133116.257503,0.000000
196.000000,22793.258464,34441.959493,21622.451737,11582.629273,33806.119419,31798.865712,17852.852387,16959.386105,35196.755552,33420.551827,16161.898215,2081.506202,20066.300936,30429.374329,18509.211363,23638.176756,0.016000,-0.024000,1.010000,192.000000,0.000000,0.000000,0.000000,0.000000,0.000000,0.000000,0.000000,0.000000,0.000000,1763133116.257520,0.000000
198.000000,22815.029063,34490.172206,21642.389493,11584.976206,33955.093796,31861.003561,17880.926178,17000.781536,35379.011676,33479.895709,16188.005053,2072.230228,20140.285211,30472.110864,18661.270280,23877.027497,0.016000,-0.024000,1.010000,192.000000,0.000000,0.000000,0.000000,0.000000,0.000000,0.000000,0.000000,0.000000,0.000000,1763133116.257529,0.000000
200.000000,22778.260443,34407.806028,21605.956150,11573.286244,33755.448014,31757.246763,17822.766939,16889.380442,35288.464759,33445.608133,16171.911797,2078.868697,20097.012233,30443.232410,18578.300605,23714.217390,0.018000,-0.024000,1.008000,192.000000,0.000000,72.000000,127.500000,32.000000,15.500000,64.000000,0.000000,0.000000,0.000000,1763133116.257538,0.000000
202.000000,22820.304074,34503.829122,21650.234956,11591.927599,33949.863487,31872.782930,17888.592826,17030.688170,35264.660152,33449.787909,16180.070183,2076.924095,20106.243504,30450.876707,18579.418192,23750.717789,0.018000,-0.024000,1.008000,192.000000,0.000000,0.000000,0.000000,0.000000,0.000000,0.000000,0.000000,0.000000,0.000000,1763133116.257547,0.000000
204.000000,22785.703574,34448.150927,21622.854069,11582.495163,33863.272829,31806.353546,17847.398561,16935.626201,35378.318772,33479.269860,16189.301454,2080.902705,20141.581612,30469.205137,18655.391771,23830.781738,0.018000,-0.024000,1.008000,192.000000,0.000000,0.000000,0.000000,0.000000,0.000000,0.000000,0.000000,0.000000,0.000000,1763133116.257556,0.000000
206.000000,22790.151571,34445.021682,21620.976522,11584.707985,33810.835637,31794.417714,17851.824206,16958.357925,35204.444552,33428.196124,16170.123657,2089.061092,20076.783905,30431.542448,18513.212325,23642.624753,0.018000,-0.024000,1.008000,192.000000,0.000000,0.000000,0.000000,0.000000,0.000000,0.000000,0.000000,0.000000,0.000000,1763133116.257565,0.000000
208.000000,22812.972702,34492.407381,21641.674237,11587.323140,33961.151118,31871.285364,17880.255625,16996.378243,35378.765807,33480.745075,16186.418079,2071.514973,20143.593269,30470.613297,18670.859178,23880.916700,0.018000,-0.024000,1.008000,192.000000,0.000000,0.000000,0.000000,0.000000,0.000000,0.000000,0.000000,0.000000,0.000000,1763133116.257574,0.000000
210.000000,22771.085533,34412.432839,21605.799688,11576.862523,33762.399407,31756.464452,17821.604648,16884.217189,35291.996335,33451.710159,16170.257767,2082.556734,20113.999559,30449.401492,18586.615454,23713.233914,0.024000,-0.020000,1.008000,192.000000,0.000000,96.000000,127.500000,48.000000,15.500000,64.000000,0.000000,0.000000,0.000000,1763133116.257583,0.000000
212.000000,22814.358510,34497.280061,21645.228165,11590.742956,33943.672054,31863.059922,17886.201189,17017.321827,35261.285038,33446.882182,16169.341346,2072.274932,20114.714815,30445.624047,18583.463858,23754.629344,0.024000,-0.020000,1.008000,192.000000,0.000000,0.000000,0.000000,0.000000,0.000000,0.000000,0.000000,0.000000,0.000000,1763133116.257592,0.000000
214.000000,22782.306109,34443.054729,21618.987217,11577.242503,33856.164975,31798.016345,17845.409256,16922.237506,35370.965048,33473.816034,16171.397706,2070.822069,20130.919830,30459.169204,18652.866024,23838.046055,0.024000,-0.020000,1.008000,192.000000,0.000000,0.000000,0.000000,0.000000,0.000000,0.000000,0.000000,0.000000,0.000000,1763133116.257601,0.000000
216.000000,22799.561655,34441.132479,21624.955133,11582.495163,33804.823018,31794.954156,17852.114779,16955.698068,35196.912014,33423.457554,16157.003183,2079.963932,20073.185274,30423.764041,18517.101528,23637.841480,0.024000,-0.020000,1.008000,192.000000,0.000000,0.000000,0.000000,0.000000,0.000000,0.000000,0.000000,0.000000,0.000000,1763133116.257610,0.000000
218.000000,22818.113603,34495.156645,21644.199985,11589.737128,33956.323142,31868.536099,17882.893131,17001.921475,35381.805644,33489.574014,16188.385032,2078.421662,20150.812882,30471.775588,18664.377173,23873.227700,0.024000,-0.020000,1.008000,192.000000,0.000000,0.000000,0.000000,0.000000,0.000000,0.000000,0.000000,0.000000,0.000000,1763133116.257619,0.000000
220.000000,22776.829931,34409.728278,21604.592693,11576.639006,33748.809546,31755.078644,17824.845651,16890.945064,35292.465722,33455.889935,16172.023555,2087.317656,20098.755669,30445.422881,18578.255901,23716.139640,0.020000,-0.020000,1.008000,192.000000,0.000000,80.000000,127.500000,48.000000,15.500000,64.000000,0.000000,0.000000,0.000000,1763133116.257628,0.000000
222.000000,22825.377920,34512.389840,21648.849147,11594.565105,33943.336778,31874.146387,17893.465506,17037.125473,35268.035265,33460.069711,16181.858323,2086.401234,20104.142440,30452.597791,18578.144142,23747.677952,0.020000,-0.020000,1.008000,192.000000,0.000000,0.000000,0.000000,0.000000,0.000000,0.000000,0.000000,0.000000,0.000000,1763133116.737164,0.000000
224.000000,22794.666623,34458.097453,21620.529487,11585.155020,33857.908411,31814.109601,17853.210014,16942.421131,35380.866871,33489.641069,16187.580369,2090.648066,20142.766254,30470.032152,18653.871853,23836.459081,0.020000,-0.020000,1.008000,192.000000,0.000000,0.000000,0.000000,0.000000,0.000000,0.000000,0.000000,0.000000,0.000000,1763133116.737273,0.000000
226.000000,22803.540266,34462.210174,21622.854069,11592.620503,33800.553835,31801.369107,17857.210977,16967.589196,35202.902282,33441.249542,16169.810733,2095.632505,20078.147361,30438.091509,18510.820688,23638.981418,0.020000,-0.020000,1.008000,192.000000,0.000000,0.000000,0.000000,0.000000,0.000000,0.000000,0.000000,0.000000,0.000000,1763133116.737357,0.000000
228.000000,22819.588819,34505.103171,21642.501252,11592.240523,33949.818784,31860.109491,17886.402355,17009.521068,35379.615173,33499.900520,16194.464707,2084.434281,20146.566051,30480.202196,18661.382039,23870.880767,0.020000,-0.020000,1.008000,192.000000,0.000000,0.000000,0.000000,0.000000,0.000000,0.000000,0.000000,0.000000,0.000000,1763133116.737443,0.000000
230.000000,22784.720097,34424.882761,21606.470240,11580.617616,33743.914514,31751.748234,17829.695979,16900.489259,35291.772818,33461.343761,16177.365622,2092.033874,20101.728451,30448.529774,18571.729192,23718.575980,0.018000,-0.019000,1.009000,192.000000,0.000000,64.000000,127.500000,56.000000,15.500000,72.000000,0.000000,0.000000,0.000000,1763133116.737529,0.000000
232.000000,22830.116490,34515.787305,21650.838453,11594.542753,33937.570028,31866.345628,17893.644320,17036.477272,35264.146061,33461.813147,16184.741698,2086.960028,20102.443707,30455.168242,18566.700049,23744.481652,0.018000,-0.019000,1.009000,192.000000,0.000000,0.000000,0.000000,0.000000,0.000000,0.000000,0.000000,0.000000,0.000000,1763133116.737612,0.000000
234.000000,22800.612187,34462.724264,21624.217525,11580.461154,33847.090166,31806.800581,17852.003020,16940.789454,35378.385827,33487.629412,16187.848590,2084.568391,20148.309487,30469.115730,18653.938908,23825.260857,0.018000,-0.019000,1.009000,192.000000,0.000000,0.000000,0.000000,0.000000,0.000000,0.000000,0.000000,0.000000,0.000000,1763133116.737657,0.000000
236.000000,22798.801696,34450.944895,21624.888077,11583.523343,33784.482930,31788.807427,17852.137131,16963.320012,35200.085962,33433.918170,16167.866131,2087.608229,20077.588567,30428.547314,18514.240505,23637.975590,0.018000,-0.019000,1.009000,192.000000,0.000000,0.000000,0.000000,0.000000,0.000000,0.000000,0.000000,0.000000,0.000000,1763133116.737679,0.000000
238.000000,22818.694749,34501.012802,21646.256345,11588.172506,33942.040377,31859.595401,17883.496628,17009.051682,35377.268240,33490.870415,16193.995320,2076.857040,20136.351304,30470.233318,18663.930138,23875.015840,0.018000,-0.019000,1.009000,192.000000,0.000000,0.000000,0.000000,0.000000,0.000000,0.000000,0.000000,0.000000,0.000000,1763133116.737702,0.000000
240.000000,22785.860036,34420.501819,21609.532429,11576.393137,33745.546191,31756.687970,17827.572564,16899.416375,35295.952594,33455.129976,16181.254826,2086.602400,20103.538943,30447.523945,18577.294776,23712.988044,0.019000,-0.017500,1.010500,192.000000,0.000000,80.000000,127.500000,64.000000,15.500000,80.000000,0.000000,0.000000,0.000000,1763133116.737724,0.000000
242.000000,22830.541173,34519.989433,21649.743217,11593.983959,33928.003481,31867.776140,17892.012643,17035.694961,35265.040131,33458.840365,16188.832067,2081.886182,20112.837268,30453.514213,18570.946881,23743.967562,0.019000,-0.017500,1.010500,192.000000,0.000000,0.000000,0.000000,0.000000,0.000000,0.000000,0.000000,0.000000,0.000000,1763133116.737747,0.000000
244.000000,22805.261350,34460.623200,21624.686912,11583.523343,33850.755853,31801.458514,17853.455884,16946.422094,35387.013601,33492.345630,16196.789288,2085.082482,20136.865394,30474.502501,18650.161463,23834.268610,0.019000,-0.017500,1.010500,192.000000,0.000000,0.000000,0.000000,0.000000,0.000000,0.000000,0.000000,0.000000,0.000000,1763133116.737769,0.000000
246.000000,22807.943560,34461.383159,21626.251534,11585.736166,33789.467369,31787.980412,17856.115741,16967.991527,35213.921692,33435.661606,16180.539570,2093.665551,20077.588567,30435.319893,18514.531078,23634.600477,0.019000,-0.017500,1.010500,192.000000,0.000000,0.000000,0.000000,0.000000,0.000000,0.000000,0.000000,0.000000,0.000000,1763133116.737791,0.000000
248.000000,22828.350702,34504.902006,21648.089188,11585.266779,33948.008293,31857.941372,17885.173009,17007.911743,35388.600575,33491.183339,16202.801907,2079.628656,20148.689467,30472.557899,18665.293594,23871.126636,0.019000,-0.017500,1.010500,192.000000,0.000000,0.000000,0.000000,0.000000,0.000000,0.000000,0.000000,0.000000,0.000000,1763133116.737814,0.000000
250.000000,22780.875597,34413.550426,21607.274903,11571.006366,33740.137069,31742.740481,17824.957409,16888.329910,35301.518178,33454.906458,16181.344233,2083.204935,20104.567123,30440.773718,18582.301567,23716.989007,0.019500,-0.015750,1.012250,192.000000,0.000000,80.000000,127.500000,72.000000,15.500000,88.000000,0.000000,0.000000,0.000000,1763133116.737836,0.000000
252.000000,22838.319580,34507.561863,21650.123197,11589.558314,33935.848944,31866.926773,17890.380966,17027.558926,35265.263649,33452.984208,16183.981739,2078.019330,20103.337777,30443.567687,18570.745715,23744.146376,0.019500,-0.015750,1.012250,192.000000,0.000000,0.000000,0.000000,0.000000,0.000000,0.000000,0.000000,0.000000,0.000000,1763133116.737858,0.000000
254.000000,22797.080612,34456.309313,21624.776319,11576.460192,33851.113480,31801.302052,17849.499625,16933.435730,35386.745380,33483.717857,16189.569675,2079.829822,20139.368789,30462.030227,18655.481178,23831.228773,0.019500,-0.015750,1.012250,192.000000,0.000000,0.000000,0.000000,0.000000,0.000000,0.000000,0.000000,0.000000,0.000000,1763133116.737880,0.000000
0.000000,22794.443106,34447.167450,21623.546973,11581.511686,33780.772541,31788.963889,17850.863081,16952.747637,35206.411506,33432.510010,16169.095477,2083.808432,20073.073515,30423.361710,18513.167621,23638.109700,0.019500,-0.015750,1.012250,192.000000,0.000000,0.000000,0.000000,0.000000,0.000000,0.000000,0.000000,0.000000,0.000000,1763133116.737903,0.000000
2.000000,22814.067938,34498.978793,21646.457511,11583.746860,33938.709967,31856.443805,17882.222579,17000.423908,35381.559775,33491.920947,16194.263541,2074.085423,20143.347400,30466.724094,18660.085638,23869.696125,0.019500,-0.015750,1.012250,192.000000,0.000000,0.000000,0.000000,0.000000,0.000000,0.000000,0.000000,0.000000,0.000000,1763133116.737925,0.000000
4.000000,22780.473266,34414.176275,21607.230199,11571.408698,33735.242037,31748.484880,17823.616305,16886.586474,35295.594966,33454.817051,16177.343270,2080.209801,20100.543809,30437.890343,18583.754430,23715.066757,0.018750,-0.014875,1.015125,192.000000,0.000000,72.000000,127.500000,72.000000,15.500000,104.000000,0.000000,0.000000,0.000000,1763133116.737948,0.000000
6.000000,22825.087348,34504.745544,21651.419598,11590.877067,33929.143420,31864.378675,17891.967939,17027.737740,35265.464814,33456.784005,16183.937035,2077.415833,20111.183239,30446.004027,18569.091686,23736.837356,0.018750,-0.014875,1.015125,192.000000,0.000000,0.000000,0.000000,0.000000,0.000000,0.000000,0.000000,0.000000,0.000000,1763133116.737970,0.000000
8.000000,22791.984414,34449.737900,21625.513926,11578.494201,33845.525544,31800.497389,17852.114779,16935.268573,35388.265298,33486.645935,16191.402518,2077.929923,20137.066559,30465.628858,18655.481178,23826.981941,0.018750,-0.014875,1.015125,192.000000,0.000000,0.000000,0.000000,0.000000,0.000000,0.000000,0.000000,0.000000,0.000000,1763133116.737993,0.000000
10.000000,22793.414926,34444.842868,21624.642208,11581.779907,33784.505282,31787.667488,17852.695924,16951.361829,35211.485352,33428.911379,16170.034250,2081.953237,20074.235806,30426.178029,18513.815822,23635.293381,0.018750,-0.014875,1.015125,192.000000,0.000000,0.000000,0.000000,0.000000,0.000000,0.000000,0.000000,0.000000,0.000000,1763133116.738015,0.000000
12.000000,22814.492621,34502.867997,21645.250517,11585.803221,33943.649703,31859.684808,17883.273111,17000.647426,35379.525766,33489.529310,16191.357814,2073.101946,20144.576746,30464.824195,18666.098257,23866.343363,0.018750,-0.014875,1.015125,192.000000,0.000000,0.000000,0.000000,0.000000,0.000000,0.000000,0.000000,0.000000,0.000000,1763133116.738037,0.000000
14.000000,22771.621975,34412.790467,21609.375967,11576.437840,33739.131241,31746.361464,17826.879660,16894.096660,35296.712553,33456.448729,16176.426849,2082.869659,20101.795507,30437.957399,18583.575616,23716.027882,0.018375,-0.014437,1.016563,192.000000,0.000000,72.000000,127.500000,72.000000,15.500000,104.000000,0.000000,0.000000,0.000000,1763133116.738060,0.000000
16.000000,22822.472194,34506.511331,21650.033790,11593.827497,33925.075403,31864.669247,17892.414974,17032.342199,35263.430806,33450.458461,16184.540532,2085.976551,20103.337777,30444.238239,18572.533855,23736.211507,0.018375,-0.014437,1.016563,192.000000,0.000000,0.000000,0.000000,0.000000,0.000000,0.000000,0.000000,0.000000,0.000000,1763133116.738082,0.000000
18.000000,22797.259426,34460.042055,21626.229182,11581.176410,33849.034768,31798.619842,17853.388828,16940.834158,35384.532557,33477.280554,16188.228570,2083.540211,20132.931487,30462.141986,18655.168254,23836.146156,0.018375,-0.014437,1.016563,192.000000,0.000000,0.000000,0.000000,0.000000,0.000000,0.000000,0.000000,0.000000,0.000000,1763133116.738104,0.000000
20.000000,22796.812391,34453.962380,21626.296237,11584.484468,33779.543195,31792.495464,17852.941794,16958.737905,35206.612671,33423.993996,16171.174189,2089.351665,20071.777114,30429.061404,18515.671017,23630.040721,0.018375,-0.014437,1.016563,192.000000,0.000000,0.000000,0.000000,0.000000,0.000000,0.000000,0.000000,0.000000,0.000000,1763133116.738127,0.000000
22.000000,22820.616999,34508.344174,21645.898717,11588.463079,33940.028720,31863.395198,17883.362518,17002.770841,35378.318772,33478.554604,16192.140125,2076.566467,20141.246336,30470.792111,18661.873777,23865.359886,0.018375,-0.014437,1.016563,192.000000,0.000000,0.000000,0.000000,0.000000,0.000000,0.000000,0.000000,0.000000,0.000000,1763133116.738149,0.000000
24.000000,22777.276966,34422.759345,21607.319606,11579.991767,33734.325616,31752.150566,17826.454976,16890.095698,35294.320916,33448.938542,16174.906930,2085.574220,20099.672091,30444.528812,18581.966291,23717.816021,0.017188,-0.015219,1.014281,192.000000,0.000000,64.000000,127.500000,64.000000,15.500000,80.000000,0.000000,0.000000,0.000000,1763133116.738172,0.000000
26.000000,22820.169964,34507.763029,21647.619801,11596.196782,33922.460249,31862.590535,17891.297387,17028.363589,35257.597000,33450.190240,16180.047832,2083.540211,20099.962664,30448.708588,18564.710744,23739.676027,0.017188,-0.015219,1.014281,192.000000,0.000000,0.000000,0.000000,0.000000,0.000000,0.000000,0.000000,0.000000,0.000000,1763133116.738194,0.000000
28.000000,22791.045641,34462.970133,21624.776319,11586.920808,33853.438062,31805.235959,17853.969974,16944.388085,35381.425665,33484.299002,16186.708651,2085.484813,20140.262859,30471.619126,18651.301402,23837.777834,0.017188,-0.015219,1.014281,192.000000,0.000000,0.000000,0.000000,0.000000,0.000000,0.000000,0.000000,0.000000,0.000000,1763133116.738216,0.000000
30.000000,22798.824048,34459.796185,21623.904601,11589.334797,33781.286631,31790.930842,17852.405352,16960.615451,35211.485352,33437.986188,16175.488076,2097.398293,20080.449591,30439.343207,18515.514554,23634.108738,0.017188,-0.015219,1.014281,192.000000,0.000000,0.000000,0.000000,0.000000,0.000000,0.000000,0.000000,0.000000,0.000000,1763133116.738239,0.000000
32.000000,22817.733624,34515.206160,21644.065874,11593.760442,33940.609865,31871.307715,17883.183704,17006.682397,35379.928098,33489.395200,16193.771803,2080.969761,20140.486376,30476.402399,18660.063286,23879.486189,0.017188,-0.015219,1.014281,192.000000,0.000000,0.000000,0.000000,0.000000,0.000000,0.000000,0.000000,0.000000,0.000000,1763133116.738261,0.000000
34.000000,22774.103019,34431.856505,21606.559647,11579.768250,33734.213857,31763.147624,17824.286857,16890.878009,35298.098361,33463.154252,16176.359794,2092.413854,20103.203667,30455.414111,18583.061526,23726.712015,0.016594,-0.016609,1.014141,192.000000,0.000000,64.000000,127.500000,56.000000,15.500000,88.000000,0.000000,0.000000,0.000000,1763133116.738284,0.000000
36.000000,22824.640313,34505.661965,21649.989086,11593.358111,33924.985996,31872.402951,17887.363480,17026.240173,35257.328779,33459.063883,16179.489038,2081.059168,20102.957797,30454.229469,18575.238416,23744.883984,0.016594,-0.016609,1.014141,192.000000,0.000000,0.000000,0.000000,0.000000,0.000000,0.000000,0.000000,0.000000,0.000000,1763133116.738307,0.000000
38.000000,22795.761859,34462.590154,21626.519755,11585.132669,33861.149414,31819.675186,17850.706619,16939.336591,35383.325563,33487.674116,16187.870942,2081.841479,20142.855661,30474.435446,18662.700792,23841.756444,0.016594,-0.016609,1.014141,192.000000,0.000000,0.000000,0.000000,0.000000,0.000000,0.000000,0.000000,0.000000,0.000000,1763133116.738330,0.000000
40.000000,22796.432411,34456.421072,21625.759795,11587.434898,33788.819169,31807.359374,17849.745494,16955.273384,35211.842979,33437.472098,16173.521122,2091.340970,20088.317405,30443.210059,18521.326008,23639.517860,0.016594,-0.016609,1.014141,192.000000,0.000000,0.000000,0.000000,0.000000,0.000000,0.000000,0.000000,0.000000,0.000000,1763133116.738353,0.000000
42.000000,22821.511069,34508.545340,21646.077531,11591.122936,33949.014121,31878.907308,17882.848428,17004.491926,35380.419836,33492.077409,16195.917570,2078.466365,20149.762350,30483.487902,18669.786295,23874.501750,0.016594,-0.016609,1.014141,192.000000,0.000000,0.000000,0.000000,0.000000,0.000000,0.000000,0.000000,0.000000,0.000000,1763133116.738376,0.000000
44.000000,22773.477170,34420.457115,21609.733595,11577.130744,33743.534534,31755.458624,17824.756244,16889.671015,35297.561919,33456.292266,16177.946768,2086.512993,20103.114260,30449.222678,18588.783573,23729.908315,0.016594,-0.016609,1.014141,192.000000,0.000000,0.000000,0.000000,0.000000,0.000000,0.000000,0.000000,0.000000,0.000000,1763133116.738398,0.000000
46.000000,22821.399310,34515.407326,21652.224261,11594.185125,33934.038452,31869.541928,17890.224503,17029.168252,35257.708759,33454.884107,16182.841800,2083.316694,20101.862562,30453.514213,18577.920625,23744.638115,0.014000,-0.012000,1.010000,192.000000,0.000000,56.000000,127.500000,80.000000,15.500000,72.000000,0.000000,0.000000,0.000000,1763133116.738421,0.000000
48.000000,22800.545132,34465.942915,21628.553763,11583.366881,33861.775263,31818.758764,17854.171139,16939.805977,35386.812435,33487.785874,16192.207181,2084.680150,20144.733208,30476.089475,18659.638603,23843.231659,0.014000,-0.012000,1.010000,192.000000,0.000000,0.000000,0.000000,0.000000,0.000000,0.000000,0.000000,0.000000,0.000000,1763133116.738443,0.000000
50.000000,22800.746298,34459.997351,21627.503231,11586.898456,33793.177759,31809.371031,17852.293593,16954.826350,35211.731221,33437.606208,16175.823352,2092.726778,20079.689631,30441.488974,18515.760424,23644.547003,0.014000,-0.012000,1.010000,192.000000,0.000000,0.000000,0.000000,0.000000,0.000000,0.000000,0.000000,0.000000,0.000000,1763133116.738465,0.000000
52.000000,22810.044624,34503.225625,21644.781130,11586.719642,33954.669113,31874.369904,17883.831904,17001.519144,35379.011676,33488.277613,16194.799983,2080.478022,20146.878975,30477.028248,18671.395620,23876.111075,0.014000,-0.012000,1.010000,192.000000,0.000000,0.000000,0.000000,0.000000,0.000000,0.000000,0.000000,0.000000,0.000000,1763133116.738487,0.000000
54.000000,22769.900891,34425.955644,21607.677234,11575.342605,33750.597686,31766.679200,17827.147880,16890.676843,35297.785437,33451.799566,16177.611491,2086.468290,20108.568085,30449.133271,18593.298625,23729.327170,0.014000,-0.012000,1.010000,192.000000,0.000000,0.000000,0.000000,0.000000,0.000000,0.000000,0.000000,0.000000,0.000000,1763133116.738510,0.000000
56.000000,22820.460537,34514.647366,21645.786958,11591.637026,33931.579761,31870.056018,17890.850352,17027.313057,35251.696140,33448.960894,16182.037137,2083.450804,20094.642948,30446.674579,18572.287985,23743.453472,0.016000,-0.016000,1.004000,192.000000,0.000000,64.000000,127.500000,64.000000,15.500000,48.000000,0.000000,0.000000,0.000000,1763133116.738532,0.000000
58.000000,22802.757955,34472.223755,21622.429385,11580.863485,33868.458434,31818.311729,17853.589994,16941.370599,35378.341124,33475.782988,16187.714480,2082.512031,20136.954801,30466.701742,18664.824207,23841.041188,0.016000,-0.016000,1.004000,192.000000,0.000000,0.000000,0.000000,0.000000,0.000000,0.000000,0.000000,0.000000,0.000000,1763133116.738554,0.000000
60.000000,22794.666623,34454.051787,21620.954170,11585.244427,33793.982422,31800.676203,17850.930137,16955.407495,35201.158846,33425.782135,16168.961366,2090.402197,20070.525416,30432.347111,18523.136499,23639.361398,0.016000,-0.016000,1.004000,192.000000,0.000000,0.000000,0.000000,0.000000,0.000000,0.000000,0.000000,0.000000,0.000000,1763133116.738577,0.000000
62.000000,22817.711272,34514.200331,21647.910374,11589.178334,33960.815842,31878.080294,17884.904788,17009.163440,35373.691961,33486.333011,16197.213971,2079.785118,20147.571879,30475.105998,18665.986498,23869.919642,0.016000,-0.016000,1.004000,192.000000,0.000000,0.000000,0.000000,0.000000,0.000000,0.000000,0.000000,0.000000,0.000000,1763133116.738600,0.000000
64.000000,22781.680260,34427.833191,21608.168973,11576.750764,33751.916439,31763.326438,17826.074997,16893.984901,35301.361716,33449.944371,16180.114887,2085.194240,20106.779946,30453.380102,18593.477439,23724.767414,0.016000,-0.016000,1.004000,192.000000,0.000000,0.000000,0.000000,0.000000,0.000000,0.000000,0.000000,0.000000,0.000000,1763133116.738622,0.000000
66.000000,22833.938638,34524.750355,21649.385589,11594.252180,33933.993749,31886.305736,17890.179800,17030.889336,35257.217021,33453.721816,16183.579407,2087.138842,20103.516591,30455.056483,18571.282157,23740.748911,0.010000,-0.016000,1.006000,192.000000,0.000000,40.000000,127.500000,64.000000,15.500000,56.000000,0.000000,0.000000,0.000000,1763133116.738644,0.000000
68.000000,22802.623844,34472.246107,21624.686912,11583.858619,33869.956001,31829.979340,17852.897090,16943.203442,35387.862967,33489.082276,16189.144992,2085.685979,20141.872184,30475.865957,18660.555024,23842.695217,0.010000,-0.016000,1.006000,192.000000,0.000000,0.000000,0.000000,0.000000,0.000000,0.000000,0.000000,0.000000,0.000000,1763133116.738667,0.000000
70.000000,22795.583045,34458.812709,21619.948342,11584.350358,33792.887186,31798.865712,17846.728009,16952.077085,35210.323061,33431.504182,16169.318994,2093.531441,20073.207626,30436.705701,18518.956723,23646.558660,0.010000,-0.016000,1.006000,192.000000,0.000000,0.000000,0.000000,0.000000,0.000000,0.000000,0.000000,0.000000,0.000000,1763133116.738689,0.000000
72.000000,22827.769557,34520.838800,21646.792787,11587.278436,33957.284267,31878.728494,17881.127343,17007.554115,35383.057342,33483.293174,16194.844686,2081.528554,20146.633106,30477.765856,18672.803780,23876.602814,0.010000,-0.016000,1.006000,192.000000,0.000000,0.000000,0.000000,0.000000,0.000000,0.000000,0.000000,0.000000,0.000000,1763133116.738711,0.000000
74.000000,22786.754106,34432.750575,21608.906580,11575.230846,33754.039854,31772.937688,17824.733892,16892.464983,35308.044888,33455.308790,16180.293701,2089.418720,20121.085062,30452.329570,18599.020672,23728.723672,0.010000,-0.016000,1.006000,192.000000,0.000000,0.000000,0.000000,0.000000,0.000000,0.000000,0.000000,0.000000,0.000000,1763133116.738733,0.000000
76.000000,22832.910458,34528.103117,21648.022133,11593.313407,33932.697348,31881.388352,17890.157448,17030.442301,35264.615448,33450.346702,16183.422945,2087.742339,20099.158001,30450.340265,18572.958538,23739.676027,0.014000,-0.014000,1.008000,192.000000,0.000000,56.000000,127.500000,72.000000,15.500000,64.000000,0.000000,0.000000,0.000000,1763133116.738756,0.000000
78.000000,22812.369205,34483.801959,21625.804499,11585.825573,33868.883117,31827.386537,17855.042858,16945.908004,35394.344973,33489.574014,16192.184829,2090.335141,20147.013086,30482.035039,18659.705658,23848.998409,0.014000,-0.014000,1.008000,192.000000,0.000000,0.000000,0.000000,0.000000,0.000000,0.000000,0.000000,0.000000,0.000000,1763133116.738778,0.000000
80.000000,22802.065051,34466.859337,21620.954170,11588.351320,33788.640355,31794.529473,17849.477273,16953.887576,35218.213227,33432.174734,16173.185846,2095.319580,20073.207626,30442.897134,18521.840098,23646.201032,0.014000,-0.014000,1.008000,192.000000,0.000000,0.000000,0.000000,0.000000,0.000000,0.000000,0.000000,0.000000,0.000000,1763133116.738800,0.000000
82.000000,22821.488717,34520.995262,21647.284525,11596.308541,33962.559278,31882.751808,17886.536465,17011.935057,35382.051513,33490.937470,16196.990454,2086.714159,20139.793472,30487.757085,18667.640527,23876.491055,0.014000,-0.014000,1.008000,192.000000,0.000000,0.000000,0.000000,0.000000,0.000000,0.000000,0.000000,0.000000,0.000000,1763133116.738822,0.000000
84.000000,22774.550053,34441.758328,21605.620874,11582.964549,33746.864944,31773.250612,17826.745549,16892.800259,35310.213007,33462.573107,16181.724212,2097.353589,20110.579742,30465.159472,18588.269483,23731.875268,0.014000,-0.014000,1.008000,192.000000,0.000000,0.000000,0.000000,0.000000,0.000000,0.000000,0.000000,0.000000,0.000000,1763133116.738860,0.000000
86.000000,22825.757900,34524.549189,21645.786958,11597.895515,33926.997653,31873.431131,17891.140925,17029.078845,35254.780681,33452.917153,16178.930244,2088.681112,20103.069556,30457.425768,18569.382259,23740.592449,0.020000,-0.012000,1.006000,192.000000,0.000000,80.000000,127.500000,80.000000,15.500000,56.000000,0.000000,0.000000,0.000000,1763133117.216702,0.000000
88.000000,22795.672452,34478.884575,21622.407034,11586.496125,33866.133853,31815.361299,17855.512244,16942.354076,35387.170063,33485.282479,16188.072108,2088.971685,20146.096664,30477.899966,18667.193492,23843.969267,0.020000,-0.012000,1.006000,192.000000,0.000000,0.000000,0.000000,0.000000,0.000000,0.000000,0.000000,0.000000,0.000000,1763133117.216796,0.000000
90.000000,22793.034946,34464.490052,21616.461470,11588.328968,33779.342029,31794.440066,17849.678439,16947.450274,35212.669994,33427.972606,16167.687317,2093.062054,20065.473922,30438.091509,18519.090834,23642.647105,0.020000,-0.012000,1.006000,192.000000,0.000000,0.000000,0.000000,0.000000,0.000000,0.000000,0.000000,0.000000,0.000000,1763133117.216876,0.000000
92.000000,22823.276856,34525.175038,21642.233031,11593.402814,33953.439767,31878.415570,17885.597692,17006.168307,35376.530633,33487.987040,16191.447221,2081.372092,20140.933411,30482.102094,18660.309155,23875.664041,0.020000,-0.012000,1.006000,192.000000,0.000000,0.000000,0.000000,0.000000,0.000000,0.000000,0.000000,0.000000,0.000000,1763133117.216955,0.000000
94.000000,22783.066068,34439.098470,21603.519810,11580.505858,33751.849383,31761.292429,17825.873831,16890.341567,35304.982699,33460.695560,16177.298567,2092.592668,20104.321254,30460.957344,18590.839933,23734.333960,0.020000,-0.012000,1.006000,192.000000,0.000000,0.000000,0.000000,0.000000,0.000000,0.000000,0.000000,0.000000,0.000000,1763133117.217033,0.000000
96.000000,22824.416795,34524.750355,21646.099883,11597.269666,33928.696385,31871.642992,17890.783297,17031.515185,35259.519250,33454.727644,16182.551227,2087.585877,20094.151210,30459.862108,18566.722401,23743.140548,0.016000,-0.012000,1.008000,192.000000,0.000000,64.000000,127.500000,80.000000,15.500000,64.000000,0.000000,0.000000,0.000000,1763133117.217112,0.000000
98.000000,22802.713251,34483.846663,21626.296237,11585.847924,33872.571155,31825.978378,17856.227500,16949.283117,35398.971784,33494.111418,16195.269370,2091.899764,20141.827481,30485.946594,18662.477274,23845.913869,0.016000,-0.012000,1.008000,192.000000,0.000000,0.000000,0.000000,0.000000,0.000000,0.000000,0.000000,0.000000,0.000000,1763133117.217168,0.000000
100.000000,22799.762821,34465.093549,21618.160202,11584.864448,33787.478064,31802.598453,17848.583203,16951.719457,35218.101468,33436.890952,16174.236378,2096.392464,20073.632309,30441.667788,18520.677807,23640.948372,0.016000,-0.012000,1.008000,192.000000,0.000000,0.000000,0.000000,0.000000,0.000000,0.000000,0.000000,0.000000,0.000000,1763133117.217188,0.000000
102.000000,22822.986284,34527.320805,21643.328267,11592.799317,33958.535964,31886.484550,17886.871742,17011.868001,35376.865909,33488.277613,16194.576465,2081.215630,20136.731283,30479.017553,18662.656088,23877.519235,0.016000,-0.012000,1.008000,192.000000,0.000000,0.000000,0.000000,0.000000,0.000000,0.000000,0.000000,0.000000,0.000000,1763133117.217208,0.000000
104.000000,22783.311937,34443.278246,21607.029034,11581.578741,33759.225459,31775.508139,17829.025427,16898.991692,35314.839818,33467.646953,16182.774744,2095.386636,20102.220190,30461.292620,18588.470648,23735.362141,0.016000,-0.012000,1.008000,192.000000,0.000000,0.000000,0.000000,0.000000,0.000000,0.000000,0.000000,0.000000,0.000000,1763133117.217228,0.000000
106.000000,22824.640313,34526.918474,21645.406979,11595.526230,33922.773173,31873.900518,17891.431498,17031.984571,35260.793300,33458.013351,16184.696994,2088.994037,20101.951969,30458.409245,18564.978965,23736.926763,0.020000,-0.010000,1.002000,192.000000,0.000000,80.000000,127.500000,88.000000,15.500000,40.000000,0.000000,0.000000,0.000000,1763133117.217248,0.000000
108.000000,22801.282740,34484.763084,21620.618894,11583.188067,33865.664466,31824.681976,17856.607480,16944.097512,35392.467426,33490.021049,16190.486096,2084.121357,20136.798339,30482.213853,18660.644431,23851.479453,0.020000,-0.010000,1.002000,192.000000,0.000000,0.000000,0.000000,0.000000,0.000000,0.000000,0.000000,0.000000,0.000000,1763133117.217268,0.000000
110.000000,22794.934844,34476.671753,21617.556705,11587.926637,33784.326468,31804.587758,17851.868910,16950.132483,35214.681651,33441.227191,16167.977890,2092.391502,20070.637175,30450.630838,18517.973246,23646.983343,0.020000,-0.010000,1.002000,192.000000,0.000000,0.000000,0.000000,0.000000,0.000000,0.000000,0.000000,0.000000,0.000000,1763133117.217288,0.000000
112.000000,22826.450804,34530.874733,21643.998819,11595.615637,33956.345493,31889.055000,17889.643358,17010.638656,35386.655973,33495.452523,16195.783460,2084.926019,20145.783740,30486.371277,18662.924309,23874.881729,0.020000,-0.010000,1.002000,192.000000,0.000000,0.000000,0.000000,0.000000,0.000000,0.000000,0.000000,0.000000,0.000000,1763133117.217308,0.000000
114.000000,22782.239054,34440.886610,21605.084432,11585.289131,33755.738587,31769.607278,17831.193546,16896.085965,35311.040021,33464.629467,16180.003128,2093.553793,20115.564181,30463.684257,18590.236436,23742.939382,0.020000,-0.010000,1.002000,192.000000,0.000000,0.000000,0.000000,0.000000,0.000000,0.000000,0.000000,0.000000,0.000000,1763133117.217328,0.000000
116.000000,22826.428452,34537.244980,21648.938554,11597.627294,33925.254217,31875.375733,17893.487858,17032.699827,35261.262686,33461.634333,16186.596893,2091.072749,20091.066669,30460.264440,18562.207349,23736.837356,0.019000,-0.008000,1.000000,192.000000,0.000000,72.000000,127.500000,104.000000,15.500000,24.000000,0.000000,0.000000,0.000000,1763133117.217348,0.000000
118.000000,22804.948426,34490.507482,21631.124214,11587.390195,33873.576984,31830.940465,17861.055477,16953.574652,35396.691906,33495.810151,16196.386957,2091.050397,20140.195804,30482.236204,18661.940832,23845.779758,0.019000,-0.008000,1.000000,192.000000,0.000000,0.000000,0.000000,0.000000,0.000000,0.000000,0.000000,0.000000,0.000000,1763133117.217368,0.000000
120.000000,22808.815278,34479.108093,21626.519755,11589.468907,33781.331334,31802.710212,17853.589994,16957.732076,35226.081041,33444.490545,16181.925378,2101.622772,20083.556483,30445.288771,18518.464985,23636.187450,0.019000,-0.008000,1.000000,192.000000,0.000000,0.000000,0.000000,0.000000,0.000000,0.000000,0.000000,0.000000,0.000000,1763133117.217389,0.000000
122.000000,22829.110662,34534.786288,21652.425427,11593.782794,33958.871240,31881.298945,17891.386794,17016.427757,35384.890185,33495.944261,16202.310169,2087.295304,20150.902289,30485.633670,18663.259585,23869.047924,0.019000,-0.008000,1.000000,192.000000,0.000000,0.000000,0.000000,0.000000,0.000000,0.000000,0.000000,0.000000,0.000000,1763133117.217398,0.000000
124.000000,22781.389687,34446.742767,21611.454679,11578.024814,33753.749282,31767.685028,17829.986552,16895.773041,35314.795114,33465.881165,16186.261616,2092.927944,20106.310559,30456.241126,18591.197561,23731.629399,0.019000,-0.008000,1.000000,192.000000,0.000000,0.000000,0.000000,0.000000,0.000000,0.000000,0.000000,0.000000,0.000000,1763133117.217407,0.000000
126.000000,22826.763728,34533.311073,21649.139720,11592.553448,33922.884932,31868.357285,17891.230332,17028.452996,35263.989599,33452.090138,16187.423907,2085.730682,20098.040414,30451.971942,18565.738924,23728.634265,0.018500,-0.009000,0.999000,192.000000,0.000000,72.000000,127.500000,88.000000,15.500000,24.000000,0.000000,0.000000,0.000000,1763133117.217416,0.000000
128.000000,22800.098097,34488.696991,21628.374949,11581.198762,33866.290315,31817.238845,17857.456846,16946.042114,35395.395505,33486.265956,16193.592989,2081.416795,20138.586478,30468.244012,18665.919443,23845.936220,0.018500,-0.009000,0.999000,192.000000,0.000000,0.000000,0.000000,0.000000,0.000000,0.000000,0.000000,0.000000,0.000000,1763133117.217425,0.000000
130.000000,22803.026176,34465.361770,21621.602371,11582.405756,33778.760884,31784.672354,17850.259584,16949.059600,35221.923616,33434.789888,16177.410326,2092.503261,20074.861655,30432.838849,18518.599095,23635.874526,0.018500,-0.009000,0.999000,192.000000,0.000000,0.000000,0.000000,0.000000,0.000000,0.000000,0.000000,0.000000,0.000000,1763133117.217434,0.000000
132.000000,22821.667531,34521.710518,21649.810272,11587.345491,33950.556392,31869.318410,17888.525771,17010.549249,35380.553947,33482.689677,16196.588122,2078.153441,20139.122920,30474.681315,18661.449094,23865.583404,0.018500,-0.009000,0.999000,192.000000,0.000000,0.000000,0.000000,0.000000,0.000000,0.000000,0.000000,0.000000,0.000000,1763133117.217443,0.000000
134.000000,22778.059277,34438.293807,21610.158278,11572.727450,33748.675436,31752.910525,17828.600744,16891.950892,35310.995318,33451.956028,16181.366584,2084.009598,20107.986940,30448.708588,18595.533800,23733.261077,0.018500,-0.009000,0.999000,192.000000,0.000000,0.000000,0.000000,0.000000,0.000000,0.000000,0.000000,0.000000,0.000000,1763133117.217452,0.000000
136.000000,22830.027083,34533.422832,21652.894813,11592.531096,33920.716813,31869.899555,17892.593788,17031.895164,35257.127614,33449.720854,16188.161515,2083.651970,20094.955873,30447.814518,18564.956613,23728.455452,0.019250,-0.009500,1.000500,192.000000,0.000000,80.000000,127.500000,88.000000,15.500000,40.000000,0.000000,0.000000,0.000000,1763133117.217461,0.000000
138.000000,22805.775440,34487.042962,21630.788938,11582.852791,33861.417635,31819.585779,17858.440323,16948.433751,35397.809493,33485.550700,16198.040986,2084.031950,20140.665190,30471.932050,18665.293594,23848.797244,0.019250,-0.009500,1.000500,192.000000,0.000000,0.000000,0.000000,0.000000,0.000000,0.000000,0.000000,0.000000,0.000000,1763133117.217471,0.000000
140.000000,22795.918321,34472.849604,21624.306932,11583.880971,33772.100064,31796.407020,17850.617212,16946.600908,35221.364823,33432.040624,16175.488076,2089.351665,20076.426277,30435.006968,18518.085005,23644.547003,0.019250,-0.009500,1.000500,192.000000,0.000000,0.000000,0.000000,0.000000,0.000000,0.000000,0.000000,0.000000,0.000000,1763133117.217480,0.000000
142.000000,22825.132051,34528.863076,21652.470130,11588.306616,33946.823650,31884.495245,17889.978634,17010.057510,35384.107874,33485.863624,16195.314073,2074.733624,20138.340609,30471.842643,18663.371344,23872.601852,0.019250,-0.009500,1.000500,192.000000,0.000000,0.000000,0.000000,0.000000,0.000000,0.000000,0.000000,0.000000,0.000000,1763133117.217489,0.000000
144.000000,22776.427600,34438.271456,21610.091223,11571.989843,33743.713348,31765.427502,17826.857308,16887.167619,35320.025423,33457.253391,16182.774744,2083.294342,20113.038434,30452.463681,18599.847686,23732.031731,0.019250,-0.009500,1.000500,192.000000,0.000000,0.000000,0.000000,0.000000,0.000000,0.000000,0.000000,0.000000,0.000000,1763133117.217498,0.000000
146.000000,22825.288513,34529.399518,21646.971601,11588.686596,33913.340737,31865.608020,17887.542294,17024.452034,35252.187878,33446.166926,16177.745602,2074.644217,20091.938387,30444.193535,18567.415305,23735.630362,0.019625,-0.009750,1.003250,192.000000,0.000000,80.000000,127.500000,88.000000,15.500000,56.000000,0.000000,0.000000,0.000000,1763133117.217508,0.000000
148.000000,22803.294397,34483.131407,21627.123252,11580.170581,33867.206736,31825.374880,17856.048686,16945.930355,35393.026220,33483.583746,16189.904951,2079.203973,20141.536908,30470.747408,18666.746457,23854.765159,0.019625,-0.009750,1.003250,192.000000,0.000000,0.000000,0.000000,0.000000,0.000000,0.000000,0.000000,0.000000,0.000000,1763133117.217516,0.000000
150.000000,22802.914417,34465.294715,21622.250572,11581.154058,33775.586936,31785.320554,17848.762017,16947.249108,35218.414392,33428.710214,16170.905968,2087.474118,20073.252329,30437.376253,18527.159813,23646.268087,0.019625,-0.009750,1.003250,192.000000,0.000000,0.000000,0.000000,0.000000,0.000000,0.000000,0.000000,0.000000,0.000000,1763133117.217525,0.000000
152.000000,22831.614057,34530.405346,21650.950211,11586.250256,33951.003426,31866.725608,17889.442192,17015.019597,35378.430531,33482.466159,16195.604646,2078.689883,20140.173452,30470.725056,18669.316908,23868.578538,0.019625,-0.009750,1.003250,192.000000,0.000000,0.000000,0.000000,0.000000,0.000000,0.000000,0.000000,0.000000,0.000000,1763133117.217534,0.000000
154.000000,22788.609301,34451.168412,21611.454679,11574.135610,33744.942694,31761.806519,17831.729988,16896.823573,35315.622129,33457.476909,16184.652291,2087.272952,20117.508783,30451.726073,18597.634864,23731.964675,0.019625,-0.009750,1.003250,192.000000,0.000000,0.000000,0.000000,0.000000,0.000000,0.000000,0.000000,0.000000,0.000000,1763133117.217543,0.000000
156.000000,22828.373054,34531.411175,21650.883156,11592.709910,33910.367955,31871.173605,17895.544218,17032.141034,35255.250067,33452.090138,16188.519143,2085.283647,20099.716794,30449.826175,18561.425038,23721.772280,0.019813,-0.010875,1.003625,192.000000,0.000000,80.000000,127.500000,80.000000,15.500000,48.000000,0.000000,0.000000,0.000000,1763133117.217552,0.000000
158.000000,22807.630635,34483.913718,21630.028979,11580.505858,33859.607143,31816.881218,17862.195416,16949.998373,35394.255566,33488.456427,16197.817468,2083.696673,20135.256068,30481.520949,18663.885434,23840.281229,0.019813,-0.010875,1.003625,192.000000,0.000000,0.000000,0.000000,0.000000,0.000000,0.000000,0.000000,0.000000,0.000000,1763133117.217561,0.000000
160.000000,22806.110717,34472.201404,21623.435214,11583.232770,33762.958200,31785.141740,17852.472407,16952.591175,35216.380384,33435.259275,16177.924416,2092.369150,20071.352431,30437.331550,18520.588400,23636.142747,0.019813,-0.010875,1.003625,192.000000,0.000000,0.000000,0.000000,0.000000,0.000000,0.000000,0.000000,0.000000,0.000000,1763133117.217570,0.000000
162.000000,22835.704426,34533.154611,21650.905508,11588.530134,33948.567086,31878.393218,17892.437326,17021.211031,35381.604479,33487.584709,16204.657102,2083.361397,20138.586478,30476.581213,18660.823245,23866.879805,0.019813,-0.010875,1.003625,192.000000,0.000000,0.000000,0.000000,0.000000,0.000000,0.000000,0.000000,0.000000,0.000000,1763133117.217578,0.000000
164.000000,22787.245844,34444.731110,21612.616970,11575.320253,33745.434433,31760.621877,17831.752340,16904.177297,35319.712498,33462.461348,16189.279102,2093.196165,20108.478678,30454.341227,18597.344291,23728.544859,0.019813,-0.010875,1.003625,192.000000,0.000000,0.000000,0.000000,0.000000,0.000000,0.000000,0.000000,0.000000,0.000000,1763133117.217588,0.000000
166.000000,22832.932810,34530.025367,21651.374895,11591.860544,33914.994766,31865.004523,17893.733727,17036.834900,35255.428881,33453.006560,16189.793192,2088.949333,20101.907265,30448.976809,18567.214139,23720.878210,0.019906,-0.015437,1.005812,192.000000,0.000000,80.000000,127.500000,48.000000,15.500000,64.000000,0.000000,0.000000,0.000000,1763133117.217597,0.000000
168.000000,22812.548019,34491.133331,21632.554726,11579.991767,33867.340847,31818.959930,17859.714372,16955.429847,35402.078676,33486.221252,16199.963236,2085.283647,20143.861490,30473.161396,18669.518074,23848.014933,0.019906,-0.015437,1.005812,192.000000,0.000000,0.000000,0.000000,0.000000,0.000000,0.000000,0.000000,0.000000,0.000000,1763133117.217606,0.000000
170.000000,22803.115583,34471.217927,21624.262229,11580.036471,33772.927078,31778.726790,17849.074942,16949.819559,35219.755497,33433.538191,16176.248035,2089.798700,20077.253291,30432.123593,18535.452310,23638.690846,0.019906,-0.015437,1.005812,192.000000,0.000000,0.000000,0.000000,0.000000,0.000000,0.000000,0.000000,0.000000,0.000000,1763133117.217615,0.000000
172.000000,22830.138842,34527.723137,21650.503177,11588.127802,33950.087005,31867.664381,17889.956282,17019.154670,35378.832862,33485.796569,16202.824259,2080.746243,20147.705990,30472.222623,18670.188626,23866.410418,0.019906,-0.015437,1.005812,192.000000,0.000000,0.000000,0.000000,0.000000,0.000000,0.000000,0.000000,0.000000,0.000000,1763133117.217624,0.000000
174.000000,22789.704536,34443.926447,21613.891019,11576.057860,33752.095253,31766.053351,17830.455939,16900.221038,35317.700841,33459.265048,16187.736832,2088.994037,20114.915981,30454.162413,18603.222800,23739.296048,0.019906,-0.015437,1.005812,192.000000,0.000000,0.000000,0.000000,0.000000,0.000000,0.000000,0.000000,0.000000,0.000000,1763133117.217633,0.000000
176.000000,22838.788967,34535.680358,21651.710171,11595.637989,33914.570083,31871.263012,17892.437326,17033.973877,35256.188840,33451.799566,16190.039061,2086.334179,20095.939350,30452.061349,18567.817636,23724.700358,0.019906,-0.015437,1.005812,192.000000,0.000000,0.000000,0.000000,0.000000,0.000000,0.000000,0.000000,0.000000,0.000000,1763133117.217643,0.000000
178.000000,22813.956179,34493.033229,21631.146566,11586.674939,33871.095940,31837.198953,17860.720201,16954.692239,35399.307060,33492.546796,16200.834954,2087.138842,20146.923679,30480.962155,18669.965109,23853.669924,0.018000,-0.018000,1.008000,192.000000,0.000000,72.000000,127.500000,56.000000,15.500000,64.000000,0.000000,0.000000,0.000000,1763133117.217652,0.000000
180.000000,22804.702557,34467.865165,21621.155336,11584.998558,33773.418817,31793.210720,17848.113817,16948.456102,35221.834209,33439.930789,16180.561922,2096.303057,20082.349489,30444.908791,18528.165642,23646.625715,0.018000,-0.018000,1.008000,192.000000,0.000000,0.000000,0.000000,0.000000,0.000000,0.000000,0.000000,0.000000,0.000000,1763133117.217661,0.000000
182.000000,22835.145633,34535.300378,21650.391418,11591.279398,33955.116147,31880.583689,17891.118573,17017.746510,35376.463577,33492.747962,16201.058471,2081.461499,20146.856624,30482.638536,18668.378135,23870.433732,0.018000,-0.018000,1.008000,192.000000,0.000000,0.000000,0.000000,0.000000,0.000000,0.000000,0.000000,0.000000,0.000000,1763133117.217670,0.000000
184.000000,22793.012594,34441.668921,21608.124269,11575.521419,33750.374168,31764.913412,17830.813567,16897.605884,35318.080821,33462.438996,16185.367547,2088.971685,20111.630274,30456.554050,18603.736890,23742.201774,0.018000,-0.018000,1.008000,192.000000,0.000000,0.000000,0.000000,0.000000,0.000000,0.000000,0.000000,0.000000,0.000000,1763133117.217679,0.000000
186.000000,22838.252525,34530.427698,21647.262174,11591.882895,33919.465115,31870.614811,17892.727899,17031.649295,35250.846773,33450.570220,16185.524009,2084.635447,20101.437879,30450.876707,18565.202482,23727.002588,0.018000,-0.018000,1.008000,192.000000,0.000000,0.000000,0.000000,0.000000,0.000000,0.000000,0.000000,0.000000,0.000000,1763133117.217688,0.000000
188.000000,22816.794850,34497.078895,21629.514888,11583.970378,33875.298068,31832.169811,17863.603576,16956.659193,35398.435342,33491.228043,16198.420965,2083.875487,20168.291946,30478.883443,18666.299423,23855.860395,0.020000,-0.018000,1.014000,192.000000,0.000000,80.000000,127.500000,56.000000,15.500000,88.000000,0.000000,0.000000,0.000000,1763133117.217696,0.000000
190.000000,22803.942597,34473.453101,21621.825888,11582.428108,33775.609288,31792.763685,17849.611384,16946.064466,35224.985805,33440.646045,16180.718384,2092.726778,20096.855771,30444.886439,18528.098587,23645.239907,0.020000,-0.018000,1.014000,192.000000,0.000000,0.000000,0.000000,0.000000,0.000000,0.000000,0.000000,0.000000,0.000000,1763133117.217705,0.000000
192.000000,22834.452729,34534.719233,21647.686857,11590.318273,33957.440729,31882.282422,17891.453849,17015.958371,35374.407217,33490.959822,16199.270332,2078.466365,20137.826519,30480.224547,18672.312042,23869.852587,0.020000,-0.018000,1.014000,192.000000,0.000000,0.000000,0.000000,0.000000,0.000000,0.000000,0.000000,0.000000,0.000000,1763133117.217714,0.000000
194.000000,22793.347871,34451.950723,21607.431365,11577.913055,33754.643351,31769.450816,17831.573526,16898.119974,35314.191617,33465.165909,16183.065317,2088.524650,20108.590437,30459.459777,18601.077032,23743.587583,0.020000,-0.018000,1.014000,192.000000,0.000000,0.000000,0.000000,0.000000,0.000000,0.000000,0.000000,0.000000,0.000000,1763133117.217723,0.000000
196.000000,22838.520746,34534.071032,21646.859842,11592.240523,33913.161923,31876.180396,17891.945588,17031.559888,35248.119861,33454.638237,16186.596893,2088.099967,20096.229922,30454.184765,18562.833197,23721.951094,0.020000,-0.018000,1.014000,192.000000,0.000000,0.000000,0.000000,0.000000,0.000000,0.000000,0.000000,0.000000,0.000000,1763133117.217732,0.000000
198.000000,22814.157345,34499.247014,21629.090205,11581.243465,33863.742216,31820.658662,17862.821265,16958.290870,35387.572394,33487.852930,16194.665872,2087.451766,20143.772083,30474.658963,18666.969975,23856.061561,0.020000,-0.016000,1.014000,192.000000,0.000000,80.000000,127.500000,64.000000,15.500000,88.000000,0.000000,0.000000,0.000000,1763133117.217741,0.000000
200.000000,22807.138897,34471.709665,21626.139775,11582.897494,33768.903764,31788.852130,17853.008849,16955.139274,35214.301671,33432.398252,16179.734907,2096.347761,20073.185274,30433.777622,18527.897421,23644.077616,0.020000,-0.016000,1.014000,192.000000,0.000000,0.000000,0.000000,0.000000,0.000000,0.000000,0.000000,0.000000,0.000000,1763133117.217751,0.000000
202.000000,22842.946391,34546.833878,21658.728618,11592.575800,33959.698255,31877.074465,17895.343053,17032.208089,35375.971839,33489.171682,16211.496736,2089.396368,20151.572842,30476.335344,18665.807684,23867.907985,0.020000,-0.016000,1.014000,192.000000,0.000000,0.000000,0.000000,0.000000,0.000000,0.000000,0.000000,0.000000,0.000000,1763133117.217760,0.000000
204.000000,22802.377975,34459.885592,21618.316664,11579.030642,33754.621000,31771.261307,17835.261564,16913.006236,35325.859228,33468.675133,16201.281989,2096.638333,20119.811013,30459.392722,18604.809774,23741.665333,0.020000,-0.016000,1.014000,192.000000,0.000000,0.000000,0.000000,0.000000,0.000000,0.000000,0.000000,0.000000,0.000000,1763133117.217768,0.000000
206.000000,22849.942487,34548.487907,21657.007534,11597.940218,33915.665318,31872.537061,17897.779393,17048.413104,35257.485242,33453.118319,16201.773727,2097.040665,20114.491298,30454.117710,18563.570805,23725.728539,0.020000,-0.016000,1.014000,192.000000,0.000000,0.000000,0.000000,0.000000,0.000000,0.000000,0.000000,0.000000,0.000000,1763133117.697272,0.000000
208.000000,22833.223383,34510.735811,21638.567345,11588.708948,33878.136740,31832.326273,17867.582186,16973.288891,35402.525711,33496.726572,16212.301399,2096.772444,20147.102493,30483.778475,18665.807684,23857.156796,0.022000,-0.018000,1.008000,192.000000,0.000000,88.000000,127.500000,56.000000,15.500000,64.000000,0.000000,0.000000,0.000000,1763133117.697371,0.000000
210.000000,22815.185525,34486.327706,21627.749101,11590.050052,33769.015523,31791.377877,17855.512244,16962.984736,35228.316215,33442.411833,16191.089593,2102.561546,20086.216341,30445.378178,18526.533964,23645.530480,0.022000,-0.018000,1.008000,192.000000,0.000000,0.000000,0.000000,0.000000,0.000000,0.000000,0.000000,0.000000,0.000000,1763133117.697456,0.000000
212.000000,22845.673304,34542.899971,21652.224261,11595.012140,33953.886801,31876.605079,17895.275998,17030.151728,35376.508281,33492.815017,16211.966123,2090.201031,20149.360019,30483.376143,18661.203225,23870.545491,0.022000,-0.018000,1.008000,192.000000,0.000000,0.000000,0.000000,0.000000,0.000000,0.000000,0.000000,0.000000,0.000000,1763133117.697541,0.000000
214.000000,22803.473211,34461.383159,21612.639321,11583.880971,33753.391654,31770.546051,17836.200337,16912.603904,35317.678489,33468.071636,16194.084727,2100.035799,20116.547658,30463.751312,18604.698015,23747.387379,0.022000,-0.018000,1.008000,192.000000,0.000000,0.000000,0.000000,0.000000,0.000000,0.000000,0.000000,0.000000,0.000000,1763133117.697627,0.000000
216.000000,22845.896822,34548.532611,21651.665467,11597.269666,33916.581740,31864.535137,17895.275998,17042.400484,35247.628122,33455.375845,16194.040024,2095.543098,20100.543809,30457.850451,18565.694221,23724.521545,0.022000,-0.018000,1.008000,192.000000,0.000000,0.000000,0.000000,0.000000,0.000000,0.000000,0.000000,0.000000,0.000000,1763133117.697711,0.000000
218.000000,22825.467327,34511.875750,21635.572211,11588.708948,33881.511853,31824.771383,17866.911634,16971.031364,35402.883339,33500.369906,16205.662931,2095.811319,20154.389161,30488.271175,18673.876664,23856.016857,0.018000,-0.012000,1.008000,192.000000,0.000000,72.000000,127.500000,80.000000,15.500000,64.000000,0.000000,0.000000,0.000000,1763133117.697763,0.000000
220.000000,22813.419737,34486.260651,21624.418691,11589.491259,33774.379942,31783.308897,17852.271241,16958.782608,35226.550427,33448.647970,16187.692128,2103.276801,20091.290187,30452.083701,18532.703046,23650.492567,0.018000,-0.012000,1.008000,192.000000,0.000000,0.000000,0.000000,0.000000,0.000000,0.000000,0.000000,0.000000,0.000000,1763133117.697786,0.000000
222.000000,22851.350647,34557.339198,21654.280621,11598.834288,33954.065615,31879.913137,17896.237123,17033.303324,35381.068037,33500.548720,16210.557963,2092.056226,20155.707914,30490.863978,18664.868911,23877.407477,0.018000,-0.012000,1.008000,192.000000,0.000000,0.000000,0.000000,0.000000,0.000000,0.000000,0.000000,0.000000,0.000000,1763133117.697808,0.000000
224.000000,22809.262313,34474.481282,21615.388586,11584.193895,33756.431491,31760.778339,17837.317924,16915.241410,35329.234341,33480.722723,16199.382090,2104.684961,20126.918867,30477.899966,18604.027462,23752.170652,0.018000,-0.012000,1.008000,192.000000,0.000000,0.000000,0.000000,0.000000,0.000000,0.000000,0.000000,0.000000,0.000000,1763133117.697831,0.000000
226.000000,22854.278726,34551.952428,21653.967697,11597.001445,33915.642967,31849.134785,17896.728861,17045.440322,35256.255896,33465.858813,16200.007939,2100.348723,20119.162812,30466.344114,18566.498884,23726.443795,0.018000,-0.012000,1.008000,192.000000,0.000000,0.000000,0.000000,0.000000,0.000000,0.000000,0.000000,0.000000,0.000000,1763133117.697854,0.000000
228.000000,22830.295304,34510.266424,21635.169880,11586.943160,33877.488539,31825.084308,17867.224558,16971.523103,35404.582072,33507.477761,16210.043873,2098.694694,20159.932394,30497.345984,18673.966071,23861.269517,0.022000,-0.010000,1.004000,192.000000,0.000000,88.000000,127.500000,88.000000,15.500000,48.000000,0.000000,0.000000,0.000000,1763133117.697876,0.000000
230.000000,22822.583952,34495.223700,21626.095072,11588.306616,33773.463520,31784.851168,17854.774637,16963.007088,35230.461983,33452.738339,16191.670739,2105.914307,20095.358204,30451.413149,18528.858546,23648.212689,0.022000,-0.010000,1.004000,192.000000,0.000000,0.000000,0.000000,0.000000,0.000000,0.000000,0.000000,0.000000,0.000000,1763133117.697899,0.000000
232.000000,22848.131996,34564.290591,21651.397246,11594.632160,33955.183203,31875.331029,17896.661806,17031.671647,35384.711371,33501.442790,16214.983608,2096.146595,20156.043190,30489.522873,18663.237234,23869.673773,0.022000,-0.010000,1.004000,192.000000,0.000000,0.000000,0.000000,0.000000,0.000000,0.000000,0.000000,0.000000,0.000000,1763133117.697921,0.000000
234.000000,22805.842496,34468.759235,21612.438156,11580.707023,33752.341122,31761.806519,17835.574488,16911.016930,35327.468553,33471.692618,16198.800945,2098.202956,20123.029664,30466.254707,18609.503640,23751.813024,0.022000,-0.010000,1.004000,192.000000,0.000000,0.000000,0.000000,0.000000,0.000000,0.000000,0.000000,0.000000,0.000000,1763133117.697944,0.000000
236.000000,22852.803511,34542.810564,21651.240784,11596.040320,33915.754725,31864.870413,17896.103012,17045.485025,35256.211192,33460.717912,16200.522029,2097.174775,20109.976245,30464.980658,18565.895386,23725.125042,0.022000,-0.010000,1.004000,192.000000,0.000000,0.000000,0.000000,0.000000,0.000000,0.000000,0.000000,0.000000,0.000000,1763133117.697966,0.000000
238.000000,22826.853135,34511.495770,21629.380778,11587.993692,33876.661524,31826.648930,17865.347012,16969.824370,35406.169046,33505.421401,16210.870887,2097.532403,20155.842025,30490.416943,18678.458772,23859.995468,0.018000,-0.010000,1.006000,192.000000,0.000000,72.000000,127.500000,88.000000,15.500000,56.000000,0.000000,0.000000,0.000000,1763133117.697989,0.000000
240.000000,22810.849286,34486.998258,21616.819098,11586.540829,33761.661799,31782.928918,17851.220709,16955.385143,35220.738974,33446.569258,16184.406422,2099.208784,20085.344623,30446.540469,18531.138424,23656.460483,0.018000,-0.010000,1.006000,192.000000,0.000000,0.000000,0.000000,0.000000,0.000000,0.000000,0.000000,0.000000,0.000000,1763133117.698012,0.000000
242.000000,22843.952220,34553.293533,21646.770435,11594.498050,33952.970380,31873.766407,17895.030128,17030.643467,35372.060284,33497.173607,16208.769823,2087.764691,20151.550490,30488.002954,18661.672611,23879.173264,0.018000,-0.010000,1.006000,192.000000,0.000000,0.000000,0.000000,0.000000,0.000000,0.000000,0.000000,0.000000,0.000000,1763133117.698034,0.000000
244.000000,22804.903722,34464.847680,21609.465374,11582.003424,33757.057340,31760.554822,17835.730950,16911.933352,35323.489943,33474.978325,16196.789288,2096.884203,20130.539850,30467.975791,18602.574599,23759.144397,0.018000,-0.010000,1.006000,192.000000,0.000000,0.000000,0.000000,0.000000,0.000000,0.000000,0.000000,0.000000,0.000000,1763133117.698057,0.000000
246.000000,22855.463368,34547.504431,21647.038656,11596.040320,33917.006423,31859.595401,17893.577265,17040.210013,35255.875916,33461.790796,16197.169268,2095.923078,20102.041376,30461.739655,18566.923567,23723.918047,0.018000,-0.010000,1.006000,192.000000,0.000000,0.000000,0.000000,0.000000,0.000000,0.000000,0.000000,0.000000,0.000000,1763133117.698079,0.000000
248.000000,22825.757900,34513.954462,21626.989141,11588.194858,33881.243632,31827.028910,17864.698811,16966.069277,35403.531540,33503.655613,16205.215896,2092.883240,20152.779836,30489.813446,18676.290652,23870.657250,0.016000,-0.009000,1.006000,192.000000,0.000000,56.000000,127.500000,96.000000,15.500000,56.000000,0.000000,0.000000,0.000000,1763133117.698101,0.000000
250.000000,22819.410005,34487.489997,21617.087319,11591.391157,33772.323581,31799.111581,17851.958317,16955.251033,35228.964416,33451.844269,16184.004090,2099.454653,20087.311576,30453.693027,18532.278363,23658.606250,0.016000,-0.009000,1.006000,192.000000,0.000000,0.000000,0.000000,0.000000,0.000000,0.000000,0.000000,0.000000,0.000000,1763133117.698124,0.000000
252.000000,22845.695656,34552.265352,21643.037694,11597.336721,33957.932467,31887.356268,17894.381928,17028.073016,35383.124397,33507.656575,16208.523954,2092.592668,20154.545624,30496.541321,18659.929175,23869.450256,0.016000,-0.009000,1.006000,192.000000,0.000000,0.000000,0.000000,0.000000,0.000000,0.000000,0.000000,0.000000,0.000000,1763133117.698147,0.000000
254.000000,22793.973719,34465.160604,21603.184533,11580.572913,33754.621000,31770.233127,17832.042912,16902.813840,35321.835914,33474.866566,16185.524009,2093.419682,20113.686635,30466.992315,18604.407442,23759.010286,0.016000,-0.009000,1.006000,192.000000,0.000000,0.000000,0.000000,0.000000,0.000000,0.000000,0.000000,0.000000,0.000000,1763133117.698169,0.000000
0.000000,22836.173813,34541.067128,21644.043522,11593.715739,33912.357260,31867.060884,17891.230332,17030.464653,35246.577590,33462.438996,16186.999224,2089.955162,20099.180353,30461.002047,18562.050886,23723.694530,0.016000,-0.009000,1.006000,192.000000,0.000000,0.000000,0.000000,0.000000,0.000000,0.000000,0.000000,0.000000,0.000000,1763133117.698192,0.000000
2.000000,22819.298246,34508.880616,21628.330246,11587.054919,33882.160054,31832.929770,17865.347012,16963.699992,35396.915424,33495.854854,16196.074032,2086.021255,20147.683638,30485.767780,18670.099219,23868.846758,0.016000,-0.013500,1.009000,192.000000,0.000000,64.000000,127.500000,56.000000,15.500000,80.000000,0.000000,0.000000,0.000000,1763133117.698214,0.000000
4.000000,22808.368243,34480.449197,21617.891981,11585.847924,33770.378979,31784.180615,17850.930137,16951.518291,35228.092698,33447.843307,16181.254826,2099.365246,20084.741126,30451.882535,18530.758444,23651.945430,0.016000,-0.013500,1.009000,192.000000,0.000000,0.000000,0.000000,0.000000,0.000000,0.000000,0.000000,0.000000,0.000000,1763133117.698236,0.000000
6.000000,22837.246697,34551.840669,21646.681028,11595.973265,33955.294961,31872.626468,17895.410108,17029.436473,35374.720141,33497.039497,16204.031253,2088.904630,20148.935336,30486.013649,18665.248891,23873.518273,0.016000,-0.013500,1.009000,192.000000,0.000000,0.000000,0.000000,0.000000,0.000000,0.000000,0.000000,0.000000,0.000000,1763133117.698259,0.000000
8.000000,22793.414926,34461.383159,21605.509115,11583.411584,33752.117604,31765.293391,17834.434549,16908.133555,35322.193542,33473.771331,16189.703785,2098.582935,20117.464080,30468.556937,18605.502678,23759.233804,0.016000,-0.013500,1.009000,192.000000,0.000000,0.000000,0.000000,0.000000,0.000000,0.000000,0.000000,0.000000,0.000000,1763133117.698282,0.000000
10.000000,22837.581973,34544.621056,21643.372970,11600.085986,33903.908301,31867.731436,17893.420803,17037.527804,35240.989654,33461.589630,16187.133335,2094.671380,20102.376652,30461.426730,18556.261785,23728.164879,0.016000,-0.013500,1.009000,192.000000,0.000000,0.000000,0.000000,0.000000,0.000000,0.000000,0.000000,0.000000,0.000000,1763133117.698304,0.000000
12.000000,22815.297284,34512.747468,21627.145604,11590.988826,33873.465225,31826.336005,17865.145846,16965.868111,35392.690944,33503.208578,16197.035157,2093.643200,20137.267725,30492.450952,18668.311080,23867.505654,0.018000,-0.013750,1.009500,192.000000,0.000000,80.000000,127.500000,72.000000,15.500000,72.000000,0.000000,0.000000,0.000000,1763133117.698327,0.000000
14.000000,22805.663682,34487.534700,21616.282656,11589.468907,33765.103968,31790.729677,17850.639564,16951.875919,35218.235578,33446.122223,16177.320919,2099.409950,20075.643966,30456.084663,18525.617543,23658.226270,0.018000,-0.013750,1.009500,192.000000,0.000000,0.000000,0.000000,0.000000,0.000000,0.000000,0.000000,0.000000,0.000000,1763133117.698349,0.000000
16.000000,22842.611115,34555.439300,21647.575098,11599.326026,33959.072406,31887.892710,17897.891152,17033.705656,35370.562717,33497.844159,16203.472460,2091.072749,20139.301734,30493.456780,18659.705658,23870.858415,0.018000,-0.013750,1.009500,192.000000,0.000000,0.000000,0.000000,0.000000,0.000000,0.000000,0.000000,0.000000,0.000000,1763133117.698371,0.000000
18.000000,22796.767687,34464.400645,21606.917275,11584.104488,33753.950447,31764.376970,17836.021523,16908.826460,35322.662928,33476.610002,16193.347119,2100.326371,20108.679844,30475.217757,18606.575561,23759.859653,0.018000,-0.013750,1.009500,192.000000,0.000000,0.000000,0.000000,0.000000,0.000000,0.000000,0.000000,0.000000,0.000000,1763133117.698394,0.000000
20.000000,22840.644162,34542.609399,21648.379761,11599.974227,33902.723658,31872.648820,17895.298349,17038.332467,35241.593151,33455.442900,16189.860247,2094.917249,20090.709041,30462.365504,18557.826407,23724.923876,0.018000,-0.013750,1.009500,192.000000,0.000000,0.000000,0.000000,0.000000,0.000000,0.000000,0.000000,0.000000,0.000000,1763133117.698416,0.000000
22.000000,22824.953237,34508.746506,21633.068816,11590.295922,33873.219356,31838.338892,17870.242044,16970.830199,35400.514054,33496.637165,16208.099271,2093.933772,20150.187033,30497.301280,18672.244987,23864.622279,0.018000,-0.010875,1.010750,192.000000,0.000000,72.000000,127.500000,96.000000,15.500000,80.000000,0.000000,0.000000,0.000000,1763133117.698440,0.000000
24.000000,22807.720042,34480.046866,21622.630551,11590.385329,33764.008732,31787.756895,17855.400485,16956.234509,35229.232637,33440.333121,16190.329634,2100.348723,20077.342698,30452.776605,18524.723473,23659.209747,0.018000,-0.010875,1.010750,192.000000,0.000000,0.000000,0.000000,0.000000,0.000000,0.000000,0.000000,0.000000,0.000000,1763133117.698462,0.000000
26.000000,22831.949333,34543.704634,21646.748083,11594.878029,33949.483508,31879.868433,17896.572399,17026.374284,35372.820243,33492.010354,16210.043873,2089.396368,20140.844004,30488.517045,18661.493797,23868.802055,0.018000,-0.010875,1.010750,192.000000,0.000000,0.000000,0.000000,0.000000,0.000000,0.000000,0.000000,0.000000,0.000000,1763133117.698485,0.000000
28.000000,22785.614167,34452.733034,21606.514943,11579.835305,33754.464537,31769.875499,17833.942811,16899.997520,35318.259635,33464.540060,16185.769878,2090.111624,20102.823687,30464.175995,18609.816564,23764.642926,0.018000,-0.010875,1.010750,192.000000,0.000000,0.000000,0.000000,0.000000,0.000000,0.000000,0.000000,0.000000,0.000000,1763133117.698507,0.000000
30.000000,22834.117452,34540.865963,21645.786958,11595.861506,33904.556501,31861.070616,17892.839657,17031.314019,35238.642721,33450.771386,16185.635768,2088.144671,20086.685727,30457.559879,18557.871110,23726.846126,0.018000,-0.010875,1.010750,192.000000,0.000000,0.000000,0.000000,0.000000,0.000000,0.000000,0.000000,0.000000,0.000000,1763133117.698529,0.000000
32.000000,22813.710310,34503.091514,21629.336075,11585.423241,33873.375818,31820.010462,17865.615233,16962.090667,35395.350801,33490.870415,16198.912704,2087.004732,20144.152062,30486.103056,18674.301347,23867.237433,0.020000,-0.011437,1.007375,192.000000,0.000000,88.000000,127.500000,80.000000,15.500000,48.000000,0.000000,0.000000,0.000000,1763133117.698552,0.000000
34.000000,22801.685071,34472.871956,21619.233086,11585.020910,33761.214764,31775.508139,17847.465616,16942.957573,35219.531980,33437.762670,16177.946768,2094.246697,20077.432105,30443.612390,18531.786624,23651.766616,0.020000,-0.011437,1.007375,192.000000,0.000000,0.000000,0.000000,0.000000,0.000000,0.000000,0.000000,0.000000,0.000000,1763133117.698575,0.000000
36.000000,22833.983342,34546.498602,21649.095017,11594.408643,33950.690502,31874.414608,17893.219637,17023.177984,35363.924249,33486.467121,16199.426794,2083.227287,20138.430016,30485.812484,18660.331507,23867.438599,0.020000,-0.011437,1.007375,192.000000,0.000000,0.000000,0.000000,0.000000,0.000000,0.000000,0.000000,0.000000,0.000000,1763133117.698598,0.000000
38.000000,22793.660795,34465.719398,21610.895885,11582.249294,33757.705540,31769.428464,17834.546308,16901.919770,35320.070126,33470.977363,16186.485134,2094.447862,20114.133670,30470.076855,18607.559038,23754.227013,0.020000,-0.011437,1.007375,192.000000,0.000000,0.000000,0.000000,0.000000,0.000000,0.000000,0.000000,0.000000,0.000000,1763133117.698620,0.000000
40.000000,22836.240868,34543.212896,21645.630496,11598.610771,33904.534150,31858.343704,17892.906713,17031.246964,35238.933294,33455.688769,16184.898160,2092.391502,20096.274626,30465.025361,18554.808921,23714.820887,0.020000,-0.011437,1.007375,192.000000,0.000000,0.000000,0.000000,0.000000,0.000000,0.000000,0.000000,0.000000,0.000000,1763133117.698642,0.000000
42.000000,22811.095156,34505.751372,21625.916258,11586.652587,33875.901565,31815.473058,17864.207073,16959.251995,35389.204072,33494.334935,16192.743622,2087.585877,20141.045170,30490.774571,18669.339260,23871.752485,0.020000,-0.011719,1.004688,192.000000,0.000000,80.000000,127.500000,80.000000,15.500000,40.000000,0.000000,0.000000,0.000000,1763133117.698665,0.000000
44.000000,22800.299263,34482.326744,21620.238915,11586.183201,33756.923229,31770.791921,17849.678439,16947.427922,35216.715660,33440.333121,16176.449201,2094.894897,20078.661451,30452.240163,18531.250183,23654.515881,0.020000,-0.011719,1.004688,192.000000,0.000000,0.000000,0.000000,0.000000,0.000000,0.000000,0.000000,0.000000,0.000000,1763133117.698688,0.000000
46.000000,22835.972647,34553.472346,21649.497348,11595.034491,33953.462118,31874.906346,17895.991253,17028.900031,35368.238135,33496.391296,16207.875753,2090.737473,20147.102493,30493.233263,18660.532672,23862.945898,0.020000,-0.011719,1.004688,192.000000,0.000000,0.000000,0.000000,0.000000,0.000000,0.000000,0.000000,0.000000,0.000000,1763133117.698710,0.000000
48.000000,22788.162266,34458.142156,21607.699586,11579.254160,33745.970875,31762.007685,17832.869927,16902.746785,35317.924359,33470.262107,16188.854419,2092.145633,20113.865449,30474.010762,18603.111041,23763.771208,0.020000,-0.011719,1.004688,192.000000,0.000000,0.000000,0.000000,0.000000,0.000000,0.000000,0.000000,0.000000,0.000000,1763133117.698732,0.000000
50.000000,22829.736510,34542.989378,21646.256345,11592.017006,33896.085190,31857.874317,17891.811477,17032.006923,35231.892494,33450.726682,16187.379204,2085.328351,20089.971434,30456.419940,18552.752561,23723.962751,0.020000,-0.011719,1.004688,192.000000,0.000000,0.000000,0.000000,0.000000,0.000000,0.000000,0.000000,0.000000,0.000000,1763133117.698754,0.000000
52.000000,22809.061147,34512.591006,21632.644133,11582.875142,33875.499234,31818.758764,17866.688116,16965.421076,35388.958202,33495.296060,16199.247980,2083.808432,20143.973248,30488.673507,18677.408240,23868.064447,0.021000,-0.012859,1.005344,192.000000,0.000000,88.000000,127.500000,72.000000,15.500000,56.000000,0.000000,0.000000,0.000000,1763133117.698777,0.000000
54.000000,22803.696728,34484.539567,21619.255438,11583.903323,33759.761901,31782.615993,17850.348991,16949.461931,35216.961529,33446.256333,16181.523047,2097.398293,20088.496219,30451.457852,18534.871165,23649.576145,0.021000,-0.012859,1.005344,192.000000,0.000000,0.000000,0.000000,0.000000,0.000000,0.000000,0.000000,0.000000,0.000000,1763133117.698799,0.000000
56.000000,22836.531441,34552.779442,21651.643115,11590.094756,33949.081176,31874.995753,17897.734689,17031.917516,35362.069054,33495.094895,16207.674588,2087.027083,20137.982981,30492.205082,18660.487969,23870.500788,0.021000,-0.012859,1.005344,192.000000,0.000000,0.000000,0.000000,0.000000,0.000000,0.000000,0.000000,0.000000,0.000000,1763133117.698822,0.000000
58.000000,22794.085478,34463.216002,21611.074699,11575.722584,33749.435395,31759.951324,17836.334447,16909.631122,35324.831048,33474.821863,16198.711538,2096.794796,20114.133670,30473.966059,18610.330654,23758.339734,0.021000,-0.012859,1.005344,192.000000,0.000000,0.000000,0.000000,0.000000,0.000000,0.000000,0.000000,0.000000,0.000000,1763133117.698845,0.000000
60.000000,22829.781214,34542.497640,21647.418636,11591.033529,33896.800446,31854.074520,17894.270169,17036.879603,35235.714642,33453.855926,16194.084727,2092.682075,20089.859675,30461.672600,18557.781703,23718.911257,0.021000,-0.012859,1.005344,192.000000,0.000000,0.000000,0.000000,0.000000,0.000000,0.000000,0.000000,0.000000,0.000000,1763133117.698867,0.000000
62.000000,22809.485830,34518.447163,21630.274848,11582.338701,33875.029847,31822.893837,17869.437381,16969.734963,35395.551967,33497.598290,16206.400538,2091.072749,20144.219118,30489.545225,18674.368402,23864.845796,0.021000,-0.012859,1.005344,192.000000,0.000000,0.000000,0.000000,0.000000,0.000000,0.000000,0.000000,0.000000,0.000000,1763133117.698890,0.000000
64.000000,22799.718118,34483.489035,21618.182554,11580.639968,33756.744415,31771.529528,17849.991363,16945.103341,35221.051898,33441.629522,16184.272311,2094.783139,20078.504989,30448.686236,18529.462043,23656.885166,0.016000,-0.008000,1.010000,192.000000,0.000000,64.000000,127.500000,96.000000,15.500000,72.000000,0.000000,0.000000,0.000000,1763133117.698912,0.000000
66.000000,22831.323484,34553.025312,21648.022133,11592.911076,33957.396025,31872.537061,17897.689986,17028.095368,35361.912592,33492.010354,16207.004035,2086.378883,20141.201632,30485.924242,18659.504492,23868.824407,0.016000,-0.008000,1.010000,192.000000,0.000000,0.000000,0.000000,0.000000,0.000000,0.000000,0.000000,0.000000,0.000000,1763133117.698949,0.000000
68.000000,22788.229321,34462.858374,21610.784127,11580.282340,33759.158404,31763.505252,17837.608497,16906.323064,35323.668757,33472.698447,16194.196486,2096.526575,20113.977207,30472.133216,18608.609570,23764.352353,0.016000,-0.008000,1.010000,192.000000,0.000000,0.000000,0.000000,0.000000,0.000000,0.000000,0.000000,0.000000,0.000000,1763133117.698972,0.000000
70.000000,22825.333217,34535.725061,21649.363238,11591.279398,33902.991879,31846.944314,17895.186591,17032.900993,35235.178201,33451.911324,16195.738756,2093.196165,20095.469963,30458.386893,18557.960517,23715.245571,0.016000,-0.008000,1.010000,192.000000,0.000000,0.000000,0.000000,0.000000,0.000000,0.000000,0.000000,0.000000,0.000000,1763133118.178940,0.000000
72.000000,22809.061147,34509.729983,21635.102825,11583.545695,33881.556556,31834.762613,17871.225521,16966.873940,35396.691906,33496.078372,16210.267390,2088.636409,20149.538833,30492.249786,18682.124458,23868.779703,0.016000,-0.008000,1.010000,192.000000,0.000000,0.000000,0.000000,0.000000,0.000000,0.000000,0.000000,0.000000,0.000000,1763133118.178999,0.000000
74.000000,22796.141839,34484.114883,21623.748138,11582.003424,33759.136052,31779.330287,17851.824206,16945.662134,35226.841000,33444.088214,16190.195524,2093.844365,20088.630329,30453.447158,18537.978058,23657.488663,0.022000,-0.020000,1.008000,192.000000,0.000000,88.000000,127.500000,48.000000,15.500000,64.000000,0.000000,0.000000,0.000000,1763133118.179045,0.000000
76.000000,22830.183545,34551.103062,21651.263136,11591.949951,33952.299828,31872.380599,17898.919332,17027.938906,35371.255621,33494.089066,16211.474384,2086.311827,20151.036400,30489.053486,18662.589033,23863.795264,0.022000,-0.020000,1.008000,192.000000,0.000000,0.000000,0.000000,0.000000,0.000000,0.000000,0.000000,0.000000,0.000000,1763133118.179092,0.000000
78.000000,22782.306109,34463.439520,21608.258379,11576.951930,33753.570468,31757.425577,17837.161462,16904.378462,35323.199370,33470.619735,16190.664910,2091.832708,20109.573914,30470.747408,18609.101308,23764.709981,0.022000,-0.020000,1.008000,192.000000,0.000000,0.000000,0.000000,0.000000,0.000000,0.000000,0.000000,0.000000,0.000000,1763133118.179139,0.000000
80.000000,22824.349740,34545.001035,21643.529432,11596.017968,33889.759647,31856.846137,17895.678329,17034.778540,35230.149058,33454.705293,16187.043928,2093.196165,20084.137629,30464.533623,18550.919718,23718.508925,0.022000,-0.020000,1.008000,192.000000,0.000000,0.000000,0.000000,0.000000,0.000000,0.000000,0.000000,0.000000,0.000000,1763133118.179184,0.000000
82.000000,22813.062109,34514.245035,21627.503231,11588.664244,33873.375818,31819.831648,17871.717259,16969.153818,35389.025258,33501.979232,16201.863134,2090.893935,20137.223022,30490.796923,18666.992327,23875.574634,0.022000,-0.020000,1.008000,192.000000,0.000000,0.000000,0.000000,0.000000,0.000000,0.000000,0.000000,0.000000,0.000000,1763133118.179213,0.000000
84.000000,22800.545132,34486.886500,21616.036787,11585.780869,33750.955314,31770.009609,17850.773674,16943.315201,35218.973186,33445.205801,16182.998262,2099.074674,20076.873312,30447.948628,18530.601982,23657.488663,0.022000,-0.018000,1.006000,192.000000,0.000000,88.000000,127.500000,56.000000,15.500000,56.000000,0.000000,0.000000,0.000000,1763133118.179223,0.000000
86.000000,22830.451766,34554.969913,21647.597450,11594.207477,33951.606924,31866.949125,17897.801745,17025.502566,35364.415987,33496.234834,16207.853402,2087.027083,20145.694333,30489.701687,18658.252795,23869.986697,0.022000,-0.018000,1.006000,192.000000,0.000000,0.000000,0.000000,0.000000,0.000000,0.000000,0.000000,0.000000,0.000000,1763133118.179234,0.000000
88.000000,22790.039812,34479.197500,21612.818135,11584.707985,33766.601535,31769.920202,17840.938907,16908.759404,35330.016652,33476.766464,16197.191620,2095.319580,20119.341626,30473.027286,18613.035216,23770.186158,0.022000,-0.018000,1.006000,192.000000,0.000000,0.000000,0.000000,0.000000,0.000000,0.000000,0.000000,0.000000,0.000000,1763133118.179244,0.000000
90.000000,22827.255467,34545.269256,21646.278697,11595.883858,33903.997708,31849.961799,17895.924198,17031.090502,35244.141250,33462.707217,16200.566733,2097.867679,20100.901437,30466.969963,18554.339535,23716.474917,0.022000,-0.018000,1.006000,192.000000,0.000000,0.000000,0.000000,0.000000,0.000000,0.000000,0.000000,0.000000,0.000000,1763133118.179255,0.000000
92.000000,22815.274932,34517.910721,21631.280676,11587.367843,33882.137702,31819.295206,17871.337279,16968.639728,35400.067019,33498.492360,16208.211030,2089.642237,20145.515519,30489.880501,18681.386850,23873.607680,0.022000,-0.018000,1.006000,192.000000,0.000000,0.000000,0.000000,0.000000,0.000000,0.000000,0.000000,0.000000,0.000000,1763133118.179265,0.000000
94.000000,22799.472248,34482.773779,21611.655845,11587.144326,33750.351816,31775.195214,17848.829073,16938.710742,35229.120878,33446.949237,16185.099326,2098.962915,20078.393230,30453.983599,18534.669999,23664.127131,0.020000,-0.012000,1.004000,192.000000,0.000000,80.000000,127.500000,80.000000,15.500000,48.000000,0.000000,0.000000,0.000000,1763133118.179276,0.000000
96.000000,22836.173813,34565.207012,21643.261211,11597.292018,33952.009255,31885.322259,17898.181724,17026.128414,35366.852327,33500.459313,16204.210067,2089.731644,20135.837213,30497.033059,18658.655126,23874.680564,0.020000,-0.012000,1.004000,192.000000,0.000000,0.000000,0.000000,0.000000,0.000000,0.000000,0.000000,0.000000,0.000000,1763133118.179286,0.000000
98.000000,22790.263330,34471.799072,21603.788031,11582.182238,33756.364436,31771.797749,17838.368456,16903.506744,35327.468553,33480.745075,16189.502619,2093.553793,20115.608885,30479.710457,18610.956503,23774.142417,0.020000,-0.012000,1.004000,192.000000,0.000000,0.000000,0.000000,0.000000,0.000000,0.000000,0.000000,0.000000,0.000000,1763133118.179297,0.000000
100.000000,22833.245734,34555.439300,21641.428368,11599.504840,33899.169731,31862.434073,17895.588922,17033.906821,35239.045052,33466.238793,16192.944788,2098.337066,20088.652681,30472.334382,18551.769084,23719.782975,0.020000,-0.012000,1.004000,192.000000,0.000000,0.000000,0.000000,0.000000,0.000000,0.000000,0.000000,0.000000,0.000000,1763133118.179307,0.000000
102.000000,22817.375996,34525.845590,21630.453662,11590.027701,33883.523510,31833.510915,17872.432515,16973.601815,35404.179740,33509.891750,16211.764957,2096.615982,20137.982981,30500.855208,18671.350917,23878.346250,0.020000,-0.012000,1.004000,192.000000,0.000000,0.000000,0.000000,0.000000,0.000000,0.000000,0.000000,0.000000,0.000000,1763133118.179318,0.000000
104.000000,22799.896932,34488.249956,21617.132022,11586.362015,33757.839651,31778.123293,17849.834901,16945.908004,35234.775869,33453.855926,16192.765974,2104.237927,20075.711021,30458.319838,18530.758444,23662.115474,0.018000,-0.018000,1.004000,192.000000,0.000000,72.000000,127.500000,56.000000,15.500000,48.000000,0.000000,0.000000,0.000000,1763133118.179328,0.000000
106.000000,22832.753996,34565.877565,21652.648944,11594.900381,33953.193897,31872.939393,17897.488820,17030.084673,35372.172042,33501.711011,16215.654160,2091.497432,20141.134577,30493.412077,18657.157559,23873.250052,0.018000,-0.018000,1.004000,192.000000,0.000000,0.000000,0.000000,0.000000,0.000000,0.000000,0.000000,0.000000,0.000000,1763133118.179339,0.000000
108.000000,22793.861961,34471.463796,21618.406071,11582.472811,33762.064131,31763.415845,17839.195471,16908.178259,35338.376205,33478.331086,16200.700843,2094.961953,20120.101585,30475.105998,18616.544439,23768.308612,0.018000,-0.018000,1.004000,192.000000,0.000000,0.000000,0.000000,0.000000,0.000000,0.000000,0.000000,0.000000,0.000000,1763133118.179350,0.000000
110.000000,22835.480909,34551.170117,21655.241746,11596.822631,33905.182350,31854.543907,17896.550047,17036.030237,35252.925486,33459.712083,16202.824259,2094.604325,20109.328045,30465.137120,18554.428942,23714.686777,0.018000,-0.018000,1.004000,192.000000,0.000000,0.000000,0.000000,0.000000,0.000000,0.000000,0.000000,0.000000,0.000000,1763133118.179361,0.000000
112.000000,22826.830784,34537.155573,21637.762682,11590.742956,33894.587623,31824.905494,17874.220654,16975.009975,35418.529560,33505.600215,16216.481175,2092.369150,20164.492150,30499.469399,18679.621062,23871.305450,0.018000,-0.018000,1.004000,192.000000,0.000000,0.000000,0.000000,0.000000,0.000000,0.000000,0.000000,0.000000,0.000000,1763133118.179371,0.000000
114.000000,22800.187504,34483.690200,21616.930856,11586.339663,33753.883392,31775.262269,17850.952488,16942.354076,35239.626198,33450.838441,16190.776669,2100.907517,20086.842190,30462.544318,18539.341514,23664.730628,0.020000,-0.016000,1.006000,192.000000,0.000000,80.000000,127.500000,64.000000,15.500000,56.000000,0.000000,0.000000,0.000000,1763133118.179382,0.000000
116.000000,22841.471176,34571.666666,21651.844281,11598.543715,33957.865412,31886.752771,17902.875591,17035.873775,35373.133167,33503.499151,16213.664855,2093.777310,20144.509690,30500.162303,18662.276109,23868.600889,0.020000,-0.016000,1.006000,192.000000,0.000000,0.000000,0.000000,0.000000,0.000000,0.000000,0.000000,0.000000,0.000000,1763133118.179393,0.000000
118.000000,22792.207932,34479.331610,21608.995987,11584.596227,33758.666665,31770.881327,17840.335410,16910.748710,35341.974836,33485.014258,16204.120660,2103.053284,20117.844059,30485.700725,18614.264561,23771.370801,0.020000,-0.016000,1.006000,192.000000,0.000000,0.000000,0.000000,0.000000,0.000000,0.000000,0.000000,0.000000,0.000000,1763133118.179404,0.000000
120.000000,22831.658761,34554.701692,21644.915240,11598.096680,33895.079362,31852.956933,17895.834791,17034.398560,35240.989654,33458.058054,16200.410271,2097.308886,20097.459268,30466.612335,18552.372581,23719.738271,0.020000,-0.016000,1.006000,192.000000,0.000000,0.000000,0.000000,0.000000,0.000000,0.000000,0.000000,0.000000,0.000000,1763133118.179415,0.000000
122.000000,22822.516897,34541.536515,21634.566383,11588.843058,33885.334001,31831.074575,17873.773619,16975.188789,35407.130171,33505.309642,16213.687207,2094.425511,20145.716685,30498.307109,18673.563739,23875.954613,0.020000,-0.016000,1.006000,192.000000,0.000000,0.000000,0.000000,0.000000,0.000000,0.000000,0.000000,0.000000,0.000000,1763133118.179426,0.000000
124.000000,22807.585932,34490.149854,21620.685949,11587.233733,33761.773558,31773.228261,17852.852387,16945.393913,35240.654378,33450.659627,16194.241189,2101.555717,20081.231902,30459.638591,18537.352209,23658.159215,0.020000,-0.016000,1.002000,192.000000,0.000000,80.000000,127.500000,64.000000,15.500000,40.000000,0.000000,0.000000,0.000000,1763133118.179436,0.000000
126.000000,22844.913345,34569.207975,21653.051275,11599.393082,33959.742959,31875.711009,17903.322626,17036.074941,35374.898955,33500.682831,16218.783405,2093.866717,20144.308525,30496.831894,18658.945699,23862.476511,0.020000,-0.016000,1.002000,192.000000,0.000000,0.000000,0.000000,0.000000,0.000000,0.000000,0.000000,0.000000,0.000000,1763133118.179447,0.000000
128.000000,22803.182638,34481.387971,21611.275865,11585.557352,33767.093273,31764.488729,17840.804796,16912.827422,35344.500583,33479.739246,16206.512297,2103.410912,20122.336760,30480.291603,18613.482250,23776.221129,0.020000,-0.016000,1.002000,192.000000,0.000000,0.000000,0.000000,0.000000,0.000000,0.000000,0.000000,0.000000,0.000000,1763133118.179457,0.000000
130.000000,22842.052322,34558.702655,21645.943421,11601.360035,33906.411696,31861.338837,17895.432460,17037.952487,35252.724320,33460.248525,16204.590047,2103.030932,20099.493277,30468.154605,18550.919718,23719.112422,0.020000,-0.016000,1.002000,192.000000,0.000000,0.000000,0.000000,0.000000,0.000000,0.000000,0.000000,0.000000,0.000000,1763133118.179468,0.000000
132.000000,22827.501336,34531.902913,21629.403130,11593.045186,33894.274699,31838.294189,17872.208997,16974.920568,35420.340052,33506.494284,16215.877678,2098.337066,20157.652516,30505.236149,18679.397545,23879.620299,0.020000,-0.016000,1.002000,192.000000,0.000000,0.000000,0.000000,0.000000,0.000000,0.000000,0.000000,0.000000,0.000000,1763133118.179478,0.000000
134.000000,22815.252580,34497.414171,21616.103842,11591.301750,33761.773558,31787.153397,17850.684267,16946.131521,35245.080023,33452.492470,16191.089593,2105.824900,20091.692518,30466.254707,18538.469796,23667.256375,0.018000,-0.016000,1.006000,192.000000,0.000000,64.000000,127.500000,64.000000,15.500000,72.000000,0.000000,0.000000,0.000000,1763133118.179489,0.000000
136.000000,22847.394389,34578.461597,21648.580926,11598.208439,33963.140424,31886.484550,17899.992216,17034.420912,35383.325563,33504.393220,16218.828108,2097.308886,20141.492205,30502.620995,18660.935004,23869.070276,0.018000,-0.016000,1.006000,192.000000,0.000000,0.000000,0.000000,0.000000,0.000000,0.000000,0.000000,0.000000,0.000000,1763133118.179499,0.000000
138.000000,22812.369205,34490.060447,21612.058176,11588.127802,33769.753131,31784.202967,17841.989439,16914.459099,35353.128356,33484.500168,16204.970027,2104.126168,20124.773100,30486.818312,18619.450166,23774.611804,0.018000,-0.016000,1.006000,192.000000,0.000000,0.000000,0.000000,0.000000,0.000000,0.000000,0.000000,0.000000,0.000000,1763133118.179510,0.000000
140.000000,22848.914307,34559.484966,21642.411845,11602.030587,33896.778094,31859.215422,17894.873666,17035.694961,35256.568820,33463.534232,16203.226591,2104.327333,20105.260027,30475.485978,18553.870148,23715.603198,0.018000,-0.016000,1.006000,192.000000,0.000000,0.000000,0.000000,0.000000,0.000000,0.000000,0.000000,0.000000,0.000000,1763133118.179521,0.000000
142.000000,22830.161194,34539.658968,21629.783109,11594.699215,33891.480731,31831.208686,17874.108896,16977.043984,35417.702546,33504.415572,16214.961256,2097.822976,20159.619470,30502.844513,18675.776562,23883.107171,0.018000,-0.016000,1.006000,192.000000,0.000000,0.000000,0.000000,0.000000,0.000000,0.000000,0.000000,0.000000,0.000000,1763133118.179531,0.000000
144.000000,22820.304074,34498.487055,21615.098013,11595.190954,33764.947506,31786.907528,17852.517110,16948.366695,35245.907038,33454.370016,16192.363643,2110.250546,20085.635195,30468.936916,18534.602944,23664.440055,0.020000,-0.014000,1.009000,192.000000,0.000000,88.000000,127.500000,80.000000,15.500000,80.000000,0.000000,0.000000,0.000000,1763133118.179542,0.000000
146.000000,22844.421607,34580.115626,21646.882194,11605.629218,33969.421264,31890.284346,17901.333320,17037.863080,35380.688057,33500.504017,16213.530745,2097.577107,20148.734170,30508.588911,18655.212957,23873.138293,0.020000,-0.014000,1.009000,192.000000,0.000000,0.000000,0.000000,0.000000,0.000000,0.000000,0.000000,0.000000,0.000000,1763133118.179552,0.000000
148.000000,22797.348833,34484.539567,21603.855086,11591.167640,33777.464482,31783.711229,17840.246003,16911.195744,35350.222629,33486.221252,16198.152745,2105.221403,20127.120033,30491.981565,18614.666893,23782.859598,0.020000,-0.014000,1.009000,192.000000,0.000000,0.000000,0.000000,0.000000,0.000000,0.000000,0.000000,0.000000,0.000000,1763133118.179563,0.000000
150.000000,22836.687903,34551.840669,21639.506118,11603.326989,33908.468057,31870.324239,17892.862009,17031.515185,35248.052805,33455.018217,16189.770840,2097.063017,20095.604073,30475.374219,18554.518349,23723.403957,0.020000,-0.014000,1.009000,192.000000,0.000000,0.000000,0.000000,0.000000,0.000000,0.000000,0.000000,0.000000,0.000000,1763133118.179573,0.000000
152.000000,22817.890086,34531.031195,21627.235011,11596.152079,33896.487522,31854.499204,17871.761962,16973.400649,35414.327432,33500.906348,16204.724157,2093.509089,20150.790531,30508.723022,18682.392679,23884.738849,0.020000,-0.014000,1.009000,192.000000,0.000000,0.000000,0.000000,0.000000,0.000000,0.000000,0.000000,0.000000,0.000000,1763133118.179584,0.000000
154.000000,22807.340063,34485.433636,21612.035824,11592.374634,33760.208936,31787.891005,17849.253756,16940.431826,35243.738919,33449.720854,16186.999224,2102.494490,20087.937425,30473.004934,18534.915869,23666.429361,0.020000,-0.011000,1.006500,192.000000,0.000000,80.000000,127.500000,96.000000,15.500000,48.000000,0.000000,0.000000,0.000000,1763133118.179595,0.000000
156.000000,22834.206859,34560.379036,21643.998819,11600.935352,33957.239563,31886.775122,17899.880457,17030.352894,35366.964086,33495.854854,16204.522992,2089.955162,20142.028647,30502.330423,18649.937946,23871.327802,0.020000,-0.011000,1.006500,192.000000,0.000000,0.000000,0.000000,0.000000,0.000000,0.000000,0.000000,0.000000,0.000000,1763133118.179605,0.000000
158.000000,22790.643309,34473.989543,21606.246722,11585.602055,33768.657895,31781.587813,17839.284878,16907.172430,35340.387862,33476.341781,16194.531762,2096.280705,20121.397987,30489.478170,18616.589143,23775.505874,0.020000,-0.011000,1.006500,192.000000,0.000000,0.000000,0.000000,0.000000,0.000000,0.000000,0.000000,0.000000,0.000000,1763133118.179615,0.000000
160.000000,22832.753996,34545.381015,21638.969676,11598.789584,33904.020060,31867.999657,17891.990291,17028.900031,35240.252047,33446.882182,16189.547323,2090.916287,20100.677919,30462.231393,18551.277346,23716.430213,0.020000,-0.011000,1.006500,192.000000,0.000000,0.000000,0.000000,0.000000,0.000000,0.000000,0.000000,0.000000,0.000000,1763133118.179626,0.000000
162.000000,22817.823031,34523.431602,21627.793804,11594.319236,33898.610937,31846.050244,17873.795971,16974.562940,35409.812380,33493.597328,16206.601704,2090.871583,20142.363923,30496.966004,18677.341184,23882.056639,0.020000,-0.011000,1.006500,192.000000,0.000000,0.000000,0.000000,0.000000,0.000000,0.000000,0.000000,0.000000,0.000000,1763133118.179636,0.000000
164.000000,22802.780307,34479.555128,21611.097051,11589.424204,33764.567526,31780.470226,17848.046762,16939.157777,35241.436689,33443.440013,16188.183867,2101.622772,20086.618672,30463.103111,18537.620430,23663.545986,0.020000,-0.013500,1.004250,192.000000,0.000000,80.000000,127.500000,64.000000,15.500000,40.000000,0.000000,0.000000,0.000000,1763133118.179647,0.000000
166.000000,22841.873508,34558.836765,21642.680066,11596.420300,33961.285229,31877.119169,17898.606407,17030.464653,35363.812490,33487.316488,16205.081785,2088.614057,20138.027684,30495.177864,18656.822283,23863.795264,0.020000,-0.013500,1.004250,192.000000,0.000000,0.000000,0.000000,0.000000,0.000000,0.000000,0.000000,0.000000,0.000000,1763133118.179658,0.000000
168.000000,22793.951368,34470.435616,21604.011548,11581.958721,33772.748264,31775.530490,17839.240174,16907.060672,35342.399519,33473.816034,16194.509410,2096.258354,20120.056882,30478.011725,18615.158631,23781.026755,0.020000,-0.013500,1.004250,192.000000,0.000000,0.000000,0.000000,0.000000,0.000000,0.000000,0.000000,0.000000,0.000000,1763133118.179668,0.000000
170.000000,22825.199106,34541.603570,21637.963848,11597.761404,33900.041449,31873.140558,17892.750250,17027.000132,35240.542619,33448.893839,16193.235361,2093.978476,20093.435954,30470.479187,18547.656363,23715.849068,0.020000,-0.013500,1.004250,192.000000,0.000000,0.000000,0.000000,0.000000,0.000000,0.000000,0.000000,0.000000,0.000000,1763133118.179679,0.000000
172.000000,22811.050452,34519.922378,21624.262229,11589.133631,33898.901510,31844.239753,17872.410163,16968.885597,35406.034935,33496.748924,16204.299474,2089.552830,20147.750693,30497.882426,18675.955376,23887.666927,0.020000,-0.013500,1.004250,192.000000,0.000000,0.000000,0.000000,0.000000,0.000000,0.000000,0.000000,0.000000,0.000000,1763133118.179690,0.000000
174.000000,22798.824048,34477.543471,21606.112612,11585.803221,33770.758959,31787.399267,17847.085637,16935.089759,35237.748651,33443.395310,16183.042965,2099.789929,20081.723640,30459.549184,18539.408569,23668.351611,0.016000,-0.014750,1.003125,192.000000,0.000000,48.000000,127.500000,64.000000,15.500000,40.000000,0.000000,0.000000,0.000000,1763133118.179700,0.000000
176.000000,22837.179641,34554.813451,21639.349656,11597.113204,33973.556337,31902.220178,17898.561704,17027.357760,35359.275086,33485.349534,16202.109003,2085.529516,20136.016027,30495.088457,18658.230443,23876.848683,0.016000,-0.014750,1.003125,192.000000,0.000000,0.000000,0.000000,0.000000,0.000000,0.000000,0.000000,0.000000,0.000000,1763133118.179710,0.000000
178.000000,22799.204028,34475.889441,21605.889095,11584.193895,33784.684096,31792.987203,17839.396636,16907.127727,35342.488926,33477.928755,16194.129431,2095.654857,20125.376597,30487.712382,18617.617323,23783.932481,0.016000,-0.014750,1.003125,192.000000,0.000000,0.000000,0.000000,0.000000,0.000000,0.000000,0.000000,0.000000,0.000000,1763133118.179721,0.000000
180.000000,22830.585877,34544.263428,21638.522641,11594.095718,33905.361164,31864.021047,17889.263378,17022.507432,35239.134459,33453.341836,16187.692128,2091.609191,20097.280454,30470.702704,18554.495997,23716.318454,0.016000,-0.014750,1.003125,192.000000,0.000000,0.000000,0.000000,0.000000,0.000000,0.000000,0.000000,0.000000,0.000000,1763133118.179731,0.000000
182.000000,22813.397385,34519.989433,21623.859897,11586.697291,33904.310632,31846.027892,17871.247872,16968.282100,35407.599557,33494.983136,16202.757204,2084.926019,20160.714705,30494.663774,18685.119591,23888.538645,0.016000,-0.014750,1.003125,192.000000,0.000000,0.000000,0.000000,0.000000,0.000000,0.000000,0.000000,0.000000,0.000000,1763133118.179742,0.000000
184.000000,22796.454763,34483.801959,21604.637397,11587.189029,33763.382883,31792.763685,17846.839767,16935.805015,35234.105317,33442.635351,16181.098364,2094.134938,20076.582739,30456.665809,18540.906136,23677.448771,0.016000,-0.015375,1.005562,192.000000,0.000000,64.000000,127.500000,64.000000,15.500000,64.000000,0.000000,0.000000,0.000000,1763133118.179752,0.000000
186.000000,22839.370112,34558.345027,21639.796691,11598.901343,33968.102511,31891.401934,17901.467431,17033.370380,35360.012693,33490.132808,16204.612399,2087.943505,20141.402798,30490.551053,18655.682344,23875.820503,0.016000,-0.015375,1.005562,192.000000,0.000000,0.000000,0.000000,0.000000,0.000000,0.000000,0.000000,0.000000,0.000000,1763133118.179763,0.000000
188.000000,22796.387708,34474.637744,21603.139830,11584.283302,33780.414913,31790.215586,17841.654163,16909.921695,35341.997187,33476.006505,16194.911742,2096.571278,20117.307617,30478.324649,18619.852498,23786.458228,0.016000,-0.015375,1.005562,192.000000,0.000000,0.000000,0.000000,0.000000,0.000000,0.000000,0.000000,0.000000,0.000000,1763133118.179774,0.000000
190.000000,22832.619886,34546.051567,21640.601354,11596.733224,33899.616766,31874.280497,17894.247817,17027.894202,35236.943988,33450.793737,16190.553151,2092.592668,20090.373765,30465.539451,18552.283174,23714.731480,0.016000,-0.015375,1.005562,192.000000,0.000000,0.000000,0.000000,0.000000,0.000000,0.000000,0.000000,0.000000,0.000000,1763133118.660141,0.000000
192.000000,22816.392519,34518.581273,21627.480880,11587.077270,33898.454475,31842.362206,17873.639509,16970.204350,35404.850293,33497.486531,16203.494811,2084.568391,20151.349324,30497.457742,18681.342147,23886.482285,0.016000,-0.015375,1.005562,192.000000,0.000000,0.000000,0.000000,0.000000,0.000000,0.000000,0.000000,0.000000,0.000000,1763133118.660243,0.000000
194.000000,22798.779344,34480.695067,21611.655845,11584.439765,33766.333314,31791.534339,17848.247927,16933.480434,35233.010081,33446.546906,16180.204294,2090.782176,20086.819838,30459.459777,18539.945011,23673.716029,0.017000,-0.015688,1.005781,192.000000,0.000000,72.000000,127.500000,64.000000,15.500000,56.000000,0.000000,0.000000,0.000000,1763133118.660324,0.000000
196.000000,22838.878374,34565.966972,21645.541089,11595.526230,33975.746808,31902.935434,17901.333320,17028.140071,35364.013656,33492.949127,16202.064300,2083.070825,20147.437769,30499.156475,18656.576414,23871.238395,0.017000,-0.015688,1.005781,192.000000,0.000000,0.000000,0.000000,0.000000,0.000000,0.000000,0.000000,0.000000,0.000000,1763133118.660406,0.000000
198.000000,22798.600530,34477.878747,21605.375004,11582.405756,33789.646183,31785.409961,17841.005962,16905.339587,35345.573466,33479.716895,16192.251884,2090.513955,20130.964533,30484.381972,18621.372416,23789.743935,0.017000,-0.015688,1.005781,192.000000,0.000000,0.000000,0.000000,0.000000,0.000000,0.000000,0.000000,0.000000,0.000000,1763133118.660487,0.000000
200.000000,22842.924040,34555.908687,21640.266078,11599.773061,33909.809161,31873.632297,17892.705547,17028.877679,35241.950779,33457.029874,16191.134297,2092.324447,20098.487449,30471.976754,18554.987735,23716.273751,0.017000,-0.015688,1.005781,192.000000,0.000000,0.000000,0.000000,0.000000,0.000000,0.000000,0.000000,0.000000,0.000000,1763133118.660569,0.000000
202.000000,22822.919228,34530.830029,21629.760758,11590.295922,33904.288281,31851.548773,17873.013660,16971.590158,35412.114610,33504.594386,16207.629884,2087.809394,20156.758446,30508.097173,18684.739612,23890.438544,0.017000,-0.015688,1.005781,192.000000,0.000000,0.000000,0.000000,0.000000,0.000000,0.000000,0.000000,0.000000,0.000000,1763133118.660650,0.000000
204.000000,22803.964949,34479.331610,21611.611141,11585.758517,33764.031084,31789.187406,17845.498663,16930.217079,35237.793355,33445.004635,16181.835971,2089.351665,20097.079289,30456.777567,18544.571822,23680.376849,0.017000,-0.015688,1.005781,192.000000,0.000000,0.000000,0.000000,0.000000,0.000000,0.000000,0.000000,0.000000,0.000000,1763133118.660706,0.000000
206.000000,22838.185470,34559.395559,21642.344790,11595.839154,33970.851776,31890.843140,17898.159373,17027.514223,35359.029217,33489.842235,16199.449146,2077.371130,20146.029609,30490.774571,18658.833940,23874.032363,0.024000,-0.012000,1.010000,192.000000,0.000000,96.000000,127.500000,80.000000,15.500000,72.000000,0.000000,0.000000,0.000000,1763133118.660727,0.000000
208.000000,22802.400327,34485.858320,21603.564513,11582.919846,33782.761846,31786.460493,17839.374285,16908.647646,35342.265408,33479.627488,16192.408346,2088.882278,20132.439748,30478.145835,18622.869983,23793.074345,0.024000,-0.012000,1.010000,192.000000,0.000000,0.000000,0.000000,0.000000,0.000000,0.000000,0.000000,0.000000,0.000000,1763133118.660748,0.000000
210.000000,22839.727740,34557.316847,21634.633438,11598.968398,33898.409772,31865.026875,17892.191457,17027.760092,35238.486259,33458.482737,16190.597855,2089.955162,20088.652681,30466.433521,18551.187939,23717.212524,0.024000,-0.012000,1.010000,192.000000,0.000000,0.000000,0.000000,0.000000,0.000000,0.000000,0.000000,0.000000,0.000000,1763133118.660769,0.000000
212.000000,22835.212688,34542.296474,21625.089243,11593.715739,33902.500141,31854.745073,17876.947567,16980.463800,35410.237063,33510.294081,16207.853402,2091.117453,20146.566051,30502.576292,18681.275091,23890.416192,0.024000,-0.012000,1.010000,192.000000,0.000000,0.000000,0.000000,0.000000,0.000000,0.000000,0.000000,0.000000,0.000000,1763133118.660789,0.000000
214.000000,22813.084461,34494.351982,21608.101917,11589.066576,33758.532555,31792.607223,17849.387866,16941.169434,35243.962436,33457.722778,16190.351986,2103.097988,20083.556483,30466.813501,18539.363866,23675.772390,0.024000,-0.012000,1.010000,192.000000,0.000000,0.000000,0.000000,0.000000,0.000000,0.000000,0.000000,0.000000,0.000000,1763133118.660810,0.000000
216.000000,22872.897729,34576.204071,21647.888022,11597.649646,33972.550508,31904.433001,17903.166163,17038.019542,35365.667685,33499.140561,16207.339312,2088.703464,20137.290077,30497.882426,18656.375248,23872.735962,0.018000,-0.014000,1.006000,192.000000,0.000000,72.000000,127.500000,72.000000,15.500000,56.000000,0.000000,0.000000,0.000000,1763133118.660830,0.000000
218.000000,22792.990243,34484.427808,21609.554781,11580.036471,33785.511110,31790.103828,17840.201299,16909.944047,35348.613304,33482.488511,16199.493849,2093.509089,20125.644818,30488.025306,18627.876774,23786.480580,0.018000,-0.014000,1.006000,192.000000,0.000000,0.000000,0.000000,0.000000,0.000000,0.000000,0.000000,0.000000,0.000000,1763133118.660851,0.000000
220.000000,22833.402197,34557.450957,21641.294258,11595.459175,33902.209568,31876.403913,17891.856181,17027.491871,35241.593151,33454.414720,16195.761108,2090.357493,20095.000576,30467.662867,18552.596098,23711.579884,0.018000,-0.014000,1.006000,192.000000,0.000000,0.000000,0.000000,0.000000,0.000000,0.000000,0.000000,0.000000,0.000000,1763133118.660872,0.000000
222.000000,22824.483851,34539.368396,21625.245705,11592.486393,33905.003536,31852.018160,17874.220654,16974.540588,35415.109743,33507.969500,16211.988474,2088.815223,20154.210347,30502.330423,18676.469466,23887.175189,0.018000,-0.014000,1.006000,192.000000,0.000000,0.000000,0.000000,0.000000,0.000000,0.000000,0.000000,0.000000,0.000000,1763133118.660892,0.000000
224.000000,22809.307016,34488.115846,21606.067909,11589.580666,33759.158404,31782.414828,17846.191567,16934.665076,35245.683521,33455.264086,16187.513314,2096.884203,20088.540922,30464.108940,18538.738017,23679.035745,0.018000,-0.014000,1.006000,192.000000,0.000000,0.000000,0.000000,0.000000,0.000000,0.000000,0.000000,0.000000,0.000000,1763133118.660913,0.000000
226.000000,22847.930830,34573.097178,21641.406017,11602.343512,33965.129729,31896.520483,17902.137983,17036.991362,35367.567583,33503.208578,16210.557963,2091.363322,20142.721551,30500.162303,18650.966126,23871.283099,0.016000,-0.014000,1.008000,192.000000,0.000000,64.000000,127.500000,72.000000,15.500000,64.000000,0.000000,0.000000,0.000000,1763133118.660934,0.000000
228.000000,22807.429470,34491.088628,21605.509115,11585.780869,33779.654953,31772.535357,17843.375247,16915.733149,35355.877621,33486.288307,16201.751375,2100.125206,20126.069501,30485.097228,18622.087672,23787.776981,0.016000,-0.014000,1.008000,192.000000,0.000000,0.000000,0.000000,0.000000,0.000000,0.000000,0.000000,0.000000,0.000000,1763133118.660954,0.000000
230.000000,22843.527537,34556.243963,21640.891926,11599.460137,33892.955946,31862.367018,17896.080660,17032.632772,35247.225791,33460.427339,16199.739718,2099.164081,20096.788716,30468.869861,18547.276383,23708.920027,0.016000,-0.014000,1.008000,192.000000,0.000000,0.000000,0.000000,0.000000,0.000000,0.000000,0.000000,0.000000,0.000000,1763133118.660975,0.000000
232.000000,22830.429415,34545.895105,21633.292333,11591.458212,33905.271757,31864.535137,17879.115686,16981.201408,35419.691851,33508.483590,16217.308190,2093.553793,20158.121903,30504.498542,18680.358670,23887.376355,0.016000,-0.014000,1.008000,192.000000,0.000000,0.000000,0.000000,0.000000,0.000000,0.000000,0.000000,0.000000,0.000000,1763133118.660996,0.000000
234.000000,22812.995054,34490.932165,21611.119403,11586.250256,33757.437319,31792.361354,17847.264450,16937.570803,35252.836079,33458.259220,16195.291721,2103.634429,20091.960739,30472.960230,18541.800206,23670.162102,0.016000,-0.014000,1.008000,192.000000,0.000000,0.000000,0.000000,0.000000,0.000000,0.000000,0.000000,0.000000,0.000000,1763133118.661016,0.000000
236.000000,22849.182528,34566.458710,21643.283563,11594.945084,33964.816805,31891.446637,17899.589884,17034.376208,35365.175946,33497.710049,16210.960294,2087.563525,20142.430978,30497.368335,18655.056495,23864.488168,0.018000,-0.014000,1.004000,192.000000,0.000000,72.000000,127.500000,72.000000,15.500000,48.000000,0.000000,0.000000,0.000000,1763133118.661037,0.000000
238.000000,22805.104888,34486.193596,21605.911446,11581.131706,33785.019372,31785.387610,17840.961259,16913.967361,35355.430586,33481.348572,16202.556038,2094.693732,20125.868335,30486.036001,18625.351027,23785.586510,0.018000,-0.014000,1.004000,192.000000,0.000000,0.000000,0.000000,0.000000,0.000000,0.000000,0.000000,0.000000,0.000000,1763133118.661058,0.000000
