Sample Index, EXG Channel 0, EXG Channel 1, EXG Channel 2, EXG Channel 3, EXG Channel 4, EXG Channel 5, EXG Channel 6, EXG Channel 7, EXG Channel 8, EXG Channel 9, EXG Channel 10, EXG Channel 11, EXG Channel 12, EXG Channel 13, EXG Channel 14, EXG Channel 15, Accel Channel 0, Accel Channel 1, Accel Channel 2, Not Used, Digital Channel 0 (D11), Digital Channel 1 (D12), Digital Channel 2 (D13), Digital Channel 3 (D17), Not Used, Digital Channel 4 (D18), Analog Channel 0, Analog Channel 1, Analog Channel 2, Timestamp, Marker Channel, Timestamp (Formatted)
100.000000,22097.761583,34439.321988,21529.267315,11559.137590,34101.877702,32466.400560,17874.153599,16526.768092,35556.797452,33682.134292,15689.225875,2339.914720,20086.350451,30557.069845,18811.764575,23936.170213,0.018500,-0.014000,1.010500,192.000000,0.000000,0.000000,0.000000,0.000000,0.000000,0.000000,0.000000,0.000000,0.000000,1763132812.391889,0.000000
102.000000,22047.514862,34331.698338,21486.307262,11539.758627,33921.677938,32347.936314,17807.567752,16383.381651,35591.286193,33679.653249,15681.872151,2337.545435,20088.451515,30551.146633,18826.472023,23910.286893,0.018500,-0.014000,1.010500,192.000000,0.000000,0.000000,0.000000,0.000000,0.000000,0.000000,0.000000,0.000000,0.000000,1763132812.391994,0.000000
104.000000,22086.116324,34385.498987,21515.208067,11552.409715,33994.410514,32412.845780,17850.483102,16490.088879,35427.537313,33634.458021,15669.064602,2343.938034,20036.461358,30526.202086,18700.229371,23759.412618,0.018500,-0.014000,1.010500,192.000000,0.000000,0.000000,0.000000,0.000000,0.000000,0.000000,0.000000,0.000000,0.000000,1763132812.392080,0.000000
106.000000,22090.318452,34385.856615,21516.213896,11547.760552,34064.594992,32427.039138,17848.158520,16462.842102,35644.349235,33704.553092,15687.929474,2335.064392,20117.397024,30570.570299,18887.224065,24004.946530,0.018500,-0.014000,1.010500,192.000000,0.000000,0.000000,0.000000,0.000000,0.000000,0.000000,0.000000,0.000000,0.000000,1763132812.392166,0.000000
108.000000,22053.616888,34324.277559,21485.279081,11542.239671,33864.815100,32329.853753,17801.577485,16379.783020,35470.475015,33640.716510,15664.057811,2345.323842,20047.167843,30528.504315,18732.907621,23763.681801,0.019250,-0.012000,1.010250,192.000000,0.000000,80.000000,127.500000,88.000000,15.500000,72.000000,0.000000,0.000000,0.000000,1763132812.392250,0.000000
110.000000,22107.953979,34423.407545,21532.888297,11562.065668,34111.913635,32471.072074,17875.092372,16528.444472,35561.916001,33687.208138,15687.080108,2341.456990,20092.854809,30562.300153,18819.878259,23930.023483,0.019250,-0.012000,1.010250,192.000000,0.000000,0.000000,0.000000,0.000000,0.000000,0.000000,0.000000,0.000000,0.000000,1763132812.392326,0.000000
112.000000,22057.215519,34323.942283,21488.944768,11544.854825,33926.394156,32351.669055,17808.014787,16382.040546,35596.158874,33688.079856,15679.525218,2343.602758,20090.127896,30559.349723,18830.204765,23908.364643,0.019250,-0.012000,1.010250,192.000000,0.000000,0.000000,0.000000,0.000000,0.000000,0.000000,0.000000,0.000000,0.000000,1763132812.392412,0.000000
114.000000,22081.489513,34398.172426,21517.331483,11558.779962,34000.356078,32407.280196,17848.985535,16491.385280,35425.100973,33641.163545,15671.657404,2345.972043,20034.628515,30531.298283,18699.827039,23756.216318,0.019250,-0.012000,1.010250,192.000000,0.000000,0.000000,0.000000,0.000000,0.000000,0.000000,0.000000,0.000000,0.000000,1763132812.392435,0.000000
116.000000,22087.189208,34386.817740,21516.124489,11552.342660,34066.226669,32422.121754,17843.397599,16468.273576,35648.596066,33708.799924,15691.326939,2335.377316,20117.464080,30571.710237,18881.971405,24001.414955,0.019250,-0.012000,1.010250,192.000000,0.000000,0.000000,0.000000,0.000000,0.000000,0.000000,0.000000,0.000000,0.000000,1763132812.392457,0.000000
118.000000,22049.280649,34306.977309,21481.188712,11542.440837,33862.423463,32323.617616,17792.994415,16380.565331,35465.378817,33645.008045,15666.225930,2345.279139,20039.545898,30527.051452,18728.660790,23764.173539,0.016625,-0.012000,1.011125,192.000000,0.000000,56.000000,127.500000,80.000000,15.500000,80.000000,0.000000,0.000000,0.000000,1763132812.392479,0.000000
120.000000,22099.013281,34419.116011,21527.993265,11556.991822,34102.458847,32461.550231,17860.451980,16524.108234,35546.448594,33676.814577,15683.816753,2333.857397,20084.450553,30552.286572,18812.859811,23927.855364,0.016625,-0.012000,1.011125,192.000000,0.000000,0.000000,0.000000,0.000000,0.000000,0.000000,0.000000,0.000000,0.000000,1763132812.392502,0.000000
122.000000,22066.267975,34329.798440,21489.257692,11541.993802,33929.366938,32351.780814,17791.809772,16384.700404,35589.945089,33678.580365,15676.798305,2336.561958,20085.501085,30550.744301,18827.388445,23907.470573,0.016625,-0.012000,1.011125,192.000000,0.000000,0.000000,0.000000,0.000000,0.000000,0.000000,0.000000,0.000000,0.000000,1763132812.392524,0.000000
124.000000,22078.337917,34389.723467,21513.665797,11556.522436,33996.310412,32409.962405,17829.248944,16491.742908,35423.849276,33637.274341,15667.678793,2348.542493,20037.109558,30528.303150,18696.474278,23753.735275,0.016625,-0.012000,1.011125,192.000000,0.000000,0.000000,0.000000,0.000000,0.000000,0.000000,0.000000,0.000000,0.000000,1763132812.392547,0.000000
126.000000,22074.515769,34388.784693,21515.297474,11550.621575,34066.539594,32428.827277,17824.398616,16470.866379,35643.969255,33705.424810,15692.578637,2337.836008,20113.686635,30570.927926,18877.456352,24003.136039,0.016625,-0.012000,1.011125,192.000000,0.000000,0.000000,0.000000,0.000000,0.000000,0.000000,0.000000,0.000000,0.000000,1763132812.392569,0.000000
128.000000,22049.034780,34312.989928,21482.730983,11542.262023,33864.435120,32321.293035,17773.526046,16385.013328,35465.445872,33641.632931,15669.757506,2347.357851,20038.227145,30525.755051,18725.263324,23763.905318,0.017313,-0.008000,1.006563,192.000000,0.000000,72.000000,127.500000,112.000000,15.500000,40.000000,0.000000,0.000000,0.000000,1763132812.392591,0.000000
130.000000,22099.437964,34420.680633,21530.340198,11559.383459,34112.070097,32464.478310,17842.458825,16531.797234,35546.538001,33679.876766,15688.980006,2337.634842,20084.227036,30553.024179,18809.037663,23926.894239,0.017313,-0.008000,1.006563,192.000000,0.000000,0.000000,0.000000,0.000000,0.000000,0.000000,0.000000,0.000000,0.000000,1763132812.392613,0.000000
132.000000,22064.323373,34331.832448,21487.804829,11542.753761,33931.468002,32347.578686,17773.973080,16386.823819,35591.241490,33687.342249,15681.693337,2344.876807,20085.724602,30554.298229,18824.862698,23904.140163,0.017313,-0.008000,1.006563,192.000000,0.000000,0.000000,0.000000,0.000000,0.000000,0.000000,0.000000,0.000000,0.000000,1763132812.392635,0.000000
134.000000,22088.597368,34380.894528,21510.380091,11556.947119,33990.543662,32401.558149,17813.736834,16490.424155,35413.947453,33637.162583,15666.360040,2345.636767,20030.158166,30525.263312,18694.239103,23753.087074,0.017313,-0.008000,1.006563,192.000000,0.000000,0.000000,0.000000,0.000000,0.000000,0.000000,0.000000,0.000000,0.000000,1763132812.392658,0.000000
136.000000,22076.661536,34392.897414,21510.603608,11552.812046,34059.610553,32425.832144,17814.273276,16473.123905,35634.492115,33706.408287,15689.516448,2339.624147,20106.802297,30569.229194,18878.886864,24002.286673,0.017313,-0.008000,1.006563,192.000000,0.000000,0.000000,0.000000,0.000000,0.000000,0.000000,0.000000,0.000000,0.000000,1763132812.392680,0.000000
138.000000,22050.889975,34319.069602,21477.813599,11544.027811,33856.187326,32324.578741,17764.607699,16380.297110,35467.189308,33644.985693,15667.254110,2348.408383,20033.555631,30525.799754,18727.878479,23762.877138,0.016656,-0.008000,1.009281,192.000000,0.000000,64.000000,127.500000,96.000000,15.500000,80.000000,0.000000,0.000000,0.000000,1763132812.392702,0.000000
140.000000,22096.956920,34421.105316,21531.949524,11560.366936,34111.712469,32468.591031,17838.167290,16523.527089,35540.234809,33680.994353,15683.839105,2335.667889,20080.226073,30550.319618,18812.055148,23923.362663,0.016656,-0.008000,1.009281,192.000000,0.000000,0.000000,0.000000,0.000000,0.000000,0.000000,0.000000,0.000000,0.000000,1763132812.392724,0.000000
142.000000,22038.104777,34319.941320,21491.045832,11543.178444,33937.972359,32353.546602,17772.319051,16379.537151,35590.727400,33684.972964,15680.978081,2338.037174,20090.709041,30552.398330,18832.283477,23903.223741,0.016656,-0.008000,1.009281,192.000000,0.000000,0.000000,0.000000,0.000000,0.000000,0.000000,0.000000,0.000000,0.000000,1763132812.392747,0.000000
144.000000,22080.237815,34376.692400,21513.799907,11558.265872,33997.428000,32400.753486,17810.428776,16484.523295,35420.496514,33638.190763,15666.628261,2348.520142,20034.606163,30523.966911,18702.375138,23754.562289,0.016656,-0.008000,1.009281,192.000000,0.000000,0.000000,0.000000,0.000000,0.000000,0.000000,0.000000,0.000000,0.000000,1763132812.392769,0.000000
146.000000,22095.079374,34391.623365,21514.626922,11555.270738,34061.666913,32423.932245,17810.272313,16472.341594,35643.812793,33709.626938,15690.097593,2344.496828,20115.228905,30570.167967,18880.049155,24010.243894,0.016656,-0.008000,1.009281,192.000000,0.000000,0.000000,0.000000,0.000000,0.000000,0.000000,0.000000,0.000000,0.000000,1763132812.392791,0.000000
148.000000,22064.166911,34320.768335,21481.166361,11546.508854,33855.427367,32322.969416,17764.115961,16384.655700,35469.558593,33653.144080,15671.322128,2357.527895,20042.921012,30532.147650,18728.303162,23767.660411,0.015328,-0.010000,1.007641,192.000000,0.000000,56.000000,127.500000,80.000000,15.500000,56.000000,0.000000,0.000000,0.000000,1763132812.392814,0.000000
150.000000,22088.664423,34416.232636,21527.389768,11560.188122,34098.726106,32458.778615,17836.625020,16522.007170,35542.537039,33684.011839,15685.068451,2340.518217,20080.270777,30554.342932,18809.015311,23925.419024,0.015328,-0.010000,1.007641,192.000000,0.000000,0.000000,0.000000,0.000000,0.000000,0.000000,0.000000,0.000000,0.000000,1763132812.392836,0.000000
152.000000,22045.503205,34320.567169,21487.626015,11544.899529,33927.623502,32351.266724,17773.816618,16376.519665,35582.189033,33680.301449,15675.703070,2334.282080,20076.962719,30550.789005,18826.606134,23907.805849,0.015328,-0.010000,1.007641,192.000000,0.000000,0.000000,0.000000,0.000000,0.000000,0.000000,0.000000,0.000000,0.000000,1763132812.392859,0.000000
154.000000,22071.878263,34378.614650,21516.191544,11559.338756,33991.929471,32407.011975,17814.608552,16486.020861,35414.193322,33635.955588,15665.465971,2341.836970,20026.268962,30524.793926,18694.932007,23745.018094,0.015328,-0.010000,1.007641,192.000000,0.000000,0.000000,0.000000,0.000000,0.000000,0.000000,0.000000,0.000000,0.000000,1763132812.392880,0.000000
156.000000,22079.701374,34392.651545,21517.152669,11556.209511,34065.824338,32427.664987,17814.809718,16472.185132,35638.940112,33707.369412,15694.255018,2342.172246,20111.451460,30574.012467,18878.797457,23999.224484,0.015328,-0.010000,1.007641,192.000000,0.000000,0.000000,0.000000,0.000000,0.000000,0.000000,0.000000,0.000000,0.000000,1763132812.392903,0.000000
158.000000,22053.907460,34320.231893,21484.854398,11546.106523,33853.438062,32317.739107,17766.798170,16385.549770,35470.609125,33646.215039,15673.222026,2353.169305,20040.685837,30532.706443,18727.610258,23767.526301,0.015328,-0.010000,1.007641,192.000000,0.000000,0.000000,0.000000,0.000000,0.000000,0.000000,0.000000,0.000000,0.000000,1763132812.392926,0.000000
160.000000,22097.672176,34415.226807,21535.324637,11563.272663,34101.810646,32458.890374,17842.414122,16533.943002,35540.435975,33680.614374,15696.020805,2345.368546,20083.847056,30556.555755,18808.098889,23923.966160,0.020000,-0.016000,1.008000,192.000000,0.000000,80.000000,127.500000,64.000000,15.500000,64.000000,0.000000,0.000000,0.000000,1763132812.392948,0.000000
162.000000,22056.120283,34322.511771,21491.694032,11545.659488,33928.986958,32344.158869,17778.599891,16384.432183,35588.469873,33681.709609,15685.694299,2344.228607,20087.043355,30552.465385,18826.360265,23905.414212,0.020000,-0.016000,1.008000,192.000000,0.000000,0.000000,0.000000,0.000000,0.000000,0.000000,0.000000,0.000000,0.000000,1763132812.392970,0.000000
164.000000,22066.782065,34373.853728,21512.190582,11561.350413,33985.358058,32405.425001,17815.860250,16481.706975,35414.640357,33630.233542,15666.762372,2343.334537,20031.432215,30526.805583,18691.378080,23745.487481,0.020000,-0.016000,1.008000,192.000000,0.000000,0.000000,0.000000,0.000000,0.000000,0.000000,0.000000,0.000000,0.000000,1763132812.392992,0.000000
166.000000,22085.155199,34398.351240,21516.862096,11557.394154,34060.549326,32431.867115,17815.927305,16470.754620,35635.319130,33708.151723,15687.437735,2339.959424,20111.652626,30569.855043,18874.796495,24006.019414,0.020000,-0.016000,1.008000,192.000000,0.000000,0.000000,0.000000,0.000000,0.000000,0.000000,0.000000,0.000000,0.000000,1763132812.393016,0.000000
168.000000,22058.534272,34322.332957,21487.111925,11549.526340,33861.909373,32328.065613,17769.078048,16388.075517,35475.034770,33656.049807,15672.372660,2357.349081,20047.301954,30537.668531,18728.951362,23762.720676,0.020000,-0.016000,1.008000,192.000000,0.000000,0.000000,0.000000,0.000000,0.000000,0.000000,0.000000,0.000000,0.000000,1763132812.393032,0.000000
170.000000,22097.158086,34435.879819,21537.850384,11565.820761,34102.816475,32462.354894,17845.342200,16541.386132,35550.203687,33690.650307,15699.775898,2356.700880,20091.804277,30564.870604,18807.405985,23920.434585,0.020000,-0.014000,1.008000,192.000000,0.000000,80.000000,127.500000,72.000000,15.500000,64.000000,0.000000,0.000000,0.000000,1763132812.393042,0.000000
172.000000,22050.957030,34341.667216,21491.537570,11545.368915,33925.254217,32350.685579,17781.013880,16390.958892,35595.398914,33687.968098,15689.896427,2353.325767,20093.614768,30561.383732,18823.968628,23912.119736,0.020000,-0.014000,1.008000,192.000000,0.000000,0.000000,0.000000,0.000000,0.000000,0.000000,0.000000,0.000000,0.000000,1763132812.393051,0.000000
174.000000,22094.408821,34390.461074,21512.883486,11561.842151,33985.983907,32406.922568,17816.061415,16487.652539,35419.088354,33642.214077,15667.969366,2348.520142,20036.550765,30531.946484,18697.055423,23746.090978,0.020000,-0.014000,1.008000,192.000000,0.000000,0.000000,0.000000,0.000000,0.000000,0.000000,0.000000,0.000000,0.000000,1763132812.393060,0.000000
176.000000,22086.295138,34392.606842,21514.939846,11560.746915,34065.131434,32435.666911,17816.620209,16470.329937,35641.331749,33713.873770,15688.845895,2343.714517,20121.800318,30582.170854,18880.451486,24009.372176,0.020000,-0.014000,1.008000,192.000000,0.000000,0.000000,0.000000,0.000000,0.000000,0.000000,0.000000,0.000000,0.000000,1763132812.393070,0.000000
178.000000,22045.458501,34320.701280,21484.183846,11549.660450,33860.300047,32328.400889,17767.066391,16379.626558,35477.337000,33654.194612,15669.198712,2357.393784,20052.532262,30541.893010,18729.376045,23771.527263,0.020000,-0.014000,1.008000,192.000000,0.000000,0.000000,0.000000,0.000000,0.000000,0.000000,0.000000,0.000000,0.000000,1763132812.393079,0.000000
180.000000,22099.773240,34436.326854,21533.961181,11564.859636,34109.812571,32470.647391,17840.715389,16535.038237,35547.767347,33687.208138,15692.198657,2348.095459,20091.044318,30564.110644,18810.714043,23923.921457,0.020000,-0.018000,1.004000,192.000000,0.000000,80.000000,127.500000,56.000000,15.500000,48.000000,0.000000,0.000000,0.000000,1763132812.393088,0.000000
182.000000,22075.119266,34346.964579,21491.872846,11545.927709,33936.810069,32363.202556,17775.940034,16393.797564,35605.568958,33695.455932,15690.254055,2357.192619,20098.621559,30565.474101,18834.541003,23911.627997,0.020000,-0.018000,1.004000,192.000000,0.000000,0.000000,0.000000,0.000000,0.000000,0.000000,0.000000,0.000000,0.000000,1763132812.393097,0.000000
184.000000,22084.641109,34398.083019,21511.587085,11559.428163,33987.727343,32408.688356,17813.625075,16485.104440,35425.235084,33643.577533,15671.322128,2353.929264,20043.278640,30534.718100,18700.095260,23748.616725,0.020000,-0.018000,1.004000,192.000000,0.000000,0.000000,0.000000,0.000000,0.000000,0.000000,0.000000,0.000000,0.000000,1763132812.393106,0.000000
186.000000,22072.101780,34397.971260,21510.827125,11555.360145,34067.344256,32440.584295,17813.826241,16465.054925,35644.036310,33715.483095,15689.181172,2338.752429,20120.369806,30579.935679,18880.250320,24008.634568,0.020000,-0.018000,1.004000,192.000000,0.000000,0.000000,0.000000,0.000000,0.000000,0.000000,0.000000,0.000000,0.000000,1763132812.393116,0.000000
188.000000,22045.682018,34322.489419,21478.864131,11544.921880,33862.065835,32331.194858,17763.266595,16374.887988,35474.297163,33654.976923,15667.365869,2349.056584,20048.911279,30539.568429,18730.515984,23773.494217,0.020000,-0.018000,1.004000,192.000000,0.000000,0.000000,0.000000,0.000000,0.000000,0.000000,0.000000,0.000000,0.000000,1763132812.393125,0.000000
190.000000,22109.160973,34440.730147,21529.691998,11562.065668,34109.723164,32472.726103,17837.519090,16529.226783,35545.107489,33689.644479,15690.701090,2343.625110,20089.502047,30567.128130,18810.557581,23922.826221,0.022000,-0.022000,0.994000,192.000000,0.000000,88.000000,127.500000,40.000000,15.500000,8.000000,0.000000,0.000000,0.000000,1763132812.393135,0.000000
192.000000,22063.228138,34342.069547,21487.961291,11542.552595,33938.754670,32359.402759,17774.129543,16389.327215,35595.957708,33694.897138,15682.118020,2349.213046,20093.793582,30563.574202,18835.502128,23915.427794,0.022000,-0.022000,0.994000,192.000000,0.000000,0.000000,0.000000,0.000000,0.000000,0.000000,0.000000,0.000000,0.000000,1763132812.393144,0.000000
194.000000,22092.173647,34395.691382,21510.313035,11554.376668,33985.089837,32411.929358,17815.055587,16487.093745,35417.546084,33645.455080,15669.109305,2351.247054,20033.354465,30530.493621,18696.116650,23750.717789,0.022000,-0.022000,0.994000,192.000000,0.000000,0.000000,0.000000,0.000000,0.000000,0.000000,0.000000,0.000000,0.000000,1763132812.393154,0.000000
196.000000,22078.583786,34394.015002,21511.877657,11549.325174,34062.426873,32433.185867,17817.827203,16465.390201,35636.704938,33703.837836,15690.008186,2337.411325,20114.871277,30572.157272,18876.450524,23999.425650,0.022000,-0.022000,0.994000,192.000000,0.000000,0.000000,0.000000,0.000000,0.000000,0.000000,0.000000,0.000000,0.000000,1763132812.393163,0.000000
198.000000,22031.555716,34315.269806,21475.444314,11538.573985,33855.628533,32319.035509,17764.115961,16366.327270,35462.763663,33642.527001,15660.615642,2346.732002,20039.367084,30525.240961,18730.314819,23762.363048,0.022000,-0.022000,0.994000,192.000000,0.000000,0.000000,0.000000,0.000000,0.000000,0.000000,0.000000,0.000000,0.000000,1763132812.393173,0.000000
200.000000,22102.634263,34425.083926,21526.115719,11559.718735,34103.084696,32469.552156,17838.301401,16522.811833,35533.819858,33681.329630,15681.559227,2337.388973,20085.232864,30556.265182,18807.473041,23918.422928,0.014000,-0.016000,1.002000,192.000000,0.000000,56.000000,127.500000,64.000000,15.500000,40.000000,0.000000,0.000000,0.000000,1763132812.393183,0.000000
202.000000,22053.549833,34344.327074,21486.150800,11544.608956,33933.993749,32366.465910,17775.560054,16386.712061,35593.409609,33689.420961,15678.474686,2346.307319,20095.447611,30562.613077,18833.222250,23911.113907,0.014000,-0.016000,1.002000,192.000000,0.000000,0.000000,0.000000,0.000000,0.000000,0.000000,0.000000,0.000000,0.000000,1763132812.393192,0.000000
204.000000,22074.515769,34394.082057,21508.815468,11557.528264,33984.419284,32411.527027,17812.619247,16485.283254,35415.042688,33644.918638,15664.795418,2351.247054,20033.779148,30533.399347,18697.569513,23744.615763,0.014000,-0.016000,1.002000,192.000000,0.000000,0.000000,0.000000,0.000000,0.000000,0.000000,0.000000,0.000000,0.000000,1763132812.393201,0.000000
206.000000,22062.691696,34390.751647,21509.687186,11552.901453,34059.431739,32436.158649,17816.553154,16470.061716,35635.341482,33707.056487,15688.264750,2343.401592,20110.758556,30573.856005,18884.631262,24004.477144,0.014000,-0.016000,1.002000,192.000000,0.000000,0.000000,0.000000,0.000000,0.000000,0.000000,0.000000,0.000000,0.000000,1763132812.393210,0.000000
208.000000,22036.450748,34307.781971,21472.985622,11541.971450,33849.526507,32323.729375,17765.010031,16370.328232,35462.383683,33642.594056,15662.493189,2346.732002,20036.841337,30529.018406,18732.035903,23771.728429,0.014000,-0.016000,1.002000,192.000000,0.000000,0.000000,0.000000,0.000000,0.000000,0.000000,0.000000,0.000000,0.000000,1763132812.393220,0.000000
210.000000,22094.341766,34420.233598,21524.037006,11559.070535,34102.458847,32472.860214,17838.211994,16521.403673,35531.584684,33678.692124,15680.441639,2337.523083,20078.974376,30557.628638,18804.589665,23917.886486,0.020000,-0.014000,0.998000,192.000000,0.000000,80.000000,127.500000,72.000000,15.500000,24.000000,0.000000,0.000000,0.000000,1763132812.393229,0.000000
212.000000,22036.450748,34338.605027,21483.356831,11540.362124,33930.685691,32357.927544,17772.810790,16379.827723,35588.872205,33688.012801,15676.015994,2338.931243,20088.049184,30560.579069,18830.405930,23915.941884,0.020000,-0.014000,0.998000,192.000000,0.000000,0.000000,0.000000,0.000000,0.000000,0.000000,0.000000,0.000000,0.000000,1763132812.393238,0.000000
214.000000,22083.411763,34391.109275,21508.860172,11555.337793,33983.413456,32413.784553,17811.658122,16483.584521,35413.545121,33637.073176,15666.740020,2346.553188,20031.298105,30533.131127,18695.580208,23748.393208,0.020000,-0.014000,0.998000,192.000000,0.000000,0.000000,0.000000,0.000000,0.000000,0.000000,0.000000,0.000000,0.000000,1763132812.393248,0.000000
216.000000,22092.173647,34407.090772,21511.900009,11551.806218,34070.853480,32440.360777,17815.055587,16474.532065,35649.914819,33719.864037,15692.846858,2349.056584,20115.742995,30582.729647,18884.072469,24004.208923,0.020000,-0.014000,0.998000,192.000000,0.000000,0.000000,0.000000,0.000000,0.000000,0.000000,0.000000,0.000000,0.000000,1763132812.393257,0.000000
218.000000,22056.232042,34326.132754,21478.104172,11541.390305,33853.840393,32332.915942,17764.808865,16376.787886,35490.099846,33658.083815,15669.712802,2357.818467,20052.688724,30542.004769,18731.991199,23771.639022,0.020000,-0.014000,0.998000,192.000000,0.000000,0.000000,0.000000,0.000000,0.000000,0.000000,0.000000,0.000000,0.000000,1763132812.393266,0.000000
220.000000,22095.884037,34423.273435,21527.032140,11559.115238,34100.402486,32475.900051,17839.061360,16523.147109,35546.917981,33681.977830,15690.656387,2341.881674,20089.502047,30563.708313,18803.807354,23918.713500,0.018000,-0.018000,1.004000,192.000000,0.000000,72.000000,127.500000,56.000000,15.500000,48.000000,0.000000,0.000000,0.000000,1763132812.393275,0.000000
222.000000,22055.896766,34332.950036,21485.502599,11541.703229,33936.295979,32364.498957,17775.001261,16379.805372,35600.182188,33685.732923,15683.481477,2339.959424,20088.362108,30563.954182,18835.300962,23912.678529,0.018000,-0.018000,1.004000,192.000000,0.000000,0.000000,0.000000,0.000000,0.000000,0.000000,0.000000,0.000000,0.000000,1763132812.871849,0.000000
224.000000,22080.394278,34382.302687,21508.144916,11555.360145,33980.485377,32421.339443,17810.540534,16476.409611,35420.384755,33637.386100,15667.209407,2341.524046,20033.063892,30532.527629,18696.139001,23745.308667,0.018000,-0.018000,1.004000,192.000000,0.000000,0.000000,0.000000,0.000000,0.000000,0.000000,0.000000,0.000000,0.000000,1763132812.871933,0.000000
226.000000,22078.494379,34394.126760,21512.838782,11549.973375,34069.400617,32446.529859,17816.039063,16467.647727,35646.159726,33708.129371,15690.030538,2335.176150,20114.536001,30577.968726,18880.831466,24008.969844,0.018000,-0.018000,1.004000,192.000000,0.000000,0.000000,0.000000,0.000000,0.000000,0.000000,0.000000,0.000000,0.000000,1763132812.872010,0.000000
228.000000,22045.123225,34311.738230,21479.445276,11538.216357,33852.141661,32331.284264,17765.077086,16370.819970,35480.019209,33652.853507,15670.226892,2347.089630,20044.798558,30536.461536,18733.131138,23774.477693,0.018000,-0.018000,1.004000,192.000000,0.000000,0.000000,0.000000,0.000000,0.000000,0.000000,0.000000,0.000000,0.000000,1763132812.872082,0.000000
230.000000,22118.325188,34434.628121,21528.730873,11554.913110,34103.487027,32472.010848,17839.821320,16522.722426,35540.123050,33680.368505,15684.979044,2332.739810,20081.678937,30557.114548,18805.908418,23917.350044,0.017000,-0.015000,1.004000,192.000000,0.000000,64.000000,127.500000,80.000000,15.500000,48.000000,0.000000,0.000000,0.000000,1763132812.872155,0.000000
232.000000,22045.905536,34337.688606,21485.524951,11538.663392,33937.391214,32363.403721,17775.582406,16379.961834,35603.020859,33687.163435,15681.738041,2334.304432,20090.239655,30559.506185,18833.356361,23918.333521,0.017000,-0.015000,1.004000,192.000000,0.000000,0.000000,0.000000,0.000000,0.000000,0.000000,0.000000,0.000000,0.000000,1763132812.872227,0.000000
234.000000,22077.466199,34377.430007,21508.614303,11553.326136,33984.598098,32413.650443,17810.093499,16475.269672,35421.502342,33634.390966,15671.925625,2342.440467,20038.048332,30528.683129,18697.793030,23747.610897,0.017000,-0.015000,1.004000,192.000000,0.000000,0.000000,0.000000,0.000000,0.000000,0.000000,0.000000,0.000000,0.000000,1763132812.872284,0.000000
236.000000,22095.615816,34407.113124,21514.045777,11550.129837,34076.128492,32447.356873,17814.452090,16469.592329,35645.578581,33710.990394,15694.858515,2338.841836,20123.409644,30576.918194,18883.513675,24010.914446,0.017000,-0.015000,1.004000,192.000000,0.000000,0.000000,0.000000,0.000000,0.000000,0.000000,0.000000,0.000000,0.000000,1763132812.872305,0.000000
238.000000,22059.584804,34326.065698,21480.696974,11538.261061,33870.872423,32336.358110,17762.640746,16373.882159,35487.305878,33653.121728,15670.964500,2349.660081,20054.320401,30537.154441,18738.383798,23777.450475,0.017000,-0.015000,1.004000,192.000000,0.000000,0.000000,0.000000,0.000000,0.000000,0.000000,0.000000,0.000000,0.000000,1763132812.872325,0.000000
240.000000,22109.049214,34433.219961,21532.955352,11555.091924,34116.249873,32480.079827,17841.005962,16533.965353,35549.890763,33680.592022,15689.628206,2342.574578,20098.465097,30559.997923,18807.093061,23917.864134,0.017500,-0.013500,1.005000,192.000000,0.000000,72.000000,127.500000,80.000000,15.500000,56.000000,0.000000,0.000000,0.000000,1763132812.872345,0.000000
242.000000,22068.994888,34347.143393,21490.598797,11539.132779,33943.962627,32363.269611,17777.571711,16394.490468,35608.139409,33689.867996,15693.159782,2349.816543,20107.428146,30559.997923,18833.512823,23918.445279,0.017500,-0.013500,1.005000,192.000000,0.000000,0.000000,0.000000,0.000000,0.000000,0.000000,0.000000,0.000000,0.000000,1763132812.872366,0.000000
244.000000,22106.657577,34380.335734,21507.608474,11552.655584,33986.185072,32406.967271,17809.713520,16475.694355,35426.151505,33630.099431,15676.217160,2346.664947,20040.417616,30527.565542,18693.456792,23747.499138,0.017500,-0.013500,1.005000,192.000000,0.000000,0.000000,0.000000,0.000000,0.000000,0.000000,0.000000,0.000000,0.000000,1763132812.872386,0.000000
246.000000,22072.906443,34401.614595,21510.447146,11551.359183,34072.172233,32447.088653,17814.809718,16466.217216,35645.802098,33700.820351,15690.030538,2335.869054,20121.465042,30573.833653,18882.574902,24007.829905,0.017500,-0.013500,1.005000,192.000000,0.000000,0.000000,0.000000,0.000000,0.000000,0.000000,0.000000,0.000000,0.000000,1763132812.872406,0.000000
248.000000,22042.798643,34314.912178,21476.651308,11537.366991,33859.763606,32335.352282,17761.098476,16367.333098,35485.428332,33645.857411,15668.662270,2344.921511,20051.258212,30534.829859,18737.802653,23774.567100,0.017500,-0.013500,1.005000,192.000000,0.000000,0.000000,0.000000,0.000000,0.000000,0.000000,0.000000,0.000000,0.000000,1763132812.872426,0.000000
250.000000,22101.851952,34428.794316,21525.936905,11555.427200,34103.375268,32473.150787,17837.250869,16525.717560,35543.162887,33674.020609,15684.755526,2337.187807,20085.121105,30555.304057,18804.097927,23918.557038,0.018750,-0.012750,1.007500,192.000000,0.000000,80.000000,127.500000,80.000000,15.500000,72.000000,0.000000,0.000000,0.000000,1763132812.872447,0.000000
252.000000,22062.065847,34350.205582,21486.687241,11538.797502,33942.800336,32362.196727,17777.996394,16391.696500,35606.865359,33687.051676,15685.157858,2343.289833,20091.781925,30560.154386,18836.463253,23920.166364,0.018750,-0.012750,1.007500,192.000000,0.000000,0.000000,0.000000,0.000000,0.000000,0.000000,0.000000,0.000000,0.000000,1763132812.872467,0.000000
254.000000,22090.854894,34387.085961,21507.787288,11553.572005,33971.857604,32406.140257,17812.373377,16484.612701,35424.944511,33635.486202,15673.289081,2348.855418,20031.655733,30533.019368,18697.167182,23743.028789,0.018750,-0.012750,1.007500,192.000000,0.000000,0.000000,0.000000,0.000000,0.000000,0.000000,0.000000,0.000000,0.000000,1763132812.872487,0.000000
0.000000,22107.708109,34415.383269,21511.922361,11556.030697,34060.906954,32442.461841,17818.475404,16479.158876,35646.673816,33711.303319,15697.741890,2349.570674,20119.654551,30578.594575,18880.116210,24007.807554,0.018750,-0.012750,1.007500,192.000000,0.000000,0.000000,0.000000,0.000000,0.000000,0.000000,0.000000,0.000000,0.000000,1763132812.872508,0.000000
2.000000,22056.030876,34330.759565,21474.885520,11550.755686,33851.918143,32336.738090,17764.831217,16375.446782,35478.946326,33657.077987,15668.774029,2359.919531,20052.778131,30546.363359,18736.349790,23774.790618,0.018750,-0.012750,1.007500,192.000000,0.000000,0.000000,0.000000,0.000000,0.000000,0.000000,0.000000,0.000000,0.000000,1763132812.872528,0.000000
4.000000,22095.682871,34436.304502,21526.674512,11568.301805,34100.536597,32481.130359,17840.044837,16526.388112,35538.893704,33688.996278,15681.246302,2347.693127,20080.337832,30569.452711,18799.828744,23916.992416,0.016375,-0.014375,1.009750,192.000000,0.000000,56.000000,127.500000,64.000000,15.500000,80.000000,0.000000,0.000000,0.000000,1763132812.872548,0.000000
6.000000,22057.640202,34347.746891,21488.497733,11547.335869,33934.105508,32369.908079,17777.415249,16389.975415,35604.920757,33694.628918,15683.302663,2349.928302,20096.051108,30574.370095,18834.026913,23921.373358,0.016375,-0.014375,1.009750,192.000000,0.000000,0.000000,0.000000,0.000000,0.000000,0.000000,0.000000,0.000000,0.000000,1763132812.872568,0.000000
8.000000,22093.380641,34398.641813,21511.296512,11560.165770,33974.986848,32410.565902,17812.932171,16485.439716,35425.592712,33644.940990,15673.423192,2353.459877,20037.556593,30539.009635,18699.759984,23748.370856,0.016375,-0.014375,1.009750,192.000000,0.000000,0.000000,0.000000,0.000000,0.000000,0.000000,0.000000,0.000000,0.000000,1763132812.872588,0.000000
10.000000,22103.684795,34418.892493,21516.616227,11556.947119,34066.450187,32450.173193,17820.732930,16480.187056,35654.429871,33714.946653,15697.607779,2348.810714,20121.777966,30586.350630,18883.491323,24009.640397,0.016375,-0.014375,1.009750,192.000000,0.000000,0.000000,0.000000,0.000000,0.000000,0.000000,0.000000,0.000000,0.000000,1763132812.872608,0.000000
12.000000,22069.508978,34333.061794,21481.121657,11545.547729,33854.957981,32335.464041,17768.183979,16378.978357,35494.704305,33660.363693,15673.423192,2357.282025,20055.437989,30548.375016,18738.607316,23779.104504,0.016375,-0.014375,1.009750,192.000000,0.000000,0.000000,0.000000,0.000000,0.000000,0.000000,0.000000,0.000000,0.000000,1763132812.872628,0.000000
14.000000,22118.414595,34449.670845,21529.714349,11565.820761,34098.480236,32485.332487,17843.643468,16533.115987,35541.374748,33687.968098,15689.136468,2349.235397,20084.428201,30567.932793,18803.025043,23916.031291,0.016188,-0.013188,1.012875,192.000000,0.000000,64.000000,127.500000,80.000000,15.500000,96.000000,0.000000,0.000000,0.000000,1763132812.872648,0.000000
16.000000,22070.291289,34359.392149,21485.726116,11547.358221,33934.016101,32374.020800,17779.292796,16388.679014,35603.624356,33700.373316,15686.834238,2352.252883,20099.269760,30569.743284,18833.803395,23920.434585,0.016188,-0.013188,1.012875,192.000000,0.000000,0.000000,0.000000,0.000000,0.000000,0.000000,0.000000,0.000000,0.000000,1763132812.872668,0.000000
18.000000,22065.597423,34386.013077,21504.747451,11557.751782,33966.470834,32406.833161,17813.826241,16475.761411,35413.165142,33643.398719,15666.024764,2345.793229,20029.174689,30530.895952,18694.104993,23752.125949,0.016188,-0.013188,1.012875,192.000000,0.000000,0.000000,0.000000,0.000000,0.000000,0.000000,0.000000,0.000000,0.000000,1763132812.872688,0.000000
20.000000,22084.574054,34410.935272,21513.330521,11553.795523,34060.504623,32442.506545,17823.750415,16475.493190,35644.416290,33712.197389,15695.663177,2342.529874,20114.200725,30578.415761,18878.596291,24010.646225,0.016188,-0.013188,1.012875,192.000000,0.000000,0.000000,0.000000,0.000000,0.000000,0.000000,0.000000,0.000000,0.000000,1763132812.872708,0.000000
22.000000,22055.539138,34331.608931,21479.914663,11541.613822,33853.371007,32329.496125,17771.693202,16374.686822,35485.741256,33653.345246,15675.993642,2351.001185,20049.425369,30540.529554,18738.339095,23777.741048,0.016188,-0.013188,1.012875,192.000000,0.000000,0.000000,0.000000,0.000000,0.000000,0.000000,0.000000,0.000000,0.000000,1763132812.872728,0.000000
24.000000,22113.832487,34445.021682,21531.748358,11561.797447,34092.557024,32469.999191,17848.158520,16531.104330,35540.726547,33686.738752,15692.690395,2344.697993,20086.082230,30562.970705,18799.739337,23907.470573,0.016094,-0.014594,1.010438,192.000000,0.000000,64.000000,127.500000,64.000000,15.500000,64.000000,0.000000,0.000000,0.000000,1763132812.872748,0.000000
26.000000,22067.430266,34347.612780,21492.185771,11545.011287,33933.367900,32364.051922,17786.914740,16394.490468,35607.513560,33695.232415,15692.690395,2349.682432,20099.605036,30567.016371,18834.317486,23918.825259,0.016094,-0.014594,1.010438,192.000000,0.000000,0.000000,0.000000,0.000000,0.000000,0.000000,0.000000,0.000000,0.000000,1763132812.872768,0.000000
28.000000,22107.059909,34397.300708,21511.743547,11556.231863,33968.303677,32398.965347,17819.257715,16481.192885,35427.380851,33639.487164,15681.000433,2351.470572,20041.803425,30535.545115,18692.316853,23735.250382,0.016094,-0.014594,1.010438,192.000000,0.000000,0.000000,0.000000,0.000000,0.000000,0.000000,0.000000,0.000000,0.000000,1763132812.872788,0.000000
30.000000,22100.980234,34412.142266,21515.163364,11552.365011,34064.729102,32426.949731,17825.471500,16473.459181,35648.260790,33710.789229,15697.741890,2339.937072,20122.493222,30576.135883,18877.881036,24005.974711,0.016094,-0.014594,1.010438,192.000000,0.000000,0.000000,0.000000,0.000000,0.000000,0.000000,0.000000,0.000000,0.000000,1763132812.872808,0.000000
32.000000,22055.740303,34323.137620,21479.445276,11542.016154,33849.392396,32322.120049,17770.888540,16371.423468,35489.339887,33650.841850,15676.820657,2347.916645,20055.102713,30533.756975,18739.099054,23778.143379,0.016094,-0.014594,1.010438,192.000000,0.000000,0.000000,0.000000,0.000000,0.000000,0.000000,0.000000,0.000000,0.000000,1763132812.872828,0.000000
34.000000,22118.280484,34440.685444,21530.451957,11561.886854,34093.249928,32471.429702,17848.225575,16528.891507,35538.603132,33680.033228,15690.745794,2338.841836,20089.077364,30556.980438,18803.494430,23912.209143,0.016094,-0.014594,1.010438,192.000000,0.000000,0.000000,0.000000,0.000000,0.000000,0.000000,0.000000,0.000000,0.000000,1763132812.872848,0.000000
36.000000,22064.904519,34357.045216,21491.112887,11546.642965,33933.166734,32366.801186,17787.361775,16391.450631,35610.106362,33692.326688,15682.900331,2349.593025,20101.639044,30565.295287,18838.720779,23922.446242,0.014000,-0.012000,1.006000,192.000000,0.000000,56.000000,127.500000,80.000000,15.500000,56.000000,0.000000,0.000000,0.000000,1763132812.872868,0.000000
38.000000,22079.209635,34385.811911,21512.212934,11558.712907,33962.536927,32400.284100,17818.900087,16477.638957,35416.517903,33638.190763,15676.798305,2356.969101,20039.858823,30536.416833,18691.623949,23743.006437,0.014000,-0.012000,1.006000,192.000000,0.000000,0.000000,0.000000,0.000000,0.000000,0.000000,0.000000,0.000000,0.000000,1763132812.872888,0.000000
40.000000,22093.827676,34410.175313,21518.426719,11558.131761,34063.209184,32438.080899,17830.590049,16479.672966,35641.398804,33710.968043,15702.122832,2347.804886,20122.359112,30579.935679,18878.305719,24003.091336,0.014000,-0.012000,1.006000,192.000000,0.000000,0.000000,0.000000,0.000000,0.000000,0.000000,0.000000,0.000000,0.000000,1763132812.872908,0.000000
42.000000,22058.891899,34328.569094,21479.199407,11547.000593,33846.866649,32329.004387,17776.297662,16376.698479,35483.260212,33647.332626,15679.011128,2356.455011,20051.280564,30540.060167,18734.516947,23776.042315,0.014000,-0.012000,1.006000,192.000000,0.000000,0.000000,0.000000,0.000000,0.000000,0.000000,0.000000,0.000000,0.000000,1763132812.872921,0.000000
44.000000,22118.481650,34435.142211,21527.546230,11564.367898,34096.848559,32475.095388,17851.600689,16529.852632,35531.182352,33677.909813,15689.449392,2346.419078,20080.024908,30558.187432,18792.206799,23911.739756,0.014000,-0.012000,1.006000,192.000000,0.000000,0.000000,0.000000,0.000000,0.000000,0.000000,0.000000,0.000000,0.000000,1763132812.872930,0.000000
46.000000,22053.929812,34349.445623,21488.341270,11548.296994,33933.099679,32365.124806,17789.082860,16393.462288,35602.596176,33689.867996,15685.873113,2350.755316,20095.224094,30564.915307,18830.987076,23924.949637,0.014000,-0.014000,1.012000,192.000000,0.000000,56.000000,127.500000,72.000000,15.500000,80.000000,0.000000,0.000000,0.000000,1763132812.872939,0.000000
48.000000,22084.350536,34397.434818,21510.111870,11560.813971,33965.442653,32403.949786,17820.151784,16480.969367,35412.628700,33630.635873,15671.143314,2355.404479,20033.510927,30531.678263,18690.729879,23742.157071,0.014000,-0.014000,1.012000,192.000000,0.000000,0.000000,0.000000,0.000000,0.000000,0.000000,0.000000,0.000000,0.000000,1763132812.872948,0.000000
50.000000,22093.984138,34409.996499,21515.208067,11557.349450,34063.052721,32440.003150,17829.606572,16479.203579,35639.342444,33710.118676,15700.178230,2350.017709,20121.442690,30584.093104,18881.345556,24003.717185,0.014000,-0.014000,1.012000,192.000000,0.000000,0.000000,0.000000,0.000000,0.000000,0.000000,0.000000,0.000000,0.000000,1763132812.872957,0.000000
52.000000,22055.092103,34329.530219,21477.925358,11548.185235,33848.766547,32327.618578,17776.789400,16376.765534,35480.063913,33649.567801,15672.998509,2353.281063,20049.671239,30543.256467,18736.394493,23782.747839,0.014000,-0.014000,1.012000,192.000000,0.000000,0.000000,0.000000,0.000000,0.000000,0.000000,0.000000,0.000000,0.000000,1763132812.872966,0.000000
54.000000,22110.390319,34433.577589,21526.786271,11567.206570,34093.965184,32468.769845,17852.047724,16534.345333,35535.987978,33677.373371,15690.008186,2346.687299,20084.316443,30566.010543,18796.341872,23909.772803,0.014000,-0.014000,1.012000,192.000000,0.000000,0.000000,0.000000,0.000000,0.000000,0.000000,0.000000,0.000000,0.000000,1763132812.872975,0.000000
56.000000,22051.493472,34340.303760,21485.301433,11549.436933,33934.217266,32360.654457,17790.558075,16394.825744,35602.037382,33687.610470,15688.577674,2352.990491,20103.650701,30570.167967,18834.228079,23930.045835,0.018000,-0.014000,1.006000,192.000000,0.000000,72.000000,127.500000,72.000000,15.500000,56.000000,0.000000,0.000000,0.000000,1763132812.872984,0.000000
58.000000,22088.418554,34384.917842,21506.513239,11559.539921,33968.080159,32404.128600,17820.867040,16475.448486,35413.232197,33632.021681,15668.997546,2354.890389,20022.916201,30534.181659,18692.070984,23749.220222,0.018000,-0.014000,1.006000,192.000000,0.000000,0.000000,0.000000,0.000000,0.000000,0.000000,0.000000,0.000000,0.000000,1763132812.872993,0.000000
60.000000,22096.219313,34411.985804,21514.783384,11557.818837,34068.238326,32451.603705,17828.690151,16474.397954,35636.414365,33707.034136,15689.516448,2343.781572,20118.469908,30583.511959,18881.926701,24013.976635,0.018000,-0.014000,1.006000,192.000000,0.000000,0.000000,0.000000,0.000000,0.000000,0.000000,0.000000,0.000000,0.000000,1763132812.873002,0.000000
62.000000,22047.090178,34328.837315,21478.081820,11547.246462,33857.282562,32335.866372,17773.347232,16372.675165,35490.546881,33656.765062,15669.690450,2356.991453,20057.024963,30550.096101,18742.138891,23786.078249,0.018000,-0.014000,1.006000,192.000000,0.000000,0.000000,0.000000,0.000000,0.000000,0.000000,0.000000,0.000000,0.000000,1763132812.873011,0.000000
64.000000,22113.653673,34443.054729,21526.048663,11565.530189,34100.313079,32479.655144,17849.589032,16531.953696,35531.249408,33679.854414,15686.186038,2348.944825,20088.831495,30568.066903,18797.884142,23916.455974,0.018000,-0.014000,1.006000,192.000000,0.000000,0.000000,0.000000,0.000000,0.000000,0.000000,0.000000,0.000000,0.000000,1763132812.873020,0.000000
66.000000,22072.660574,34357.291085,21483.893273,11547.268814,33941.123955,32371.696218,17789.708708,16398.983168,35604.026688,33695.746505,15689.382337,2354.488057,20101.437879,30574.638316,18836.865584,23932.102195,0.018000,-0.012000,1.002000,192.000000,0.000000,72.000000,127.500000,80.000000,15.500000,40.000000,0.000000,0.000000,0.000000,1763132812.873029,0.000000
68.000000,22086.295138,34389.097618,21498.220742,11557.617671,33963.699217,32406.922568,17819.190659,16477.527198,35412.293424,33638.704853,15671.947977,2357.259674,20032.236878,30536.617999,18692.093336,23744.839280,0.018000,-0.012000,1.002000,192.000000,0.000000,0.000000,0.000000,0.000000,0.000000,0.000000,0.000000,0.000000,0.000000,1763132812.873038,0.000000
70.000000,22093.917083,34410.085906,21508.927227,11555.002517,34074.340352,32453.481251,17828.757206,16478.130696,35639.118926,33711.571540,15694.098555,2345.368546,20119.073405,30586.328278,18883.759544,24007.516981,0.018000,-0.012000,1.002000,192.000000,0.000000,0.000000,0.000000,0.000000,0.000000,0.000000,0.000000,0.000000,0.000000,1763132812.873047,0.000000
72.000000,22047.872489,34330.044309,21473.566767,11541.703229,33855.941457,32342.169564,17772.274348,16370.663508,35486.300050,33654.574591,15669.243416,2356.834991,20055.505044,30550.118452,18742.161243,23788.112257,0.018000,-0.012000,1.002000,192.000000,0.000000,0.000000,0.000000,0.000000,0.000000,0.000000,0.000000,0.000000,0.000000,1763132812.873056,0.000000
74.000000,22114.078357,34444.418185,21525.959256,11559.294052,34103.621138,32486.897109,17850.997192,16530.143205,35529.349509,33677.999220,15684.643767,2343.669813,20087.065707,30570.235022,18801.773346,23911.337425,0.018000,-0.012000,1.002000,192.000000,0.000000,0.000000,0.000000,0.000000,0.000000,0.000000,0.000000,0.000000,0.000000,1763132812.873065,0.000000
76.000000,22076.192150,34364.197774,21485.860227,11546.285337,33949.505860,32387.230681,17792.077993,16398.647892,35603.713763,33695.143008,15683.481477,2352.476400,20105.058861,30569.050380,18845.403951,23935.946695,0.018000,-0.010000,1.010000,192.000000,0.000000,72.000000,127.500000,88.000000,15.500000,72.000000,0.000000,0.000000,0.000000,1763132812.873074,0.000000
78.000000,22095.012318,34406.174351,21505.865038,11562.132724,33972.818729,32430.838934,17824.353912,16486.736117,35427.269092,33645.522135,15674.406668,2364.523991,20043.993896,30545.513993,18694.484972,23750.203699,0.018000,-0.010000,1.010000,192.000000,0.000000,0.000000,0.000000,0.000000,0.000000,0.000000,0.000000,0.000000,0.000000,1763132812.873083,0.000000
80.000000,22103.304816,34421.641758,21513.375224,11556.924767,34078.520129,32466.869946,17835.462729,16486.803172,35653.379339,33723.395613,15702.793384,2356.343252,20132.059769,30594.978403,18885.257111,24012.613179,0.018000,-0.010000,1.010000,192.000000,0.000000,0.000000,0.000000,0.000000,0.000000,0.000000,0.000000,0.000000,0.000000,1763132812.873092,0.000000
82.000000,22046.039646,34331.743041,21475.958404,11542.284375,33857.975466,32340.850811,17778.577540,16375.871465,35495.821893,33658.441443,15676.440677,2358.667834,20061.003573,30548.129147,18748.553842,23791.330909,0.018000,-0.010000,1.010000,192.000000,0.000000,0.000000,0.000000,0.000000,0.000000,0.000000,0.000000,0.000000,0.000000,1763132812.873101,0.000000
84.000000,22102.209580,34441.378348,21528.194431,11557.505912,34097.809684,32487.053572,17853.589994,16531.551365,35533.596341,33677.932164,15690.835201,2344.899159,20087.535094,30562.881298,18798.487639,23915.338387,0.018000,-0.010000,1.010000,192.000000,0.000000,0.000000,0.000000,0.000000,0.000000,0.000000,0.000000,0.000000,0.000000,1763132812.873110,0.000000
86.000000,22055.628545,34356.374664,21487.335442,11540.652697,33946.331912,32381.933317,17794.559037,16394.535171,35599.086952,33685.844682,15686.431907,2342.798095,20104.187143,30566.323467,18846.409779,23932.258657,0.018000,-0.014000,1.012000,192.000000,0.000000,72.000000,127.500000,72.000000,15.500000,80.000000,0.000000,0.000000,0.000000,1763132813.352756,0.000000
88.000000,22067.720839,34389.432894,21505.038024,11555.047221,33965.777930,32419.506600,17824.711540,16477.080164,35414.930930,33634.547428,15674.049041,2350.375336,20039.165919,30531.499449,18699.692929,23742.715865,0.018000,-0.014000,1.012000,192.000000,0.000000,0.000000,0.000000,0.000000,0.000000,0.000000,0.000000,0.000000,0.000000,1763132813.352857,0.000000
90.000000,22079.813132,34424.011043,21513.889314,11551.225072,34074.183890,32457.772786,17834.523956,16481.684623,35643.946903,33704.418982,15697.250151,2339.512389,20124.326065,30578.952203,18886.441754,24008.433403,0.018000,-0.014000,1.012000,192.000000,0.000000,0.000000,0.000000,0.000000,0.000000,0.000000,0.000000,0.000000,0.000000,1763132813.352931,0.000000
92.000000,22055.405027,34339.744966,21476.517198,11541.032677,33858.489556,32341.320198,17777.839932,16374.083325,35490.278660,33651.914734,15674.339613,2349.548322,20055.013306,30539.613132,18748.084456,23791.107391,0.018000,-0.014000,1.012000,192.000000,0.000000,0.000000,0.000000,0.000000,0.000000,0.000000,0.000000,0.000000,0.000000,1763132813.353014,0.000000
94.000000,22118.347540,34442.540639,21528.350893,11558.824665,34099.508417,32484.527824,17853.142959,16535.038237,35535.473887,33675.115845,15689.136468,2349.749488,20088.362108,30560.959048,18801.929808,23909.482230,0.018000,-0.014000,1.012000,192.000000,0.000000,0.000000,0.000000,0.000000,0.000000,0.000000,0.000000,0.000000,0.000000,1763132813.353099,0.000000
96.000000,22039.267068,34351.233763,21488.028346,11538.194005,33950.198764,32376.077160,17792.435621,16396.502125,35615.828409,33688.683354,15688.287102,2348.251921,20105.483545,30564.468272,18846.566242,23936.349027,0.014000,-0.016000,1.006000,192.000000,0.000000,56.000000,127.500000,64.000000,15.500000,56.000000,0.000000,0.000000,0.000000,1763132813.353181,0.000000
98.000000,22072.817036,34388.114141,21503.093422,11551.537997,33969.644781,32414.365699,17818.900087,16472.721573,35416.249682,33629.093603,15670.584520,2348.609549,20034.650866,30527.096156,18698.374176,23749.622554,0.014000,-0.016000,1.006000,192.000000,0.000000,0.000000,0.000000,0.000000,0.000000,0.000000,0.000000,0.000000,0.000000,1763132813.353249,0.000000
100.000000,22080.193112,34414.869179,21513.352873,11550.755686,34082.252870,32464.835938,17831.059436,16478.801248,35644.013958,33703.144932,15692.623340,2340.428810,20119.296923,30575.934717,18884.519504,24018.849316,0.014000,-0.016000,1.006000,192.000000,0.000000,0.000000,0.000000,0.000000,0.000000,0.000000,0.000000,0.000000,0.000000,1763132813.353270,0.000000
102.000000,22033.232097,34329.954902,21477.657137,11539.490406,33863.764568,32348.360997,17776.811752,16372.384593,35493.586718,33646.974998,15673.199674,2352.074069,20056.868500,30539.076691,18748.196214,23790.034508,0.014000,-0.016000,1.006000,192.000000,0.000000,0.000000,0.000000,0.000000,0.000000,0.000000,0.000000,0.000000,0.000000,1763132813.353291,0.000000
104.000000,22094.297063,34447.636836,21528.261486,11558.668203,34102.771771,32497.581243,17853.299421,16532.758359,35527.181390,33673.059484,15688.622378,2347.313147,20086.395155,30559.506185,18795.894837,23911.717404,0.014000,-0.016000,1.006000,192.000000,0.000000,0.000000,0.000000,0.000000,0.000000,0.000000,0.000000,0.000000,0.000000,1763132813.353312,0.000000
106.000000,22068.547853,34361.515565,21491.515218,11541.770284,33952.858621,32391.030477,17794.871961,16400.301921,35610.508694,33688.616298,15687.549494,2348.207217,20104.343606,30567.821034,18850.388390,23935.946695,0.016000,-0.015000,1.006000,192.000000,0.000000,72.000000,127.500000,72.000000,15.500000,56.000000,0.000000,0.000000,0.000000,1763132813.353333,0.000000
108.000000,22053.549833,34379.911051,21505.261541,11552.253253,33961.285229,32409.113039,17821.336427,16474.509713,35415.467371,33628.735975,15670.785686,2348.743659,20030.649904,30527.140859,18699.044728,23745.196908,0.016000,-0.015000,1.006000,192.000000,0.000000,0.000000,0.000000,0.000000,0.000000,0.000000,0.000000,0.000000,0.000000,1763132813.353354,0.000000
110.000000,22067.474969,34408.029545,21515.252771,11551.627404,34073.848614,32457.906897,17832.400540,16479.292986,35632.905141,33698.071086,15698.032462,2341.255825,20115.631237,30574.772426,18887.916969,24014.423670,0.016000,-0.015000,1.006000,192.000000,0.000000,0.000000,0.000000,0.000000,0.000000,0.000000,0.000000,0.000000,0.000000,1763132813.353375,0.000000
112.000000,22032.695655,34324.389318,21478.975890,11540.853863,33853.326303,32339.733224,17775.403592,16369.165941,35491.709172,33645.432728,15677.647671,2351.872903,20053.493387,30541.714196,18749.269098,23789.408659,0.016000,-0.015000,1.006000,192.000000,0.000000,0.000000,0.000000,0.000000,0.000000,0.000000,0.000000,0.000000,0.000000,1763132813.353395,0.000000
114.000000,22081.623624,34437.936179,21527.769748,11557.908244,34096.200358,32483.812569,17851.086599,16526.969257,35519.291224,33667.516252,15690.276407,2344.720345,20078.281472,30556.332237,18798.353529,23905.101288,0.016000,-0.015000,1.006000,192.000000,0.000000,0.000000,0.000000,0.000000,0.000000,0.000000,0.000000,0.000000,0.000000,1763132813.353416,0.000000
116.000000,22041.815167,34353.871268,21489.458858,11540.607994,33946.644836,32380.368695,17792.145049,16392.724680,35600.316298,33677.596888,15687.929474,2344.742697,20095.380556,30561.830766,18848.957878,23934.985570,0.018000,-0.011500,1.004000,192.000000,0.000000,80.000000,127.500000,96.000000,15.500000,40.000000,0.000000,0.000000,0.000000,1763132813.353436,0.000000
118.000000,22069.419571,34385.610746,21504.613340,11552.052087,33960.704084,32403.703917,17819.369473,16468.519445,35410.393525,33624.869123,15670.182189,2349.883598,20031.879250,30525.352719,18700.385833,23740.368931,0.018000,-0.011500,1.004000,192.000000,0.000000,0.000000,0.000000,0.000000,0.000000,0.000000,0.000000,0.000000,0.000000,1763132813.353462,0.000000
120.000000,22077.667365,34414.645662,21514.805736,11552.543825,34068.439492,32458.622153,17831.707636,16478.555379,35630.714671,33693.511330,15693.293893,2337.053697,20115.050091,30572.738418,18885.927664,24011.517943,0.018000,-0.011500,1.004000,192.000000,0.000000,0.000000,0.000000,0.000000,0.000000,0.000000,0.000000,0.000000,0.000000,1763132813.353490,0.000000
122.000000,22022.033873,34319.114306,21476.517198,11539.423351,33851.895792,32341.454308,17773.436639,16368.651851,35483.573137,33646.617370,15673.289081,2348.318976,20052.375800,30536.193316,18751.236051,23792.828476,0.018000,-0.011500,1.004000,192.000000,0.000000,0.000000,0.000000,0.000000,0.000000,0.000000,0.000000,0.000000,0.000000,1763132813.353520,0.000000
124.000000,22084.685813,34438.137345,21526.786271,11558.131761,34097.966146,32484.326659,17849.924308,16527.729217,35521.839323,33672.366580,15686.186038,2340.071182,20081.567178,30559.327371,18797.615921,23908.878733,0.018000,-0.011500,1.004000,192.000000,0.000000,0.000000,0.000000,0.000000,0.000000,0.000000,0.000000,0.000000,0.000000,1763132813.353547,0.000000
126.000000,22046.866661,34356.866402,21490.017651,11541.278546,33955.831403,32388.951765,17790.692185,16397.418546,35615.761353,33685.375295,15687.460087,2350.062412,20105.461193,30566.994019,18849.203747,23937.019579,0.018000,-0.012750,1.003000,192.000000,0.000000,72.000000,127.500000,72.000000,15.500000,40.000000,0.000000,0.000000,0.000000,1763132813.353568,0.000000
128.000000,22076.728592,34391.355144,21508.591951,11550.800389,33969.980057,32415.103306,17818.564811,16474.174437,35424.452773,33630.166487,15675.099573,2351.537627,20041.490500,30532.617036,18700.363481,23744.280487,0.018000,-0.012750,1.003000,192.000000,0.000000,0.000000,0.000000,0.000000,0.000000,0.000000,0.000000,0.000000,0.000000,1763132813.353589,0.000000
130.000000,22080.684850,34422.066441,21519.812527,11551.448590,34081.850538,32461.416121,17833.696942,16486.311434,35647.389072,33701.692069,15702.882791,2342.909854,20128.863469,30583.467255,18884.161876,24010.266246,0.018000,-0.012750,1.003000,192.000000,0.000000,0.000000,0.000000,0.000000,0.000000,0.000000,0.000000,0.000000,0.000000,1763132813.353610,0.000000
132.000000,22038.507109,34331.385414,21478.439448,11540.160959,33858.981295,32341.253143,17775.828275,16374.150380,35498.571157,33648.517269,15680.106363,2357.170267,20060.422428,30542.898839,18751.213700,23792.157923,0.018000,-0.012750,1.003000,192.000000,0.000000,0.000000,0.000000,0.000000,0.000000,0.000000,0.000000,0.000000,0.000000,1763132813.353630,0.000000
134.000000,22089.759659,34444.261723,21529.021445,11562.535055,34097.385001,32488.171159,17854.595823,16536.535804,35529.573027,33671.092531,15691.773974,2349.749488,20082.505951,30563.261278,18795.604264,23903.715480,0.018000,-0.012750,1.003000,192.000000,0.000000,0.000000,0.000000,0.000000,0.000000,0.000000,0.000000,0.000000,0.000000,1763132813.353651,0.000000
136.000000,22050.532347,34357.604010,21491.671680,11545.570081,33951.159889,32391.723381,17796.123659,16406.023968,35614.509656,33686.559938,15695.596122,2353.906912,20104.433013,30571.442017,18846.722704,23938.271277,0.017000,-0.014375,1.006500,192.000000,0.000000,64.000000,127.500000,64.000000,15.500000,72.000000,0.000000,0.000000,0.000000,1763132813.353671,0.000000
138.000000,22069.285461,34400.921691,21506.870867,11554.913110,33964.369770,32411.079992,17822.409311,16480.097649,35428.543142,33634.100394,15681.782744,2360.903008,20044.843262,30541.334217,18697.502458,23740.570097,0.017000,-0.014375,1.006500,192.000000,0.000000,0.000000,0.000000,0.000000,0.000000,0.000000,0.000000,0.000000,0.000000,1763132813.353692,0.000000
140.000000,22077.466199,34427.810839,21515.632750,11554.331965,34080.241213,32462.086673,17837.206165,16490.312396,35651.054758,33708.039964,15707.062567,2346.664947,20126.583591,30586.842368,18883.446620,24012.434365,0.017000,-0.014375,1.006500,192.000000,0.000000,0.000000,0.000000,0.000000,0.000000,0.000000,0.000000,0.000000,0.000000,1763132813.353713,0.000000
142.000000,22041.390484,34334.939341,21476.874826,11541.055029,33859.025998,32340.068500,17777.817580,16376.452610,35504.092038,33649.210173,15685.090802,2360.120697,20062.545843,30548.375016,18748.822063,23791.465019,0.017000,-0.014375,1.006500,192.000000,0.000000,0.000000,0.000000,0.000000,0.000000,0.000000,0.000000,0.000000,0.000000,1763132813.353734,0.000000
144.000000,22099.572074,34454.521174,21525.244001,11560.255177,34103.151751,32482.985554,17854.215843,16536.491100,35531.070594,33676.300487,15696.154916,2354.465706,20084.271739,30565.183528,18797.101831,23899.625111,0.017000,-0.014375,1.006500,192.000000,0.000000,0.000000,0.000000,0.000000,0.000000,0.000000,0.000000,0.000000,0.000000,1763132813.353755,0.000000
146.000000,22047.514862,34372.311458,21485.614358,11541.323249,33957.932467,32384.034381,17793.620264,16403.677035,35621.550455,33690.784417,15695.551419,2355.292720,20103.203667,30573.721894,18846.588593,23938.941829,0.014500,-0.015187,1.008250,192.000000,0.000000,48.000000,127.500000,64.000000,15.500000,72.000000,0.000000,0.000000,0.000000,1763132813.353776,0.000000
148.000000,22077.399144,34401.838112,21502.959311,11550.196892,33960.838194,32413.382222,17819.101252,16475.269672,35428.766659,33634.815649,15681.402764,2358.891351,20035.142605,30537.266199,18698.016548,23739.072530,0.014500,-0.015187,1.008250,192.000000,0.000000,0.000000,0.000000,0.000000,0.000000,0.000000,0.000000,0.000000,0.000000,1763132813.353796,0.000000
150.000000,22074.560472,34416.076173,21515.342178,11547.626441,34078.430722,32462.176080,17833.562831,16484.299777,35656.061549,33702.608490,15702.815736,2347.983700,20125.980094,30582.662592,18883.938358,24011.406185,0.014500,-0.015187,1.008250,192.000000,0.000000,0.000000,0.000000,0.000000,0.000000,0.000000,0.000000,0.000000,0.000000,1763132813.353817,0.000000
152.000000,22028.739396,34322.779992,21477.657137,11533.701305,33851.985198,32336.179297,17774.800095,16370.328232,35495.687782,33638.280170,15683.101497,2352.565807,20054.923899,30541.110699,18752.755970,23791.308557,0.014500,-0.015187,1.008250,192.000000,0.000000,0.000000,0.000000,0.000000,0.000000,0.000000,0.000000,0.000000,0.000000,1763132813.353837,0.000000
154.000000,22099.035632,34444.753461,21531.457786,11554.443723,34094.345164,32485.868929,17853.567642,16536.759321,35528.254274,33661.704798,15699.261808,2345.256787,20084.159980,30558.433301,18797.884142,23897.524047,0.014500,-0.015187,1.008250,192.000000,0.000000,0.000000,0.000000,0.000000,0.000000,0.000000,0.000000,0.000000,0.000000,1763132813.353858,0.000000
156.000000,22047.939545,34364.130719,21492.923378,11537.478749,33952.612752,32382.805035,17795.564866,16402.425337,35620.008185,33684.168301,15703.352178,2353.683395,20105.505896,30565.742322,18850.678963,23934.627942,0.013250,-0.017594,1.009125,192.000000,0.000000,48.000000,127.500000,48.000000,15.500000,72.000000,0.000000,0.000000,0.000000,1763132813.353871,0.000000
158.000000,22065.195091,34396.250176,21508.636654,11548.095828,33954.579706,32401.714611,17820.531764,16473.012146,35425.235084,33625.182048,15682.788573,2354.756278,20033.868555,30529.487792,18700.452888,23739.966600,0.013250,-0.017594,1.009125,192.000000,0.000000,0.000000,0.000000,0.000000,0.000000,0.000000,0.000000,0.000000,0.000000,1763132813.353880,0.000000
160.000000,22068.301984,34413.952758,21520.952466,11548.542863,34075.748512,32454.375321,17836.513261,16484.210370,35649.087804,33695.657098,15706.369663,2343.401592,20118.782832,30576.828787,18889.034556,24007.114650,0.013250,-0.017594,1.009125,192.000000,0.000000,0.000000,0.000000,0.000000,0.000000,0.000000,0.000000,0.000000,0.000000,1763132813.353890,0.000000
162.000000,22027.264181,34339.052062,21476.539549,11537.903433,33849.213582,32332.915942,17775.984737,16367.288395,35499.509931,33641.185897,15681.380413,2350.822371,20053.292221,30541.267162,18753.918261,23791.174446,0.013250,-0.017594,1.009125,192.000000,0.000000,0.000000,0.000000,0.000000,0.000000,0.000000,0.000000,0.000000,0.000000,1763132813.353900,0.000000
164.000000,22078.896711,34436.751537,21523.902896,11558.422334,34088.444303,32475.788292,17851.488930,16527.103368,35526.600245,33662.509461,15689.985834,2345.815581,20080.561349,30555.594630,18798.219418,23895.914721,0.013250,-0.017594,1.009125,192.000000,0.000000,0.000000,0.000000,0.000000,0.000000,0.000000,0.000000,0.000000,0.000000,1763132813.353909,0.000000
166.000000,22048.610097,34357.805176,21487.782477,11543.066686,33943.537944,32377.060637,17793.307339,16397.798526,35617.929473,33679.832063,15690.321111,2349.637729,20095.514666,30568.558642,18853.785855,23934.002094,0.014625,-0.017797,1.008563,192.000000,0.000000,64.000000,127.500000,56.000000,15.500000,64.000000,0.000000,0.000000,0.000000,1763132813.353919,0.000000
168.000000,22075.186321,34400.273490,21502.154649,11554.130799,33947.650665,32397.512483,17817.357816,16469.681736,35420.764735,33632.871048,15674.294910,2361.014767,20028.392378,30535.455708,18698.150658,23737.485556,0.014625,-0.017797,1.008563,192.000000,0.000000,0.000000,0.000000,0.000000,0.000000,0.000000,0.000000,0.000000,0.000000,1763132813.353928,0.000000
170.000000,22064.703353,34430.671862,21516.660931,11554.801351,34071.479329,32451.514298,17834.345142,16482.802210,35644.416290,33703.793133,15702.011073,2349.905950,20112.479641,30582.394371,18883.960710,24009.372176,0.014625,-0.017797,1.008563,192.000000,0.000000,0.000000,0.000000,0.000000,0.000000,0.000000,0.000000,0.000000,0.000000,1763132813.353939,0.000000
172.000000,22017.429413,34334.827582,21477.299509,11541.725581,33846.173745,32333.340625,17774.442467,16367.020174,35500.180483,33650.573629,15683.593235,2360.500677,20052.062875,30546.005731,18754.320592,23792.627310,0.014625,-0.017797,1.008563,192.000000,0.000000,0.000000,0.000000,0.000000,0.000000,0.000000,0.000000,0.000000,0.000000,1763132813.353948,0.000000
174.000000,22081.690679,34453.805918,21526.160422,11559.025831,34091.372382,32483.253775,17849.231404,16524.465862,35526.041451,33668.767949,15692.042195,2350.062412,20077.320347,30560.512013,18795.470154,23897.054660,0.014625,-0.017797,1.008563,192.000000,0.000000,0.000000,0.000000,0.000000,0.000000,0.000000,0.000000,0.000000,0.000000,1763132813.353958,0.000000
176.000000,22038.820033,34364.555402,21487.111925,11544.363087,33953.931505,32391.589271,17790.334557,16391.450631,35609.748734,33690.247976,15688.443564,2351.358813,20099.537981,30573.632487,18855.797512,23941.534631,0.014625,-0.017797,1.008563,192.000000,0.000000,0.000000,0.000000,0.000000,0.000000,0.000000,0.000000,0.000000,0.000000,1763132813.353967,0.000000
178.000000,22061.149426,34400.921691,21499.226570,11556.544787,33950.489336,32413.873960,17814.675607,16463.356193,35417.948415,33633.072213,15671.053907,2358.399613,20031.856898,30539.546077,18700.676406,23744.302838,0.018000,-0.010000,1.002000,192.000000,0.000000,72.000000,127.500000,88.000000,15.500000,40.000000,0.000000,0.000000,0.000000,1763132813.353976,0.000000
180.000000,22067.966708,34426.916769,21512.794079,11556.410677,34074.854442,32462.265487,17833.272258,16483.226893,35640.840011,33709.716345,15698.792422,2351.939959,20116.078271,30590.999793,18885.704146,24010.400356,0.018000,-0.010000,1.002000,192.000000,0.000000,0.000000,0.000000,0.000000,0.000000,0.000000,0.000000,0.000000,0.000000,1763132813.353986,0.000000
182.000000,22028.091196,34336.235742,21473.499712,11540.295069,33848.788899,32338.637988,17775.090668,16369.344755,35498.548806,33652.987618,15681.201599,2357.304377,20048.598355,30547.570353,18752.733618,23796.985900,0.018000,-0.010000,1.002000,192.000000,0.000000,0.000000,0.000000,0.000000,0.000000,0.000000,0.000000,0.000000,0.000000,1763132813.353995,0.000000
184.000000,22092.777144,34457.806880,21529.021445,11562.535055,34088.176082,32484.080790,17854.707581,16536.379342,35524.387422,33669.282039,15698.166573,2354.555113,20072.581777,30560.914345,18790.172790,23896.384108,0.018000,-0.010000,1.002000,192.000000,0.000000,0.000000,0.000000,0.000000,0.000000,0.000000,0.000000,0.000000,0.000000,1763132813.354004,0.000000
186.000000,22056.388504,34389.254080,21492.565750,11546.710020,33953.596229,32386.962460,17797.285950,16406.202782,35618.912949,33692.840778,15699.999416,2361.707671,20103.248370,30576.292345,18855.618698,23932.593934,0.018000,-0.010000,1.002000,192.000000,0.000000,0.000000,0.000000,0.000000,0.000000,0.000000,0.000000,0.000000,0.000000,1763132813.354014,0.000000
188.000000,22062.423475,34402.799237,21504.166306,11556.142456,33948.030644,32402.675736,17817.983665,16472.833332,35418.551912,33633.251027,15683.727346,2369.843706,20031.007532,30536.483888,18701.481068,23739.072530,0.014000,-0.020000,1.004000,192.000000,0.000000,56.000000,127.500000,48.000000,15.500000,48.000000,0.000000,0.000000,0.000000,1763132813.354023,0.000000
190.000000,22073.353478,34440.931313,21516.951503,11558.042354,34077.000210,32468.032237,17835.954468,16494.022786,35643.656331,33709.291662,15709.029521,2359.003110,20118.782832,30585.098932,18886.240588,24015.295388,0.014000,-0.020000,1.004000,192.000000,0.000000,0.000000,0.000000,0.000000,0.000000,0.000000,0.000000,0.000000,0.000000,1763132813.354033,0.000000
192.000000,22029.566411,34350.853783,21478.461799,11544.877177,33852.678103,32345.947009,17779.181037,16380.587683,35505.835474,33655.736882,15687.884770,2373.107061,20057.360239,30553.135938,18757.673354,23798.684633,0.014000,-0.020000,1.004000,192.000000,0.000000,0.000000,0.000000,0.000000,0.000000,0.000000,0.000000,0.000000,0.000000,1763132813.354042,0.000000
194.000000,22094.721746,34473.363694,21530.295495,11566.044279,34090.701829,32482.113836,17855.556948,16542.816644,35521.995785,33675.205252,15701.899314,2365.239247,20076.359222,30564.289458,18797.995901,23892.986642,0.014000,-0.020000,1.004000,192.000000,0.000000,0.000000,0.000000,0.000000,0.000000,0.000000,0.000000,0.000000,0.000000,1763132813.354051,0.000000
196.000000,22054.689771,34396.876025,21495.806753,11553.147322,33955.518479,32393.645632,17799.007034,16416.708102,35621.192827,33700.216854,15707.420195,2373.218819,20101.773155,30579.086313,18854.009372,23943.099254,0.014000,-0.020000,1.004000,192.000000,0.000000,0.000000,0.000000,0.000000,0.000000,0.000000,0.000000,0.000000,0.000000,1763132813.354060,0.000000
198.000000,22076.348612,34419.607749,21509.664835,11560.121067,33949.930543,32414.231588,17820.576468,16481.930492,35431.784145,33647.712606,15694.456183,2376.862154,20036.349599,30549.269086,18700.497592,23738.558440,0.010000,-0.016000,1.002000,192.000000,0.000000,40.000000,127.500000,64.000000,15.500000,40.000000,0.000000,0.000000,0.000000,1763132813.354070,0.000000
200.000000,22087.792705,34456.398720,21516.839745,11557.774133,34074.139187,32469.216880,17836.155633,16495.095670,35653.111118,33713.337328,15715.377416,2363.249941,20116.838231,30594.978403,18885.078297,24012.322606,0.010000,-0.016000,1.002000,192.000000,0.000000,0.000000,0.000000,0.000000,0.000000,0.000000,0.000000,0.000000,0.000000,1763132813.354080,0.000000
202.000000,22038.641219,34349.847954,21475.958404,11541.546767,33850.398225,32344.538849,17776.275310,16378.754840,35514.597358,33658.106167,15689.024709,2372.369453,20051.347619,30554.879374,18754.477054,23801.478601,0.010000,-0.016000,1.002000,192.000000,0.000000,0.000000,0.000000,0.000000,0.000000,0.000000,0.000000,0.000000,0.000000,1763132813.354089,0.000000
204.000000,22098.298025,34462.076063,21528.082672,11557.662375,34092.646431,32491.367458,17852.919442,16538.368647,35530.735318,33671.763083,15700.848782,2361.506505,20070.503064,30566.502281,18791.290378,23890.974985,0.010000,-0.016000,1.002000,192.000000,0.000000,0.000000,0.000000,0.000000,0.000000,0.000000,0.000000,0.000000,0.000000,1763132813.354099,0.000000
206.000000,22045.011466,34378.055856,21487.380145,11538.484578,33954.400892,32387.253033,17793.106174,16403.677035,35616.633071,33689.465665,15693.740927,2359.830124,20092.541884,30571.442017,18854.970497,23937.891297,0.010000,-0.016000,1.002000,192.000000,0.000000,0.000000,0.000000,0.000000,0.000000,0.000000,0.000000,0.000000,0.000000,1763132813.833927,0.000000
208.000000,22048.297173,34393.053877,21497.796058,11549.638098,33951.584572,32412.331690,17813.669779,16464.451428,35416.450848,33632.312254,15676.284215,2362.579389,20021.642151,30537.109737,18695.691966,23737.105577,0.014000,-0.014000,1.000000,192.000000,0.000000,56.000000,127.500000,72.000000,15.500000,32.000000,0.000000,0.000000,0.000000,1763132813.834031,0.000000
210.000000,22062.468179,34427.877894,21512.279989,11553.169674,34078.654239,32471.295592,17834.658067,16484.053908,35637.040214,33703.793133,15701.273465,2348.766011,20111.071481,30585.076581,18883.737193,24015.250685,0.014000,-0.014000,1.000000,192.000000,0.000000,0.000000,0.000000,0.000000,0.000000,0.000000,0.000000,0.000000,0.000000,1763132813.834120,0.000000
212.000000,22024.269047,34351.278466,21472.784456,11541.680877,33855.293257,32348.718625,17775.381240,16367.400154,35502.862692,33655.289847,15684.844933,2362.065299,20053.202814,30555.482871,18756.399304,23795.153057,0.014000,-0.014000,1.000000,192.000000,0.000000,0.000000,0.000000,0.000000,0.000000,0.000000,0.000000,0.000000,0.000000,1763132813.834209,0.000000
214.000000,22088.351499,34450.386101,21522.315922,11557.952947,34088.578414,32488.417028,17851.734799,16529.651467,35519.291224,33668.790301,15691.952788,2354.219836,20071.397134,30567.999848,18790.128087,23894.819486,0.014000,-0.014000,1.000000,192.000000,0.000000,0.000000,0.000000,0.000000,0.000000,0.000000,0.000000,0.000000,0.000000,1763132813.834297,0.000000
216.000000,22047.179585,34368.332847,21488.363622,11540.965622,33957.708950,32399.322975,17795.117831,16397.910285,35619.002356,33692.416095,15690.477573,2353.281063,20095.648777,30577.588746,18855.618698,23943.546288,0.014000,-0.014000,1.000000,192.000000,0.000000,0.000000,0.000000,0.000000,0.000000,0.000000,0.000000,0.000000,0.000000,1763132813.834385,0.000000
218.000000,22055.047399,34391.019868,21502.668739,11552.476770,33952.880973,32416.355004,17817.380168,16461.456294,35418.551912,33629.898266,15673.602006,2361.282988,20025.643113,30541.065996,18698.575342,23740.793614,0.024000,-0.010000,1.002000,192.000000,0.000000,96.000000,127.500000,88.000000,15.500000,40.000000,0.000000,0.000000,0.000000,1763132813.834449,0.000000
220.000000,22070.805379,34433.488182,21514.761032,11551.359183,34080.710600,32471.072074,17834.792177,16481.595216,35641.935246,33703.502560,15700.446451,2354.443354,20110.132707,30588.205825,18887.335823,24012.702586,0.024000,-0.010000,1.002000,192.000000,0.000000,0.000000,0.000000,0.000000,0.000000,0.000000,0.000000,0.000000,0.000000,1763132813.834470,0.000000
222.000000,22029.074672,34328.300873,21475.779590,11537.322287,33855.248553,32345.321160,17774.531874,16367.690726,35500.158131,33652.495879,15681.760392,2361.104174,20048.508948,30549.291438,18759.997935,23801.813877,0.024000,-0.010000,1.002000,192.000000,0.000000,0.000000,0.000000,0.000000,0.000000,0.000000,0.000000,0.000000,0.000000,1763132813.834491,0.000000
224.000000,22083.881150,34450.140232,21529.982570,11556.701250,34093.406390,32480.616269,17854.729933,16536.111121,35520.162942,33666.778644,15704.223896,2353.325767,20073.811123,30566.546984,18795.112526,23889.700936,0.024000,-0.010000,1.002000,192.000000,0.000000,0.000000,0.000000,0.000000,0.000000,0.000000,0.000000,0.000000,0.000000,1763132813.834512,0.000000
226.000000,22053.192205,34380.827472,21489.570616,11540.607994,33959.340627,32387.856530,17797.442412,16408.236791,35624.992624,33685.688220,15705.565000,2357.125563,20099.605036,30577.052304,18858.814998,23945.937925,0.024000,-0.010000,1.002000,192.000000,0.000000,0.000000,0.000000,0.000000,0.000000,0.000000,0.000000,0.000000,0.000000,1763132813.834533,0.000000
228.000000,22082.160065,34394.909071,21502.042890,11551.314479,33947.874182,32423.842838,17818.318941,16470.776972,35427.157334,33630.233542,15684.532009,2364.926322,20028.034750,30538.584952,18699.447060,23743.721693,0.018000,-0.012000,1.004000,192.000000,0.000000,72.000000,127.500000,80.000000,15.500000,48.000000,0.000000,0.000000,0.000000,1763132813.834554,0.000000
230.000000,22075.320432,34433.219961,21517.487945,11554.756648,34080.800006,32480.862138,17839.262526,16490.513562,35648.394900,33703.368450,15705.944980,2356.276197,20116.793527,30588.406991,18883.021937,24012.948455,0.018000,-0.012000,1.004000,192.000000,0.000000,0.000000,0.000000,0.000000,0.000000,0.000000,0.000000,0.000000,0.000000,1763132813.834575,0.000000
232.000000,22023.732605,34338.672082,21478.282985,11542.552595,33853.996855,32351.758462,17778.376374,16373.323366,35504.695535,33649.299580,15684.308491,2361.864133,20054.879195,30550.364322,18756.309897,23804.786659,0.018000,-0.012000,1.004000,192.000000,0.000000,0.000000,0.000000,0.000000,0.000000,0.000000,0.000000,0.000000,0.000000,1763132813.834596,0.000000
234.000000,22090.899598,34455.012912,21529.200259,11565.261968,34093.048762,32491.680383,17858.775599,16544.157749,35524.186256,33668.656190,15705.207372,2358.623130,20075.711021,30568.022200,18788.630520,23887.555169,0.018000,-0.012000,1.004000,192.000000,0.000000,0.000000,0.000000,0.000000,0.000000,0.000000,0.000000,0.000000,0.000000,1763132813.834617,0.000000
236.000000,22058.713085,34381.989763,21490.040003,11548.833436,33956.569011,32395.612585,17802.002168,16415.948143,35629.038290,33695.724153,15708.828355,2362.422927,20102.577818,30580.136845,18848.913175,23944.865041,0.018000,-0.012000,1.004000,192.000000,0.000000,0.000000,0.000000,0.000000,0.000000,0.000000,0.000000,0.000000,0.000000,1763132813.834638,0.000000
238.000000,22073.286423,34401.502836,21504.211009,11555.315442,33951.115185,32406.117905,17821.582296,16477.773068,35430.443040,33632.669882,15694.076204,2375.185773,20032.438044,30541.222458,18694.440269,23740.056007,0.018000,-0.011000,1.003000,192.000000,0.000000,72.000000,127.500000,88.000000,15.500000,40.000000,0.000000,0.000000,0.000000,1763132813.834659,0.000000
240.000000,22077.868530,34425.665072,21516.772689,11552.432066,34071.568736,32459.024484,17841.095369,16494.849800,35648.819584,33699.792170,15713.388111,2358.153744,20114.826574,30584.696601,18884.139524,24006.600560,0.018000,-0.011000,1.003000,192.000000,0.000000,0.000000,0.000000,0.000000,0.000000,0.000000,0.000000,0.000000,0.000000,1763132813.834680,0.000000
242.000000,22042.977457,34340.571981,21476.181922,11540.451531,33848.520678,32340.403776,17779.270444,16373.010441,35505.813122,33648.360807,15685.180209,2364.412232,20050.364143,30550.207859,18757.293374,23806.217171,0.018000,-0.011000,1.003000,192.000000,0.000000,0.000000,0.000000,0.000000,0.000000,0.000000,0.000000,0.000000,0.000000,1763132813.834701,0.000000
244.000000,22104.377699,34457.918639,21526.093367,11561.104543,34088.064323,32480.683324,17854.282898,16536.424045,35522.353413,33666.465720,15694.299721,2358.220799,20073.900530,30566.390522,18788.831686,23895.646500,0.018000,-0.011000,1.003000,192.000000,0.000000,0.000000,0.000000,0.000000,0.000000,0.000000,0.000000,0.000000,0.000000,1763132813.834723,0.000000
246.000000,22044.653838,34378.569946,21491.001128,11545.123046,33956.412549,32396.774876,17799.476421,16410.606076,35626.780763,33688.571595,15699.574733,2360.545380,20099.023890,30578.639278,18857.183320,23949.223632,0.018000,-0.011000,1.003000,192.000000,0.000000,0.000000,0.000000,0.000000,0.000000,0.000000,0.000000,0.000000,0.000000,1763132813.834743,0.000000
248.000000,22061.663516,34396.272528,21503.205181,11555.337793,33946.443671,32411.504675,17818.542459,16469.748791,35431.828848,33632.066385,15686.409555,2366.736813,20035.924916,30542.675321,18697.837734,23740.570097,0.016000,-0.011500,1.005500,192.000000,0.000000,56.000000,127.500000,80.000000,15.500000,64.000000,0.000000,0.000000,0.000000,1763132813.834766,0.000000
250.000000,22087.949167,34438.159697,21517.622056,11557.103581,34083.839844,32470.178005,17839.195471,16492.368757,35653.625209,33704.083705,15712.404634,2357.505543,20123.789623,30593.413781,18887.291120,24013.194324,0.016000,-0.011500,1.005500,192.000000,0.000000,0.000000,0.000000,0.000000,0.000000,0.000000,0.000000,0.000000,0.000000,1763132813.834788,0.000000
252.000000,22040.675228,34351.390225,21479.110000,11545.301860,33857.059044,32348.115128,17779.918644,16373.792752,35519.738259,33652.495879,15690.589331,2365.663930,20065.742143,30556.153423,18766.524645,23807.759441,0.016000,-0.011500,1.005500,192.000000,0.000000,0.000000,0.000000,0.000000,0.000000,0.000000,0.000000,0.000000,0.000000,1763132813.834809,0.000000
254.000000,22090.385507,34457.695121,21533.715312,11564.345546,34098.882568,32503.683269,17857.881529,16534.524147,35524.946216,33670.958420,15701.541686,2358.489020,20080.538998,30571.576127,18792.027985,23889.633881,0.016000,-0.011500,1.005500,192.000000,0.000000,0.000000,0.000000,0.000000,0.000000,0.000000,0.000000,0.000000,0.000000,1763132813.834830,0.000000
0.000000,22051.940507,34378.882871,21497.103154,11546.151226,33962.894554,32410.208274,17800.370491,16407.163907,35632.078127,33691.723191,15700.804079,2357.282025,20108.545734,30585.411857,18858.166797,23943.099254,0.016000,-0.011500,1.005500,192.000000,0.000000,0.000000,0.000000,0.000000,0.000000,0.000000,0.000000,0.000000,0.000000,1763132813.834851,0.000000
2.000000,22060.143597,34393.120932,21501.260579,11552.454418,33936.184220,32407.794286,17814.787366,16460.294004,35428.721956,33631.529943,15683.034442,2365.127488,20033.332113,30545.469289,18696.004891,23743.989914,0.016000,-0.011750,1.004750,192.000000,0.000000,64.000000,127.500000,80.000000,15.500000,48.000000,0.000000,0.000000,0.000000,1763132813.834872,0.000000
4.000000,22066.938527,34436.460964,21513.822259,11555.740125,34074.988553,32468.389865,17837.608497,16487.004338,35645.735043,33703.904891,15704.492117,2352.498752,20115.832402,30587.289403,18888.609873,24018.268170,0.016000,-0.011750,1.004750,192.000000,0.000000,0.000000,0.000000,0.000000,0.000000,0.000000,0.000000,0.000000,0.000000,1763132813.834893,0.000000
6.000000,22037.076597,34349.624437,21473.007974,11544.899529,33849.191230,32346.818727,17778.957519,16369.970604,35514.016213,33654.239315,15684.956692,2365.708633,20057.583756,30556.488699,18762.076648,23809.212304,0.016000,-0.011750,1.004750,192.000000,0.000000,0.000000,0.000000,0.000000,0.000000,0.000000,0.000000,0.000000,0.000000,1763132813.834914,0.000000
8.000000,22092.575978,34452.241296,21525.869849,11560.277529,34081.023524,32486.762999,17856.808645,16535.217051,35525.393251,33670.891365,15699.239457,2359.338386,20071.419486,30567.642220,18789.077555,23889.365660,0.016000,-0.011750,1.004750,192.000000,0.000000,0.000000,0.000000,0.000000,0.000000,0.000000,0.000000,0.000000,0.000000,1763132813.834935,0.000000
10.000000,22053.661591,34382.369743,21495.985567,11544.608956,33959.832365,32408.263672,17803.522087,16410.963704,35627.987758,33688.348077,15703.329826,2358.109040,20098.688614,30581.321488,18859.686716,23954.565698,0.016000,-0.011750,1.004750,192.000000,0.000000,0.000000,0.000000,0.000000,0.000000,0.000000,0.000000,0.000000,0.000000,1763132813.834956,0.000000
12.000000,22073.956975,34402.307499,21509.351910,11553.549654,33946.466022,32417.293777,17821.537593,16467.714783,35435.807459,33631.507591,15687.057756,2366.178020,20037.646000,30546.363359,18698.754155,23741.665333,0.014000,-0.008875,1.002375,192.000000,0.000000,48.000000,127.500000,104.000000,15.500000,32.000000,0.000000,0.000000,0.000000,1763132813.834977,0.000000
14.000000,22085.244606,34439.456098,21525.713387,11556.790657,34083.571623,32476.928231,17842.861157,16495.274484,35657.737930,33704.776610,15712.784614,2360.433621,20123.052016,30595.023107,18885.726498,24014.982464,0.014000,-0.008875,1.002375,192.000000,0.000000,0.000000,0.000000,0.000000,0.000000,0.000000,0.000000,0.000000,0.000000,1763132813.834998,0.000000
16.000000,22040.116434,34351.457280,21482.552169,11543.536072,33860.903545,32350.283247,17781.952653,16373.703346,35520.229998,33652.071196,15690.611683,2368.144973,20066.189178,30559.237964,18762.188406,23811.447479,0.014000,-0.008875,1.002375,192.000000,0.000000,0.000000,0.000000,0.000000,0.000000,0.000000,0.000000,0.000000,0.000000,1763132813.835019,0.000000
18.000000,22088.932644,34465.384122,21531.658951,11560.523398,34092.333507,32493.155598,17859.870834,16538.770978,35528.231922,33664.543469,15705.319131,2359.561903,20084.763477,30572.112569,18785.344814,23890.617358,0.014000,-0.008875,1.002375,192.000000,0.000000,0.000000,0.000000,0.000000,0.000000,0.000000,0.000000,0.000000,0.000000,1763132813.835040,0.000000
20.000000,22061.127074,34375.798330,21493.996262,11544.072514,33964.369770,32407.391954,17803.186810,16411.634256,35641.890543,33692.103170,15708.984817,2356.432659,20111.652626,30584.786008,18859.954936,23953.492815,0.014000,-0.008875,1.002375,192.000000,0.000000,0.000000,0.000000,0.000000,0.000000,0.000000,0.000000,0.000000,0.000000,1763132813.835060,0.000000
22.000000,22070.961841,34392.159807,21503.339291,11552.588529,33941.347473,32411.191751,17818.408348,16466.910120,35435.673348,33629.630045,15684.643767,2360.724194,20035.723750,30544.351702,18701.659882,23744.883984,0.016000,-0.007438,1.002188,192.000000,0.000000,72.000000,127.500000,104.000000,15.500000,40.000000,0.000000,0.000000,0.000000,1763132813.835081,0.000000
24.000000,22064.368077,34429.487220,21521.734777,11550.263947,34079.414198,32475.430664,17841.452997,16492.167591,35642.359929,33698.607528,15711.711730,2354.242188,20116.726472,30588.183473,18887.335823,24020.302179,0.016000,-0.007438,1.002188,192.000000,0.000000,0.000000,0.000000,0.000000,0.000000,0.000000,0.000000,0.000000,0.000000,1763132813.835103,0.000000
26.000000,22031.063978,34332.145373,21480.965195,11538.663392,33849.168879,32352.339608,17782.019708,16368.361279,35506.751896,33642.079966,15686.811887,2359.472496,20053.225166,30552.107758,18767.910453,23810.799278,0.016000,-0.007438,1.002188,192.000000,0.000000,0.000000,0.000000,0.000000,0.000000,0.000000,0.000000,0.000000,0.000000,1763132813.835124,0.000000
28.000000,22083.188246,34447.703892,21524.081710,11564.367898,34080.241213,32497.290671,17859.043820,16531.461958,35507.824779,33663.068254,15694.031500,2354.756278,20067.999669,30566.211708,18785.791848,23884.560035,0.016000,-0.007438,1.002188,192.000000,0.000000,0.000000,0.000000,0.000000,0.000000,0.000000,0.000000,0.000000,0.000000,1763132813.835145,0.000000
30.000000,22039.311771,34381.185100,21487.961291,11548.453456,33949.952894,32406.587292,17804.572619,16408.706177,35616.856589,33685.732923,15696.423137,2355.359775,20095.961701,30579.555700,18855.372829,23957.873757,0.016000,-0.007438,1.002188,192.000000,0.000000,0.000000,0.000000,0.000000,0.000000,0.000000,0.000000,0.000000,0.000000,1763132813.835166,0.000000
32.000000,22059.808321,34395.646679,21500.142992,11554.689593,33930.618635,32415.013899,17820.352950,16463.177379,35424.765697,33631.574646,15684.152029,2364.322825,20032.214526,30545.625752,18697.122478,23745.599240,0.017000,-0.008719,1.003094,192.000000,0.000000,72.000000,127.500000,88.000000,15.500000,48.000000,0.000000,0.000000,0.000000,1763132813.835186,0.000000
34.000000,22087.859760,34437.243275,21519.298437,11556.723601,34077.313134,32480.795083,17842.503529,16496.727347,35648.908990,33710.185732,15713.388111,2355.695052,20119.855716,30593.816113,18886.039422,24017.172935,0.017000,-0.008719,1.003094,192.000000,0.000000,0.000000,0.000000,0.000000,0.000000,0.000000,0.000000,0.000000,0.000000,1763132813.835208,0.000000
36.000000,22042.530423,34347.702187,21478.327689,11542.709058,33853.996855,32351.020855,17781.371508,16377.100811,35519.492390,33661.369522,15696.087861,2367.988511,20067.463227,30560.579069,18766.167017,23817.124822,0.017000,-0.008719,1.003094,192.000000,0.000000,0.000000,0.000000,0.000000,0.000000,0.000000,0.000000,0.000000,0.000000,1763132813.835229,0.000000
38.000000,22096.241664,34464.981790,21535.436396,11560.881026,34095.932137,32491.255700,17858.417971,16543.442493,35520.855847,33675.920507,15708.560134,2362.400575,20082.774172,30568.111607,18787.870561,23889.566826,0.017000,-0.008719,1.003094,192.000000,0.000000,0.000000,0.000000,0.000000,0.000000,0.000000,0.000000,0.000000,0.000000,1763132813.835249,0.000000
40.000000,22064.211615,34387.242423,21498.421907,11544.474845,33968.616601,32411.191751,17801.823354,16408.773233,35632.122830,33696.171188,15707.241381,2359.204276,20117.799356,30583.713124,18866.951033,23956.085617,0.017000,-0.008719,1.003094,192.000000,0.000000,0.000000,0.000000,0.000000,0.000000,0.000000,0.000000,0.000000,0.000000,1763132813.835270,0.000000
42.000000,22054.712123,34386.974202,21504.389823,11554.510779,33935.223095,32414.835085,17814.720311,16453.811998,35425.324491,33626.612559,15680.665157,2362.288816,20035.924916,30539.970760,18702.062214,23750.606030,0.018500,-0.010359,1.003547,192.000000,0.000000,80.000000,127.500000,80.000000,15.500000,48.000000,0.000000,0.000000,0.000000,1763132813.835291,0.000000
44.000000,22057.774312,34430.358938,21516.280951,11557.014174,34072.172233,32480.392752,17838.524918,16486.244379,35633.508639,33699.591005,15700.535858,2353.281063,20115.139498,30588.027011,18885.838257,24023.319664,0.018500,-0.010359,1.003547,192.000000,0.000000,0.000000,0.000000,0.000000,0.000000,0.000000,0.000000,0.000000,0.000000,1763132813.835312,0.000000
46.000000,22025.788966,34338.873248,21474.371430,11539.669220,33842.776280,32349.567991,17775.560054,16366.371973,35508.048297,33650.171298,15682.363889,2361.461802,20058.343715,30555.035836,18769.095095,23814.286150,0.018500,-0.010359,1.003547,192.000000,0.000000,0.000000,0.000000,0.000000,0.000000,0.000000,0.000000,0.000000,0.000000,1763132813.835333,0.000000
48.000000,22106.814040,34450.631970,21526.071015,11557.707078,34072.552213,32490.272223,17851.935965,16535.284106,35512.205721,33663.850565,15696.087861,2355.113906,20074.436971,30561.808415,18787.669395,23888.225721,0.018500,-0.010359,1.003547,192.000000,0.000000,0.000000,0.000000,0.000000,0.000000,0.000000,0.000000,0.000000,0.000000,1763132813.835354,0.000000
50.000000,22057.841367,34381.386266,21493.593930,11541.882043,33953.328008,32402.832198,17798.761165,16413.958837,35630.558208,33696.104133,15703.486288,2362.199409,20105.975283,30577.856967,18864.447637,23960.488911,0.018500,-0.010359,1.003547,192.000000,0.000000,0.000000,0.000000,0.000000,0.000000,0.000000,0.000000,0.000000,0.000000,1763132813.835375,0.000000
52.000000,22073.174664,34391.042220,21502.601683,11547.425276,33924.114278,32405.782629,17813.669779,16462.618585,35426.509133,33634.279208,15687.884770,2367.161497,20035.097901,30539.546077,18705.884362,23747.052103,0.018500,-0.010359,1.003547,192.000000,0.000000,0.000000,0.000000,0.000000,0.000000,0.000000,0.000000,0.000000,0.000000,1763132813.835395,0.000000
54.000000,22076.773295,34436.952703,21524.171117,11549.883968,34067.456015,32471.116778,17839.776616,16494.581580,35644.863325,33702.787304,15711.331750,2355.449182,20117.777004,30585.501264,18893.795478,24018.916371,0.018000,-0.008000,1.000000,192.000000,0.000000,72.000000,127.500000,96.000000,15.500000,32.000000,0.000000,0.000000,0.000000,1763132813.835417,0.000000
56.000000,22031.041626,34342.874210,21481.881616,11538.752799,33841.658693,32345.857602,17779.851589,16370.372936,35513.189198,33656.116862,15692.399823,2363.719328,20063.059934,30553.672380,18775.040659,23814.666130,0.018000,-0.008000,1.000000,192.000000,0.000000,0.000000,0.000000,0.000000,0.000000,0.000000,0.000000,0.000000,0.000000,1763132813.835438,0.000000
58.000000,22090.027879,34456.286962,21527.769748,11561.640985,34067.456015,32484.617231,17855.109913,16529.986743,35506.506027,33664.364656,15699.462974,2355.784459,20071.397134,30565.272935,18788.205837,23885.118828,0.018000,-0.008000,1.000000,192.000000,0.000000,0.000000,0.000000,0.000000,0.000000,0.000000,0.000000,0.000000,0.000000,1763132813.835460,0.000000
60.000000,22047.850138,34367.796405,21490.822314,11546.955889,33949.617618,32393.198597,17801.555133,16403.542924,35616.163685,33686.582290,15695.864343,2355.739755,20098.152172,30576.895842,18864.939376,23960.488911,0.018000,-0.008000,1.000000,192.000000,0.000000,0.000000,0.000000,0.000000,0.000000,0.000000,0.000000,0.000000,0.000000,1763132813.835481,0.000000
62.000000,22064.323373,34380.335734,21498.466611,11555.002517,33924.695423,32409.336556,17815.435566,16454.259033,35416.361441,33626.903132,15678.228817,2359.383089,20030.962829,30540.909534,18706.689025,23742.514699,0.018000,-0.008000,1.000000,192.000000,0.000000,0.000000,0.000000,0.000000,0.000000,0.000000,0.000000,0.000000,0.000000,1763132813.835502,0.000000
64.000000,22087.256263,34438.003235,21519.320788,11556.187160,34073.468634,32484.080790,17841.609459,16489.373623,35636.168496,33701.557958,15704.559172,2350.509447,20118.872239,30589.882206,18890.643882,24022.850278,0.016000,-0.016000,0.998000,192.000000,0.000000,64.000000,127.500000,64.000000,15.500000,24.000000,0.000000,0.000000,0.000000,1763132813.835523,0.000000
66.000000,22039.423530,34344.036501,21481.389878,11538.685744,33844.877344,32352.607829,17778.979871,16365.030869,35514.105620,33658.128519,15686.029576,2362.065299,20070.167788,30557.092197,18773.744258,23820.119956,0.016000,-0.016000,0.998000,192.000000,0.000000,0.000000,0.000000,0.000000,0.000000,0.000000,0.000000,0.000000,0.000000,1763132813.835544,0.000000
68.000000,22091.391336,34450.743729,21534.654085,11557.461209,34076.284954,32489.646374,17854.551119,16530.456129,35516.653719,33667.449196,15697.294855,2355.158610,20082.684765,30565.675266,18789.345776,23886.258767,0.016000,-0.016000,0.998000,192.000000,0.000000,0.000000,0.000000,0.000000,0.000000,0.000000,0.000000,0.000000,0.000000,1763132813.835565,0.000000
70.000000,22057.036705,34390.326964,21501.886428,11544.541901,33963.296886,32410.342385,17802.225685,16411.187221,35629.597083,33694.718325,15704.872096,2356.611473,20119.028702,30582.260261,18867.062791,23962.947603,0.016000,-0.016000,0.998000,192.000000,0.000000,0.000000,0.000000,0.000000,0.000000,0.000000,0.000000,0.000000,0.000000,1763132814.314856,0.000000
72.000000,22072.906443,34397.948909,21504.456878,11553.437895,33925.589493,32416.645577,17815.189697,16455.309565,35432.812325,33639.040129,15685.291968,2363.294645,20046.743160,30543.569391,18704.543257,23744.481652,0.016000,-0.016000,0.998000,192.000000,0.000000,0.000000,0.000000,0.000000,0.000000,0.000000,0.000000,0.000000,0.000000,1763132814.314968,0.000000
74.000000,22092.643034,34435.410432,21520.237210,11557.461209,34079.704771,32484.661935,17842.056494,16487.004338,35645.533877,33713.694956,15708.537782,2354.041023,20131.188051,30596.140694,18886.777030,24022.202077,0.014000,-0.010000,1.004000,192.000000,0.000000,56.000000,127.500000,88.000000,15.500000,48.000000,0.000000,0.000000,0.000000,1763132814.315064,0.000000
76.000000,22020.022216,34334.894637,21472.002145,11539.557462,33851.336998,32351.110262,17774.911854,16352.312726,35517.503085,33664.141138,15683.995567,2359.204276,20071.978280,30563.104816,18777.544055,23823.785642,0.014000,-0.010000,1.004000,192.000000,0.000000,0.000000,0.000000,0.000000,0.000000,0.000000,0.000000,0.000000,0.000000,1763132814.315160,0.000000
78.000000,22088.083278,34458.142156,21523.008826,11563.518532,34076.933155,32494.317889,17853.902919,16524.443510,35506.662489,33676.032266,15691.595160,2348.833066,20080.606053,30573.252508,18792.720889,23887.599872,0.014000,-0.010000,1.004000,192.000000,0.000000,0.000000,0.000000,0.000000,0.000000,0.000000,0.000000,0.000000,0.000000,1763132814.315265,0.000000
80.000000,22054.980344,34377.832339,21487.581311,11547.179407,33958.066578,32410.610606,17801.130450,16401.978302,35630.982891,33702.407325,15694.702052,2355.203313,20111.674978,30589.524578,18866.012259,23969.429609,0.014000,-0.010000,1.004000,192.000000,0.000000,0.000000,0.000000,0.000000,0.000000,0.000000,0.000000,0.000000,0.000000,1763132814.315361,0.000000
82.000000,22067.698487,34392.338621,21499.181867,11555.740125,33925.321272,32416.556170,17814.317979,16449.162835,35433.482877,33643.644588,15677.133581,2365.954502,20040.574079,30553.717083,18701.972807,23751.097769,0.014000,-0.010000,1.004000,192.000000,0.000000,0.000000,0.000000,0.000000,0.000000,0.000000,0.000000,0.000000,0.000000,1763132814.315430,0.000000
84.000000,22074.135789,34443.457060,21518.516126,11558.556444,34076.910803,32491.479217,17840.402465,16483.964501,35646.852630,33714.209046,15705.721462,2352.744621,20126.382426,30602.399183,18885.927664,24024.861935,0.018000,-0.006000,1.004000,192.000000,0.000000,72.000000,127.500000,104.000000,15.500000,48.000000,0.000000,0.000000,0.000000,1763132814.315462,0.000000
86.000000,22040.921097,34342.404824,21476.427791,11545.167750,33843.558591,32361.481471,17776.252958,16354.816121,35521.191123,33662.643571,15683.637939,2359.941883,20065.540977,30566.368171,18773.923072,23828.680674,0.018000,-0.006000,1.004000,192.000000,0.000000,0.000000,0.000000,0.000000,0.000000,0.000000,0.000000,0.000000,0.000000,1763132814.315488,0.000000
88.000000,22090.676080,34446.273380,21526.205126,11566.312500,34071.971067,32496.173083,17854.640526,16521.984818,35509.657623,33669.751426,15692.019843,2354.912741,20075.152227,30577.834615,18783.623729,23890.550302,0.018000,-0.006000,1.004000,192.000000,0.000000,0.000000,0.000000,0.000000,0.000000,0.000000,0.000000,0.000000,0.000000,1763132814.315512,0.000000
90.000000,22049.347705,34379.709885,21493.772744,11551.225072,33954.557354,32417.941978,17802.695072,16403.565276,35629.395918,33702.139104,15697.160744,2360.187752,20111.183239,30592.720877,18864.671155,23965.607460,0.018000,-0.006000,1.004000,192.000000,0.000000,0.000000,0.000000,0.000000,0.000000,0.000000,0.000000,0.000000,0.000000,1763132814.315556,0.000000
92.000000,22062.624641,34394.260871,21501.797021,11556.030697,33920.649757,32418.210199,17815.748491,16451.845044,35427.380851,33638.503687,15680.285177,2363.719328,20038.942401,30554.365284,18705.102051,23745.062798,0.018000,-0.006000,1.004000,192.000000,0.000000,0.000000,0.000000,0.000000,0.000000,0.000000,0.000000,0.000000,0.000000,1763132814.315582,0.000000
94.000000,22069.777199,34436.036281,21522.561791,11556.969471,34070.808777,32485.198377,17841.877680,16487.563132,35641.354101,33717.494752,15711.555268,2359.785421,20123.499051,30600.342822,18890.599178,24016.524734,0.018000,-0.006000,1.004000,192.000000,0.000000,72.000000,127.500000,104.000000,15.500000,48.000000,0.000000,0.000000,0.000000,1763132814.315606,0.000000
96.000000,22037.747149,34340.661388,21479.132352,11541.010325,33843.133908,32353.345436,17777.348194,16359.867616,35516.206684,33665.437539,15689.896427,2361.126526,20063.216396,30563.618906,18775.554749,23824.590304,0.018000,-0.006000,1.004000,192.000000,0.000000,0.000000,0.000000,0.000000,0.000000,0.000000,0.000000,0.000000,0.000000,1763132814.315631,0.000000
98.000000,22086.764525,34452.889496,21528.239134,11560.366936,34067.500719,32493.759095,17854.417009,16525.047007,35510.842265,33674.646458,15698.904180,2358.533723,20075.018117,30573.274860,18784.763668,23876.826331,0.018000,-0.006000,1.004000,192.000000,0.000000,0.000000,0.000000,0.000000,0.000000,0.000000,0.000000,0.000000,0.000000,1763132814.315655,0.000000
100.000000,22052.096969,34388.471769,21488.810657,11542.351430,33948.164755,32400.485265,17800.862229,16400.145459,35624.344423,33694.092476,15696.333730,2359.114869,20100.990844,30583.511959,18866.772219,23963.372286,0.018000,-0.006000,1.004000,192.000000,0.000000,0.000000,0.000000,0.000000,0.000000,0.000000,0.000000,0.000000,0.000000,1763132814.315679,0.000000
102.000000,22065.060981,34380.268679,21498.108983,11551.493293,33911.351432,32404.799152,17814.474441,16446.704143,35420.004776,33626.724318,15675.792477,2361.461802,20026.559535,30542.407100,18701.928103,23748.527318,0.018000,-0.006000,1.004000,192.000000,0.000000,0.000000,0.000000,0.000000,0.000000,0.000000,0.000000,0.000000,0.000000,1763132814.315691,0.000000
104.000000,22071.945318,34434.225790,21521.198335,11555.091924,34073.558041,32485.399542,17842.972916,16486.847876,35637.688415,33703.636671,15709.454204,2351.582331,20116.592362,30593.167912,18889.660405,24017.888190,0.012000,-0.008000,1.008000,192.000000,0.000000,48.000000,127.500000,96.000000,15.500000,64.000000,0.000000,0.000000,0.000000,1763132814.315702,0.000000
106.000000,22023.352626,34340.639036,21475.265500,11542.016154,33844.966751,32361.526175,17776.968214,16354.883177,35519.939425,33659.961362,15687.661253,2360.701842,20061.584718,30561.026104,18775.286529,23826.177278,0.012000,-0.008000,1.008000,192.000000,0.000000,0.000000,0.000000,0.000000,0.000000,0.000000,0.000000,0.000000,0.000000,1763132814.315713,0.000000
108.000000,22083.925853,34452.554220,21523.388806,11564.725526,34073.580393,32504.443229,17855.042858,16521.873059,35506.349564,33667.270382,15696.780765,2352.588159,20071.531245,30571.307906,18782.707308,23888.471590,0.012000,-0.008000,1.008000,192.000000,0.000000,0.000000,0.000000,0.000000,0.000000,0.000000,0.000000,0.000000,0.000000,1763132814.315725,0.000000
110.000000,22052.119321,34383.733199,21491.470515,11548.542863,33962.760444,32417.852571,17804.371453,16402.939427,35630.021766,33697.221720,15702.592218,2357.818467,20105.148268,30588.317584,18866.951033,23966.345068,0.012000,-0.008000,1.008000,192.000000,0.000000,0.000000,0.000000,0.000000,0.000000,0.000000,0.000000,0.000000,0.000000,1763132814.315736,0.000000
112.000000,22062.736399,34389.589356,21498.801887,11555.226035,33911.910225,32408.956576,17814.541497,16443.060809,35426.218560,33632.178144,15682.632110,2363.115831,20032.013361,30546.989208,18700.765812,23744.638115,0.012000,-0.008000,1.008000,192.000000,0.000000,0.000000,0.000000,0.000000,0.000000,0.000000,0.000000,0.000000,0.000000,1763132814.315747,0.000000
114.000000,22083.590577,34444.060557,21518.739643,11560.925729,34069.087692,32482.583223,17842.011791,16487.674890,35636.392014,33703.591967,15708.001340,2351.448220,20117.732300,30594.486665,18882.083164,24020.436289,0.014000,-0.014000,1.004000,192.000000,0.000000,56.000000,127.500000,72.000000,15.500000,48.000000,0.000000,0.000000,0.000000,1763132814.315758,0.000000
116.000000,22040.451710,34346.115213,21478.774724,11545.301860,33845.793765,32359.849794,17778.443429,16363.488598,35531.048242,33668.946763,15694.098555,2367.429717,20067.127951,30565.608211,18770.547959,23822.243371,0.014000,-0.014000,1.004000,192.000000,0.000000,0.000000,0.000000,0.000000,0.000000,0.000000,0.000000,0.000000,0.000000,1763132814.315769,0.000000
118.000000,22097.471010,34463.774796,21529.759053,11563.339718,34072.887489,32497.067153,17855.668706,16529.025618,35514.597358,33672.768911,15704.223896,2361.640616,20078.795562,30574.079522,18781.500313,23875.529930,0.014000,-0.014000,1.004000,192.000000,0.000000,0.000000,0.000000,0.000000,0.000000,0.000000,0.000000,0.000000,0.000000,1763132814.315780,0.000000
120.000000,22059.763617,34394.506740,21494.197428,11546.575909,33960.234697,32409.738888,17803.075052,16406.672169,35640.080051,33702.139104,15707.509602,2363.205238,20112.591399,30589.144598,18871.331974,23959.840710,0.014000,-0.014000,1.004000,192.000000,0.000000,0.000000,0.000000,0.000000,0.000000,0.000000,0.000000,0.000000,0.000000,1763132814.315791,0.000000
122.000000,22065.575071,34390.997516,21497.058451,11552.320308,33915.307691,32405.156780,17812.820412,16444.580727,35429.884247,33640.336530,15682.296834,2365.865095,20033.153299,30545.715159,18705.437327,23745.733350,0.014000,-0.014000,1.004000,192.000000,0.000000,0.000000,0.000000,0.000000,0.000000,0.000000,0.000000,0.000000,0.000000,1763132814.315802,0.000000
124.000000,22076.281557,34442.361825,21516.459765,11552.655584,34068.506547,32475.743589,17840.983610,16483.204542,35639.856534,33707.056487,15704.648579,2352.096421,20114.357187,30593.078505,18886.374698,24020.570400,0.014000,-0.013000,1.005000,192.000000,0.000000,56.000000,127.500000,80.000000,15.500000,56.000000,0.000000,0.000000,0.000000,1763132814.315813,0.000000
126.000000,22020.424547,34341.086071,21470.526930,11538.797502,33837.456565,32348.517459,17774.621281,16350.323421,35522.129896,33659.201403,15683.928512,2356.857342,20058.142550,30556.600458,18777.655813,23826.400796,0.014000,-0.013000,1.005000,192.000000,0.000000,0.000000,0.000000,0.000000,0.000000,0.000000,0.000000,0.000000,0.000000,1763132814.315824,0.000000
128.000000,22074.068734,34446.251028,21521.578314,11561.596282,34063.231535,32489.311098,17852.897090,16516.978027,35493.027925,33663.671751,15690.388166,2349.302453,20063.618727,30564.267107,18783.333157,23878.189788,0.014000,-0.013000,1.005000,192.000000,0.000000,0.000000,0.000000,0.000000,0.000000,0.000000,0.000000,0.000000,0.000000,1763132814.315835,0.000000
130.000000,22053.415722,34380.514548,21491.939901,11546.665316,33957.239563,32407.526065,17803.656197,16398.714948,35623.450354,33697.333479,15695.417308,2353.325767,20100.163829,30584.406028,18868.962690,23964.244004,0.014000,-0.013000,1.005000,192.000000,0.000000,0.000000,0.000000,0.000000,0.000000,0.000000,0.000000,0.000000,0.000000,1763132814.315845,0.000000
132.000000,22054.332144,34391.377496,21497.527837,11557.774133,33919.822743,32405.447353,17813.289799,16440.266840,35423.804572,33633.496896,15675.591311,2360.031290,20033.242706,30546.989208,18708.141888,23743.073492,0.014000,-0.013000,1.005000,192.000000,0.000000,0.000000,0.000000,0.000000,0.000000,0.000000,0.000000,0.000000,0.000000,1763132814.315856,0.000000
134.000000,22067.162045,34438.673787,21512.682320,11562.602110,34073.982724,32487.858234,17841.765921,16480.902312,35639.610665,33708.956386,15705.296779,2349.883598,20118.648722,30596.408915,18889.347480,24017.865839,0.014000,-0.011500,1.005500,192.000000,0.000000,56.000000,127.500000,88.000000,15.500000,56.000000,0.000000,0.000000,0.000000,1763132814.315868,0.000000
136.000000,22029.387597,34335.989873,21469.051715,11547.849959,33842.217486,32365.325971,17778.264615,16352.089209,35519.537094,33664.409359,15680.106363,2361.707671,20060.221262,30568.044551,18776.180598,23829.954723,0.014000,-0.011500,1.005500,192.000000,0.000000,0.000000,0.000000,0.000000,0.000000,0.000000,0.000000,0.000000,0.000000,1763132814.315879,0.000000
138.000000,22083.411763,34455.169374,21525.981608,11565.239616,34071.121701,32496.642470,17857.389791,16522.744778,35505.522550,33670.578440,15693.115079,2358.600778,20068.446704,30572.470197,18781.321500,23875.798151,0.014000,-0.011500,1.005500,192.000000,0.000000,0.000000,0.000000,0.000000,0.000000,0.000000,0.000000,0.000000,0.000000,1763132814.315889,0.000000
140.000000,22034.237925,34381.967411,21494.890332,11545.815950,33959.407682,32411.079992,17807.210124,16404.526401,35633.262769,33707.414115,15702.055776,2356.969101,20111.674978,30587.088238,18872.337803,23966.076847,0.014000,-0.011500,1.005500,192.000000,0.000000,0.000000,0.000000,0.000000,0.000000,0.000000,0.000000,0.000000,0.000000,1763132814.315900,0.000000
142.000000,22039.021199,34394.193815,21500.947654,11551.068610,33918.749859,32405.849684,17816.821375,16445.407742,35426.375023,33636.201458,15687.884770,2362.847610,20040.708189,30547.056263,18706.219638,23744.816928,0.014000,-0.011500,1.005500,192.000000,0.000000,0.000000,0.000000,0.000000,0.000000,0.000000,0.000000,0.000000,0.000000,1763132814.315911,0.000000
144.000000,22070.984193,34439.411395,21521.645370,11553.974337,34081.403504,32479.990420,17847.398561,16489.485382,35635.967330,33709.269310,15713.455166,2358.533723,20127.052978,30592.989098,18890.241550,24014.110746,0.017000,-0.011750,1.006750,192.000000,0.000000,80.000000,127.500000,80.000000,15.500000,64.000000,0.000000,0.000000,0.000000,1763132814.315922,0.000000
146.000000,22030.125204,34331.810097,21478.662965,11536.159997,33848.185402,32348.606866,17779.806886,16355.687839,35524.409774,33660.095472,15691.014015,2364.948674,20070.056030,30559.126205,18783.355508,23825.640836,0.017000,-0.011750,1.006750,192.000000,0.000000,0.000000,0.000000,0.000000,0.000000,0.000000,0.000000,0.000000,0.000000,1763132814.315933,0.000000
148.000000,22075.253376,34447.770947,21525.355759,11555.941290,34071.278163,32489.556967,17855.735762,16518.073263,35496.939480,33663.627048,15694.679701,2355.180962,20072.492370,30563.194223,18787.110601,23873.250052,0.017000,-0.011750,1.006750,192.000000,0.000000,0.000000,0.000000,0.000000,0.000000,0.000000,0.000000,0.000000,0.000000,1763132814.315944,0.000000
150.000000,22044.273859,34384.917842,21492.766916,11543.357258,33964.548584,32416.131486,17805.600799,16401.978302,35623.919740,33694.427752,15697.339558,2356.075031,20105.617655,30582.662592,18873.835370,23967.216786,0.017000,-0.011750,1.006750,192.000000,0.000000,0.000000,0.000000,0.000000,0.000000,0.000000,0.000000,0.000000,0.000000,1763132814.315955,0.000000
152.000000,22056.567318,34393.702077,21494.577407,11549.414581,33912.178446,32407.391954,17812.932171,16436.377637,35418.708374,33632.334606,15672.953805,2360.388918,20029.040578,30541.825955,18707.247818,23745.643943,0.017000,-0.011750,1.006750,192.000000,0.000000,0.000000,0.000000,0.000000,0.000000,0.000000,0.000000,0.000000,0.000000,1763132814.315966,0.000000
154.000000,22054.667420,34437.645607,21517.532649,11553.527302,34068.752416,32482.627926,17844.314020,16484.009204,35631.027595,33703.793133,15703.754509,2348.609549,20118.760481,30588.921081,18887.916969,24017.597618,0.015500,-0.013875,1.008375,192.000000,0.000000,56.000000,127.500000,64.000000,15.500000,72.000000,0.000000,0.000000,0.000000,1763132814.315977,0.000000
156.000000,22014.322521,34327.809134,21472.762105,11538.082247,33839.200001,32347.154003,17777.728173,16350.032848,35518.084230,33657.770891,15687.348329,2358.086688,20063.663431,30554.342932,18780.002747,23826.624313,0.015500,-0.013875,1.008375,192.000000,0.000000,0.000000,0.000000,0.000000,0.000000,0.000000,0.000000,0.000000,0.000000,1763132814.315988,0.000000
158.000000,22079.388449,34441.400700,21520.639541,11561.305709,34064.259716,32483.142016,17853.992326,16514.407577,35494.994878,33652.965266,15689.695262,2349.369508,20066.636213,30556.823976,18782.483790,23875.015840,0.015500,-0.013875,1.008375,192.000000,0.000000,0.000000,0.000000,0.000000,0.000000,0.000000,0.000000,0.000000,0.000000,1763132814.315999,0.000000
160.000000,22045.503205,34380.581603,21491.179942,11548.967546,33963.118072,32417.807867,17805.980778,16403.654683,35626.177266,33696.595871,15695.484363,2354.890389,20104.187143,30579.354534,18873.008355,23965.652164,0.015500,-0.013875,1.008375,192.000000,0.000000,0.000000,0.000000,0.000000,0.000000,0.000000,0.000000,0.000000,0.000000,1763132814.316010,0.000000
162.000000,22049.817091,34390.103446,21494.376241,11558.020003,33914.055993,32409.090687,17813.937999,16442.233794,35421.837619,33637.922542,15679.949901,2365.596874,20036.170785,30545.044606,18703.939760,23742.872327,0.015500,-0.013875,1.008375,192.000000,0.000000,0.000000,0.000000,0.000000,0.000000,0.000000,0.000000,0.000000,0.000000,1763132814.316046,0.000000
164.000000,22073.197016,34436.907999,21514.850439,11558.087058,34075.636754,32479.453978,17844.939869,16491.228818,35633.665101,33708.889330,15706.839050,2356.522066,20116.927638,30592.854988,18884.541855,24014.893057,0.015750,-0.011938,1.007188,192.000000,0.000000,64.000000,127.500000,88.000000,15.500000,56.000000,0.000000,0.000000,0.000000,1763132814.316057,0.000000
166.000000,22023.509088,34342.091899,21472.002145,11540.228014,33845.190268,32354.373617,17778.041098,16360.716982,35520.475867,33664.074083,15685.671948,2364.456935,20065.540977,30555.952258,18782.237921,23829.060653,0.015750,-0.011938,1.007188,192.000000,0.000000,0.000000,0.000000,0.000000,0.000000,0.000000,0.000000,0.000000,0.000000,1763132814.316068,0.000000
168.000000,22076.862702,34456.398720,21522.494736,11559.696383,34065.243192,32486.584185,17855.199320,16526.678685,35498.615861,33673.439464,15698.278332,2359.606607,20071.330079,30565.474101,18779.689822,23872.423038,0.015750,-0.011938,1.007188,192.000000,0.000000,0.000000,0.000000,0.000000,0.000000,0.000000,0.000000,0.000000,0.000000,1763132814.316079,0.000000
170.000000,22048.833614,34398.261833,21490.710555,11548.140532,33967.387255,32415.282120,17807.903028,16414.428224,35631.519333,33706.251825,15704.000378,2364.680453,20111.183239,30584.406028,18869.655594,23969.854292,0.015750,-0.011938,1.007188,192.000000,0.000000,0.000000,0.000000,0.000000,0.000000,0.000000,0.000000,0.000000,0.000000,1763132814.316090,0.000000
172.000000,22077.980289,34389.544653,21493.616282,11553.192026,33912.156095,32402.787495,17812.038101,16445.966535,35428.811363,33650.797147,15685.962520,2372.771784,20038.540070,30547.592705,18703.112746,23743.319362,0.015750,-0.011938,1.007188,192.000000,0.000000,0.000000,0.000000,0.000000,0.000000,0.000000,0.000000,0.000000,0.000000,1763132814.316100,0.000000
174.000000,22079.589615,34441.847735,21514.828088,11556.388325,34079.034219,32483.454941,17843.464654,16492.256998,35640.147107,33718.411174,15711.555268,2357.997281,20125.197783,30593.793761,18887.425230,24014.602484,0.014875,-0.012969,1.008594,192.000000,0.000000,56.000000,127.500000,72.000000,15.500000,72.000000,0.000000,0.000000,0.000000,1763132814.316111,0.000000
176.000000,22028.918210,34343.924742,21472.851512,11544.251328,33852.208716,32359.156890,17777.974043,16361.767514,35525.169733,33673.953554,15692.109250,2367.317959,20073.095867,30561.517842,18782.550845,23831.921677,0.014875,-0.012969,1.008594,192.000000,0.000000,0.000000,0.000000,0.000000,0.000000,0.000000,0.000000,0.000000,0.000000,1763132814.316123,0.000000
178.000000,22094.900560,34462.970133,21521.555963,11566.245445,34076.441416,32496.754229,17854.573471,16526.991609,35506.751896,33683.453045,15701.586390,2362.333520,20079.399059,30574.414799,18778.818104,23873.719439,0.014875,-0.012969,1.008594,192.000000,0.000000,0.000000,0.000000,0.000000,0.000000,0.000000,0.000000,0.000000,0.000000,1763132814.316133,0.000000
180.000000,22048.252469,34396.607804,21490.330576,11552.163846,33965.420302,32413.583388,17805.980778,16410.471965,35642.494040,33715.572502,15705.810869,2361.998244,20122.582629,30592.787932,18873.589501,23975.375173,0.014875,-0.012969,1.008594,192.000000,0.000000,0.000000,0.000000,0.000000,0.000000,0.000000,0.000000,0.000000,0.000000,1763132814.316144,0.000000
182.000000,22052.253431,34393.545615,21493.258654,11559.986956,33913.608958,32413.069297,17812.507488,16441.339724,35435.360424,33652.697045,15685.224913,2365.954502,20045.066779,30550.565487,18703.470374,23753.779978,0.014875,-0.012969,1.008594,192.000000,0.000000,0.000000,0.000000,0.000000,0.000000,0.000000,0.000000,0.000000,0.000000,1763132814.316155,0.000000
184.000000,22083.568225,34448.553258,21514.738681,11565.463134,34082.409332,32500.822246,17846.660953,16491.675853,35647.903162,33723.462668,15710.415329,2354.778630,20132.529155,30603.628529,18880.607948,24024.236086,0.015437,-0.014484,1.012297,192.000000,0.000000,64.000000,127.500000,64.000000,15.500000,96.000000,0.000000,0.000000,0.000000,1763132814.316166,0.000000
186.000000,22038.909440,34357.536955,21473.432657,11547.492331,33848.878306,32363.157852,17780.209217,16359.264119,35537.507896,33681.575499,15695.260846,2367.072090,20080.382536,30568.357476,18772.269043,23838.403683,0.015437,-0.014484,1.012297,192.000000,0.000000,0.000000,0.000000,0.000000,0.000000,0.000000,0.000000,0.000000,0.000000,1763132814.316176,0.000000
188.000000,22082.942376,34454.431767,21522.450033,11560.389288,34063.075073,32485.801874,17854.618174,16521.515432,35502.572120,33677.865109,15699.239457,2359.204276,20079.644928,30566.055246,18777.655813,23866.678639,0.015437,-0.014484,1.012297,192.000000,0.000000,0.000000,0.000000,0.000000,0.000000,0.000000,0.000000,0.000000,0.000000,1763132814.316187,0.000000
190.000000,22045.011466,34388.382362,21491.358756,11543.938404,33963.900383,32410.163571,17806.181944,16406.716872,35632.771031,33710.878636,15702.346349,2359.584255,20114.044263,30583.221386,18873.321280,23966.389771,0.015437,-0.014484,1.012297,192.000000,0.000000,0.000000,0.000000,0.000000,0.000000,0.000000,0.000000,0.000000,0.000000,1763132814.795609,0.000000
192.000000,22044.497376,34387.041257,21494.309186,11550.062782,33904.623557,32401.401687,17811.725177,16436.712913,35428.744308,33649.120766,15682.900331,2367.161497,20039.210622,30541.177755,18701.972807,23742.827623,0.015437,-0.014484,1.012297,192.000000,0.000000,0.000000,0.000000,0.000000,0.000000,0.000000,0.000000,0.000000,0.000000,1763132814.795720,0.000000
194.000000,22071.900615,34443.635874,21517.197373,11554.354317,34073.625097,32485.086618,17843.732875,16485.842047,35638.001339,33717.874732,15708.604837,2356.142087,20124.974266,30588.742267,18883.133695,24013.127269,0.015437,-0.014484,1.012297,192.000000,0.000000,0.000000,0.000000,0.000000,0.000000,0.000000,0.000000,0.000000,0.000000,1763132814.795808,0.000000
196.000000,22024.961951,34343.835335,21470.392820,11537.545805,33841.837507,32347.623390,17777.012918,16350.524587,35531.160001,33675.406417,15683.839105,2363.406403,20073.252329,30557.181604,18781.522665,23834.581534,0.016000,-0.012000,1.006000,192.000000,0.000000,64.000000,127.500000,80.000000,15.500000,56.000000,0.000000,0.000000,0.000000,1763132814.795887,0.000000
198.000000,22083.076487,34455.147023,21518.694939,11559.629328,34062.002189,32488.394676,17853.366477,16514.049949,35502.639175,33674.512348,15692.846858,2356.589121,20073.900530,30561.562545,18777.320537,23874.211177,0.016000,-0.012000,1.006000,192.000000,0.000000,0.000000,0.000000,0.000000,0.000000,0.000000,0.000000,0.000000,0.000000,1763132814.795974,0.000000
200.000000,22043.759768,34393.389153,21491.537570,11545.592433,33973.332819,32430.928341,17804.930246,16398.714948,35637.375490,33711.862113,15698.099518,2356.924398,20118.358149,30588.474046,18873.768315,23976.895091,0.016000,-0.012000,1.006000,192.000000,0.000000,0.000000,0.000000,0.000000,0.000000,0.000000,0.000000,0.000000,0.000000,1763132814.796063,0.000000
202.000000,22046.844309,34387.734161,21493.415116,11552.476770,33914.123048,32415.080954,17809.422947,16428.398064,35434.958093,33649.120766,15677.602968,2359.226627,20044.977372,30550.409025,18708.499516,23748.974353,0.016000,-0.012000,1.006000,192.000000,0.000000,0.000000,0.000000,0.000000,0.000000,0.000000,0.000000,0.000000,0.000000,1763132814.796152,0.000000
204.000000,22079.679022,34446.988636,21513.598742,11558.444686,34085.359762,32506.477238,17843.039971,16479.516504,35642.874019,33723.239150,15705.497945,2348.654252,20132.395045,30601.125133,18888.073431,24018.625798,0.016000,-0.012000,1.006000,192.000000,0.000000,0.000000,0.000000,0.000000,0.000000,0.000000,0.000000,0.000000,0.000000,1763132814.796174,0.000000
206.000000,22010.433317,34339.029710,21467.107113,11545.234805,33848.297161,32370.824500,17775.694165,16344.064932,35531.338815,33674.154720,15681.827448,2357.684357,20081.433067,30568.268069,18784.763668,23844.818633,0.014000,-0.016000,1.010000,192.000000,0.000000,56.000000,127.500000,64.000000,15.500000,72.000000,0.000000,0.000000,0.000000,1763132814.796196,0.000000
208.000000,22072.593519,34453.627104,21514.045777,11565.686651,34059.588201,32502.610386,17850.796026,16506.204487,35499.174654,33677.842757,15689.158820,2350.800020,20080.606053,30574.012467,18774.593624,23878.569767,0.014000,-0.016000,1.010000,192.000000,0.000000,0.000000,0.000000,0.000000,0.000000,0.000000,0.000000,0.000000,0.000000,1763132814.796217,0.000000
210.000000,22038.350646,34385.431932,21486.754297,11550.241596,33962.469871,32430.235437,17804.460860,16394.512820,35635.319130,33709.671642,15693.383300,2348.810714,20108.053995,30591.379773,18870.840236,23982.617138,0.014000,-0.016000,1.010000,192.000000,0.000000,0.000000,0.000000,0.000000,0.000000,0.000000,0.000000,0.000000,0.000000,1763132814.796238,0.000000
212.000000,22052.119321,34388.292955,21491.694032,11551.023907,33907.395173,32412.175228,17808.171249,16422.966590,35435.695700,33648.740786,15675.904235,2353.705746,20036.282544,30551.168984,18704.118574,23747.700304,0.014000,-0.016000,1.010000,192.000000,0.000000,0.000000,0.000000,0.000000,0.000000,0.000000,0.000000,0.000000,0.000000,1763132814.796260,0.000000
214.000000,22067.430266,34435.209267,21517.152669,11556.075401,34081.984649,32500.799894,17842.794102,16480.209408,35648.126679,33720.311072,15702.413404,2347.179037,20123.789623,30595.984232,18890.040385,24019.877496,0.014000,-0.016000,1.010000,192.000000,0.000000,0.000000,0.000000,0.000000,0.000000,0.000000,0.000000,0.000000,0.000000,1763132814.796282,0.000000
216.000000,22025.274876,34338.739137,21473.857340,11539.512758,33851.538164,32365.974172,17776.342365,16349.786979,35540.614789,33683.318935,15688.063584,2361.685319,20071.061858,30567.463406,18788.161133,23839.722435,0.014000,-0.012000,1.002000,192.000000,0.000000,56.000000,127.500000,80.000000,15.500000,40.000000,0.000000,0.000000,0.000000,1763132814.796304,0.000000
218.000000,22085.937510,34450.028473,21522.695902,11557.058878,34065.936096,32507.281900,17854.394657,16516.508641,35506.483675,33685.799978,15701.251114,2357.550246,20074.258158,30569.944450,18774.638328,23872.668907,0.014000,-0.012000,1.002000,192.000000,0.000000,0.000000,0.000000,0.000000,0.000000,0.000000,0.000000,0.000000,0.000000,1763132814.796326,0.000000
220.000000,22040.742283,34389.589356,21493.616282,11541.524415,33975.567994,32429.810754,17806.673683,16405.241657,35644.952732,33715.348985,15707.062567,2353.661043,20115.899457,30587.624680,18877.366945,23975.039896,0.014000,-0.012000,1.002000,192.000000,0.000000,0.000000,0.000000,0.000000,0.000000,0.000000,0.000000,0.000000,0.000000,1763132814.796347,0.000000
222.000000,22050.867623,34373.563155,21491.068183,11543.491369,33903.595376,32398.719478,17807.500697,16424.844137,35437.573247,33646.170336,15682.319186,2357.662005,20039.501195,30542.183583,18706.309045,23746.672123,0.014000,-0.012000,1.002000,192.000000,0.000000,0.000000,0.000000,0.000000,0.000000,0.000000,0.000000,0.000000,0.000000,1763132814.796369,0.000000
224.000000,22066.804417,34440.953665,21516.303303,11549.593395,34078.274259,32484.706638,17843.911689,16479.047117,35636.682586,33716.421868,15704.156840,2343.580406,20121.062710,30585.814188,18883.513675,24015.831830,0.014000,-0.012000,1.002000,192.000000,0.000000,0.000000,0.000000,0.000000,0.000000,0.000000,0.000000,0.000000,0.000000,1763132814.796391,0.000000
226.000000,22007.818163,34322.511771,21470.705744,11532.829587,33841.882210,32350.059730,17776.588234,16339.147549,35527.673129,33674.601754,15683.839105,2352.007014,20068.849035,30556.041665,18783.199046,23836.280267,0.014000,-0.010000,1.002000,192.000000,0.000000,56.000000,127.500000,88.000000,15.500000,40.000000,0.000000,0.000000,0.000000,1763132814.796412,0.000000
228.000000,22067.050286,34430.560104,21518.382015,11556.589491,34055.877811,32486.450074,17852.584166,16503.432870,35488.602279,33672.880670,15686.253093,2342.954557,20064.110466,30559.461482,18771.464380,23866.656288,0.014000,-0.010000,1.002000,192.000000,0.000000,0.000000,0.000000,0.000000,0.000000,0.000000,0.000000,0.000000,0.000000,1763132814.796434,0.000000
230.000000,22040.161138,34373.719618,21490.643500,11545.346563,33968.013104,32416.287949,17806.807793,16395.228075,35633.128659,33710.051621,15696.110212,2345.457953,20105.841172,30581.634412,18872.337803,23974.726972,0.014000,-0.010000,1.002000,192.000000,0.000000,0.000000,0.000000,0.000000,0.000000,0.000000,0.000000,0.000000,0.000000,1763132814.796455,0.000000
232.000000,22025.408986,34360.912068,21488.229512,11552.230901,33898.029792,32402.206350,17807.925380,16417.356302,35428.252569,33643.063443,15677.468857,2351.872903,20032.996837,30541.244810,18703.805650,23742.268830,0.014000,-0.010000,1.002000,192.000000,0.000000,0.000000,0.000000,0.000000,0.000000,0.000000,0.000000,0.000000,0.000000,1763132814.796476,0.000000
234.000000,22059.048362,34424.145153,21512.838782,11556.120104,34070.741721,32492.038011,17843.442302,16475.381431,35628.971234,33708.084668,15698.077166,2334.349136,20107.271684,30587.110589,18879.088030,24019.095185,0.014000,-0.010000,1.002000,192.000000,0.000000,0.000000,0.000000,0.000000,0.000000,0.000000,0.000000,0.000000,0.000000,1763132814.796498,0.000000
236.000000,22017.876448,34333.531181,21472.404477,11538.194005,33836.651902,32353.211326,17777.638766,16345.540147,35528.030756,33668.544432,15685.984872,2351.627034,20065.809198,30556.891031,18782.461438,23839.722435,0.016000,-0.010000,1.000000,192.000000,0.000000,64.000000,127.500000,88.000000,15.500000,32.000000,0.000000,0.000000,0.000000,1763132814.796519,0.000000
238.000000,22075.231025,34435.410432,21520.706596,11553.594357,34051.832146,32479.901013,17853.031201,16508.551420,35491.776227,33665.705760,15692.064547,2349.347156,20066.658564,30556.712217,18767.686935,23863.862319,0.016000,-0.010000,1.000000,192.000000,0.000000,0.000000,0.000000,0.000000,0.000000,0.000000,0.000000,0.000000,0.000000,1763132814.796541,0.000000
