Sample Index, EXG Channel 0, EXG Channel 1, EXG Channel 2, EXG Channel 3, EXG Channel 4, EXG Channel 5, EXG Channel 6, EXG Channel 7, EXG Channel 8, EXG Channel 9, EXG Channel 10, EXG Channel 11, EXG Channel 12, EXG Channel 13, EXG Channel 14, EXG Channel 15, Accel Channel 0, Accel Channel 1, Accel Channel 2, Not Used, Digital Channel 0 (D11), Digital Channel 1 (D12), Digital Channel 2 (D13), Digital Channel 3 (D17), Not Used, Digital Channel 4 (D18), Analog Channel 0, Analog Channel 1, Analog Channel 2, Timestamp, Marker Channel, Timestamp (Formatted)
102.000000,17778.354022,34440.327816,20307.364500,10549.755162,33826.884189,29379.088209,15575.902531,14114.053740,35744.887381,31515.713813,10683.552704,5144.052821,19601.943445,32788.533901,18323.490718,25967.474397,0.015000,-0.013000,1.003000,192.000000,0.000000,0.000000,0.000000,0.000000,0.000000,0.000000,0.000000,0.000000,0.000000,1763131135.075080,0.000000
104.000000,17792.346214,34460.332627,20315.008797,10551.431543,33848.543030,29403.965700,15587.994824,14138.037162,35718.847599,31508.471848,10683.575056,5143.203454,19591.393422,32786.276375,18308.716215,25959.740694,0.015000,-0.013000,1.003000,192.000000,0.000000,0.000000,0.000000,0.000000,0.000000,0.000000,0.000000,0.000000,0.000000,1763131135.075173,0.000000
106.000000,17790.625130,34457.449252,20314.427652,10547.922319,33858.109576,29401.596415,15585.782002,14132.449225,35776.559803,31532.589380,10687.307797,5144.209283,19622.372940,32800.782657,18343.987267,26021.744433,0.015000,-0.013000,1.003000,192.000000,0.000000,0.000000,0.000000,0.000000,0.000000,0.000000,0.000000,0.000000,0.000000,1763131135.075259,0.000000
108.000000,17791.608607,34452.285999,20310.292579,10547.475284,33827.532390,29387.805389,15579.881141,14128.157691,35720.881608,31501.051068,10684.022091,5145.595091,19589.627634,32788.600956,18304.648197,25931.242219,0.017500,-0.014500,1.003500,192.000000,0.000000,80.000000,127.500000,64.000000,15.500000,48.000000,0.000000,0.000000,0.000000,1763131135.075344,0.000000
110.000000,17806.919552,34478.035209,20320.373216,10550.604528,33866.245611,29410.760630,15593.538057,14153.705734,35768.088492,31526.844982,10693.610989,5146.399754,19615.578010,32800.581491,18332.409064,26005.986453,0.017500,-0.014500,1.003500,192.000000,0.000000,0.000000,0.000000,0.000000,0.000000,0.000000,0.000000,0.000000,0.000000,1763131135.075430,0.000000
112.000000,17796.235418,34456.532831,20310.404338,10550.202197,33829.231123,29365.028961,15577.936539,14127.867118,35759.460719,31522.866371,10690.772318,5151.317138,19616.740300,32794.255947,18322.976628,25967.273231,0.017500,-0.014500,1.003500,192.000000,0.000000,0.000000,0.000000,0.000000,0.000000,0.000000,0.000000,0.000000,0.000000,1763131135.075488,0.000000
114.000000,17801.398671,34470.234450,20319.300332,10550.716287,33848.990065,29398.377764,15587.681900,14143.714505,35727.788297,31512.606920,10691.420518,5148.433763,19597.741317,32786.008154,18309.118546,25950.442368,0.017500,-0.014500,1.003500,192.000000,0.000000,0.000000,0.000000,0.000000,0.000000,0.000000,0.000000,0.000000,0.000000,1763131135.075537,0.000000
116.000000,17801.868057,34467.015799,20315.724053,10550.850397,33852.432233,29429.245523,15585.737298,14135.846691,35774.861070,31535.383348,10691.733443,5146.243292,19619.288399,32802.995479,18340.612154,26016.044738,0.017500,-0.014500,1.003500,192.000000,0.000000,0.000000,0.000000,0.000000,0.000000,0.000000,0.000000,0.000000,0.000000,1763131135.075570,0.000000
118.000000,17800.973988,34457.829232,20310.180820,10549.419886,33824.023166,29393.236863,15580.842266,14131.912784,35719.965186,31511.109353,10690.392338,5151.473600,19592.153381,32784.354125,18300.267255,25933.253876,0.017750,-0.016250,1.000750,192.000000,0.000000,72.000000,127.500000,56.000000,15.500000,24.000000,0.000000,0.000000,0.000000,1763131135.075580,0.000000
120.000000,17811.546363,34479.555128,20320.596733,10552.750296,33869.531318,29416.505029,15595.773231,14151.403505,35760.958285,31532.343511,10694.773280,5148.545521,19618.819013,32800.134456,18334.264259,26007.238151,0.017750,-0.016250,1.000750,192.000000,0.000000,0.000000,0.000000,0.000000,0.000000,0.000000,0.000000,0.000000,0.000000,1763131135.075590,0.000000
122.000000,17797.464764,34458.276267,20311.454870,10550.939804,33836.853067,29381.368087,15580.775211,14125.296667,35754.386873,31526.085022,10691.979312,5152.233559,19617.455556,32796.334660,18326.888183,25967.519101,0.017750,-0.016250,1.000750,192.000000,0.000000,0.000000,0.000000,0.000000,0.000000,0.000000,0.000000,0.000000,0.000000,1763131135.075600,0.000000
124.000000,17807.210124,34474.704799,20317.355730,10551.900929,33860.948248,29399.718869,15590.274702,14142.351048,35731.856314,31513.433935,10692.806326,5150.490123,19610.660626,32794.345354,18306.101061,25956.834967,0.017750,-0.016250,1.000750,192.000000,0.000000,0.000000,0.000000,0.000000,0.000000,0.000000,0.000000,0.000000,0.000000,1763131135.075609,0.000000
126.000000,17790.781592,34456.711645,20313.958265,10544.636612,33856.455547,29393.527435,15584.463249,14127.509490,35776.380989,31527.984920,10688.313626,5139.627175,19630.218402,32799.061572,18347.630602,26022.414985,0.017750,-0.016250,1.000750,192.000000,0.000000,0.000000,0.000000,0.000000,0.000000,0.000000,0.000000,0.000000,0.000000,1763131135.075619,0.000000
128.000000,17790.803944,34451.324874,20308.593846,10549.598700,33826.817134,29377.165959,15579.009423,14123.955563,35717.551198,31498.033583,10681.317530,5142.108219,19591.236960,32780.800197,18304.871715,25934.974961,0.018875,-0.016125,1.000375,192.000000,0.000000,80.000000,127.500000,64.000000,15.500000,32.000000,0.000000,0.000000,0.000000,1763131135.075629,0.000000
130.000000,17792.346214,34467.105206,20317.065158,10548.570520,33861.484690,29402.803409,15592.085194,14143.200415,35757.426710,31520.899418,10686.883114,5143.158751,19608.648969,32795.261776,18329.726855,26009.987415,0.018875,-0.016125,1.000375,192.000000,0.000000,0.000000,0.000000,0.000000,0.000000,0.000000,0.000000,0.000000,0.000000,1763131135.075638,0.000000
132.000000,17785.394822,34441.534810,20303.341186,10541.932051,33826.593617,29378.216491,15576.014289,14113.874926,35741.467564,31508.270682,10679.194114,5139.604824,19591.348719,32780.375514,18331.380884,25972.078856,0.018875,-0.016125,1.000375,192.000000,0.000000,0.000000,0.000000,0.000000,0.000000,0.000000,0.000000,0.000000,0.000000,1763131135.075648,0.000000
134.000000,17788.993453,34461.897249,20309.465564,10548.659926,33849.615914,29386.531339,15587.547790,14134.326772,35713.594939,31499.777019,10676.444850,5137.570815,19587.459515,32778.006229,18309.654988,25954.130406,0.018875,-0.016125,1.000375,192.000000,0.000000,0.000000,0.000000,0.000000,0.000000,0.000000,0.000000,0.000000,0.000000,1763131135.075657,0.000000
136.000000,17783.450220,34462.567802,20305.106974,10547.385877,33852.186364,29388.431238,15582.920978,14128.872946,35764.221640,31527.806107,10678.657672,5139.448361,19613.231076,32796.357011,18342.109721,26022.906723,0.018875,-0.016125,1.000375,192.000000,0.000000,0.000000,0.000000,0.000000,0.000000,0.000000,0.000000,0.000000,0.000000,1763131135.075667,0.000000
138.000000,17785.171304,34451.950723,20306.828059,10545.396572,33821.095088,29382.843302,15575.701365,14121.094539,35713.349070,31502.615691,10678.635321,5142.219978,19584.486733,32782.610689,18303.195334,25938.059501,0.019438,-0.015062,1.004188,192.000000,0.000000,80.000000,127.500000,72.000000,15.500000,64.000000,0.000000,0.000000,0.000000,1763131135.075676,0.000000
140.000000,17793.709671,34475.621221,20318.450966,10543.787246,33869.486614,29396.254348,15590.609979,14143.580394,35756.331474,31519.603016,10687.151335,5137.593167,19612.359358,32784.845863,18334.823052,26007.394613,0.019438,-0.015062,1.004188,192.000000,0.000000,0.000000,0.000000,0.000000,0.000000,0.000000,0.000000,0.000000,0.000000,1763131135.075686,0.000000
142.000000,17788.568770,34458.298619,20307.275093,10542.736714,33825.587788,29360.692723,15577.355394,14122.234478,35749.871820,31514.640929,10684.782050,5141.616481,19619.422510,32784.599994,18326.150575,25975.766894,0.019438,-0.015062,1.004188,192.000000,0.000000,0.000000,0.000000,0.000000,0.000000,0.000000,0.000000,0.000000,0.000000,1763131135.075696,0.000000
144.000000,17797.040081,34475.800034,20315.500535,10549.822217,33848.140698,29395.784962,15588.955949,14144.094484,35723.317948,31507.309557,10686.614893,5144.499856,19609.587742,32780.800197,18305.452860,25951.470548,0.019438,-0.015062,1.004188,192.000000,0.000000,0.000000,0.000000,0.000000,0.000000,0.000000,0.000000,0.000000,0.000000,1763131135.075706,0.000000
146.000000,17794.491982,34472.849604,20311.544277,10549.933976,33852.611047,29389.839398,15584.977339,14135.064380,35778.035018,31532.365862,10688.492440,5144.633966,19617.030873,32796.468770,18338.220517,26016.156497,0.019438,-0.015062,1.004188,192.000000,0.000000,0.000000,0.000000,0.000000,0.000000,0.000000,0.000000,0.000000,0.000000,1763131135.075715,0.000000
148.000000,17792.122697,34456.577534,20305.129326,10548.570520,33827.867666,29386.866616,15577.042470,14123.217955,35722.200361,31502.280414,10682.882152,5143.717545,19592.779230,32780.196700,18300.781345,25932.471565,0.019719,-0.014531,1.005094,192.000000,0.000000,80.000000,127.500000,72.000000,15.500000,56.000000,0.000000,0.000000,0.000000,1763131135.075725,0.000000
150.000000,17793.977892,34479.331610,20316.685178,10551.275081,33868.257268,29408.324290,15593.605112,14146.933156,35757.605524,31525.481525,10687.218390,5142.644661,19613.834573,32797.429895,18328.229288,26003.080726,0.019719,-0.014531,1.005094,192.000000,0.000000,0.000000,0.000000,0.000000,0.000000,0.000000,0.000000,0.000000,0.000000,1763131135.075735,0.000000
152.000000,17787.719403,34455.839927,20308.012701,10545.128351,33827.442983,29369.566365,15578.651795,14120.960429,35753.224582,31519.468906,10684.960864,5145.438629,19607.017291,32795.038258,18320.227363,25968.703743,0.019719,-0.014531,1.005094,192.000000,0.000000,0.000000,0.000000,0.000000,0.000000,0.000000,0.000000,0.000000,0.000000,1763131135.075745,0.000000
154.000000,17801.130450,34485.321878,20314.494707,10548.056429,33850.509983,29383.916185,15589.447688,14143.625098,35731.945721,31514.462115,10686.659597,5146.466809,19600.982320,32780.107293,18301.407194,25944.496804,0.019719,-0.014531,1.005094,192.000000,0.000000,0.000000,0.000000,0.000000,0.000000,0.000000,0.000000,0.000000,0.000000,1763131135.075754,0.000000
156.000000,17779.739830,34464.914735,20310.180820,10546.335345,33842.597466,29390.264081,15585.916112,14131.644563,35776.157472,31538.065557,10686.078451,5143.851655,19631.827728,32794.121837,18332.252602,26017.922284,0.019719,-0.014531,1.005094,192.000000,0.000000,0.000000,0.000000,0.000000,0.000000,0.000000,0.000000,0.000000,0.000000,1763131135.075764,0.000000
158.000000,17784.567807,34457.337494,20306.090451,10548.145836,33817.474105,29376.048371,15577.400098,14121.586278,35707.895244,31505.029679,10678.210637,5143.114047,19576.082477,32775.614593,18295.282816,25928.358844,0.018859,-0.013266,1.007547,192.000000,0.000000,72.000000,127.500000,80.000000,15.500000,72.000000,0.000000,0.000000,0.000000,1763131135.075774,0.000000
160.000000,17793.352043,34481.812654,20315.724053,10550.381011,33854.488594,29389.705287,15590.945255,14143.669801,35749.603599,31530.376557,10685.229085,5140.476542,19609.118355,32792.221939,18329.570392,25996.598720,0.018859,-0.013266,1.007547,192.000000,0.000000,0.000000,0.000000,0.000000,0.000000,0.000000,0.000000,0.000000,0.000000,1763131135.075783,0.000000
162.000000,17779.002223,34455.370540,20302.536524,10545.351868,33816.870608,29357.921107,15574.494371,14115.417196,35743.099242,31523.223999,10682.032786,5143.426972,19597.763669,32785.739933,18321.322599,25968.770798,0.018859,-0.013266,1.007547,192.000000,0.000000,0.000000,0.000000,0.000000,0.000000,0.000000,0.000000,0.000000,0.000000,1763131135.075793,0.000000
164.000000,17785.752450,34472.648439,20310.851373,10549.106961,33846.196097,29382.083342,15584.485601,14132.762150,35709.571625,31510.103525,10677.405975,5140.096562,19583.749125,32786.097561,18308.805622,25947.737807,0.018859,-0.013266,1.007547,192.000000,0.000000,0.000000,0.000000,0.000000,0.000000,0.000000,0.000000,0.000000,0.000000,1763131135.075802,0.000000
166.000000,17789.440488,34477.230546,20310.829021,10549.486941,33857.371969,29385.838435,15583.882103,14129.163519,35766.501518,31536.277418,10683.060966,5140.700059,19611.845268,32795.418238,18344.858986,26011.261465,0.018859,-0.013266,1.007547,192.000000,0.000000,0.000000,0.000000,0.000000,0.000000,0.000000,0.000000,0.000000,0.000000,1763131135.075812,0.000000
168.000000,17783.159647,34464.266534,20305.129326,10548.458761,33826.392451,29374.327287,15576.438973,14116.847708,35715.070154,31516.965510,10680.669329,5147.182065,19602.926922,32781.515453,18298.300302,25927.062443,0.018859,-0.013266,1.007547,192.000000,0.000000,0.000000,0.000000,0.000000,0.000000,0.000000,0.000000,0.000000,0.000000,1763131135.075822,0.000000
170.000000,17787.942921,34488.026439,20314.874687,10551.744467,33869.598373,29393.840360,15591.392290,14137.791292,35748.329550,31532.388214,10681.026957,5139.224844,19614.415719,32793.518340,18329.458634,25996.911645,0.016000,-0.016000,1.002000,192.000000,0.000000,64.000000,127.500000,64.000000,15.500000,40.000000,0.000000,0.000000,0.000000,1763131135.075831,0.000000
172.000000,17780.186865,34464.355941,20305.174029,10546.268290,33834.707300,29358.323438,15574.226150,14111.304475,35746.966093,31526.375595,10679.015300,5139.582472,19606.547905,32789.249157,18324.653009,25967.161473,0.016000,-0.016000,1.002000,192.000000,0.000000,0.000000,0.000000,0.000000,0.000000,0.000000,0.000000,0.000000,0.000000,1763131135.075841,0.000000
174.000000,17785.171304,34479.823349,20311.991312,10549.263424,33846.240800,29397.148418,15583.926807,14130.705789,35714.109029,31513.813915,10678.188286,5138.554292,19595.841419,32783.214186,18305.497564,25945.860260,0.016000,-0.016000,1.002000,192.000000,0.000000,0.000000,0.000000,0.000000,0.000000,0.000000,0.000000,0.000000,0.000000,1763131135.075850,0.000000
176.000000,17788.367604,34479.756293,20308.325625,10546.715325,33856.366140,29404.479790,15582.026909,14126.414254,35766.412111,31536.925618,10681.496344,5136.922614,19627.022103,32797.765171,18338.891070,26022.280875,0.016000,-0.016000,1.002000,192.000000,0.000000,0.000000,0.000000,0.000000,0.000000,0.000000,0.000000,0.000000,0.000000,1763131135.075860,0.000000
178.000000,17791.832124,34470.033284,20305.263436,10550.001031,33823.285559,29378.976450,15575.835475,14119.641676,35715.494837,31510.975243,10680.311701,5143.874007,19600.289416,32784.890566,18301.362491,25933.589153,0.016000,-0.016000,1.002000,192.000000,0.000000,0.000000,0.000000,0.000000,0.000000,0.000000,0.000000,0.000000,0.000000,1763131135.075870,0.000000
180.000000,17794.961368,34491.848587,20315.835812,10555.901892,33865.060969,29409.039546,15590.140592,14142.462807,35752.889306,31537.752633,10687.017225,5145.706850,19600.982320,32796.178197,18327.044645,26002.946616,0.018000,-0.010000,1.008000,192.000000,0.000000,72.000000,127.500000,88.000000,15.500000,64.000000,0.000000,0.000000,0.000000,1763131135.075879,0.000000
182.000000,17784.321938,34468.111034,20301.865971,10553.733772,33829.834620,29367.554708,15574.650833,14112.846746,35746.206134,31533.751671,10681.272826,5146.153885,19595.260274,32788.869177,18325.681189,25974.291679,0.018000,-0.010000,1.008000,192.000000,0.000000,0.000000,0.000000,0.000000,0.000000,0.000000,0.000000,0.000000,0.000000,1763131135.075889,0.000000
184.000000,17785.618339,34484.383104,20308.057405,10555.946595,33849.079472,29402.959872,15585.871409,14132.404522,35711.404468,31518.597188,10678.188286,5142.041164,19585.492562,32785.002325,18303.262389,25952.789301,0.018000,-0.010000,1.008000,192.000000,0.000000,0.000000,0.000000,0.000000,0.000000,0.000000,0.000000,0.000000,0.000000,1763131135.075898,0.000000
186.000000,17792.837953,34482.416151,20310.203172,10549.397534,33863.719864,29402.937520,15585.804353,14131.555156,35769.854280,31541.440671,10683.776222,5139.560120,19611.174716,32803.040183,18342.981439,26015.776517,0.018000,-0.010000,1.008000,192.000000,0.000000,0.000000,0.000000,0.000000,0.000000,0.000000,0.000000,0.000000,0.000000,1763131135.075908,0.000000
188.000000,17793.955540,34475.710628,20308.951474,10549.218720,33833.097974,29378.127084,15579.255292,14128.291801,35720.144000,31516.138496,10685.564361,5145.125704,19588.085364,32780.442569,18302.390671,25928.068272,0.018000,-0.010000,1.008000,192.000000,0.000000,0.000000,0.000000,0.000000,0.000000,0.000000,0.000000,0.000000,0.000000,1763131135.075917,0.000000
190.000000,17800.169325,34496.475398,20316.573419,10551.722115,33866.983219,29396.500217,15592.845153,14149.816531,35759.103091,31537.596171,10694.683873,5146.891492,19624.518707,32797.653413,18328.117529,25993.581235,0.018000,-0.010000,1.014000,192.000000,0.000000,72.000000,127.500000,88.000000,15.500000,88.000000,0.000000,0.000000,0.000000,1763131135.075927,0.000000
192.000000,17791.921531,34473.967191,20305.911637,10548.212892,33829.767565,29361.139758,15576.729545,14122.122720,35754.945666,31532.254104,10689.855896,5148.500818,19607.956065,32786.499892,18319.288590,25972.570595,0.018000,-0.010000,1.014000,192.000000,0.000000,0.000000,0.000000,0.000000,0.000000,0.000000,0.000000,0.000000,0.000000,1763131135.075937,0.000000
194.000000,17791.362738,34480.225680,20311.030187,10548.324650,33846.486669,29363.240822,15585.290263,14135.310249,35718.802895,31517.859580,10684.714995,5144.633966,19600.512934,32776.776883,18306.324578,25945.793205,0.018000,-0.010000,1.014000,192.000000,0.000000,0.000000,0.000000,0.000000,0.000000,0.000000,0.000000,0.000000,0.000000,1763131135.075946,0.000000
196.000000,17778.309319,34476.895270,20307.297445,10548.928147,33852.655751,29390.800523,15583.993862,14129.767016,35771.932992,31537.350301,10686.234914,5142.376440,19607.911361,32787.885700,18337.929945,26018.324616,0.018000,-0.010000,1.014000,192.000000,0.000000,0.000000,0.000000,0.000000,0.000000,0.000000,0.000000,0.000000,0.000000,1763131135.075956,0.000000
198.000000,17777.057621,34464.937087,20305.174029,10548.391706,33818.323471,29374.863729,15577.422449,14121.094539,35709.817494,31508.829476,10683.262132,5142.868178,19575.590739,32776.575718,18302.055395,25934.729091,0.018000,-0.010000,1.014000,192.000000,0.000000,0.000000,0.000000,0.000000,0.000000,0.000000,0.000000,0.000000,0.000000,1763131135.075966,0.000000
200.000000,17788.166438,34488.428770,20312.997140,10554.180807,33851.672274,29400.568235,15592.152249,14147.246080,35747.211963,31528.655473,10690.191172,5142.711716,19594.455611,32794.032430,18323.736587,26002.745450,0.024000,-0.010000,1.008000,192.000000,0.000000,96.000000,127.500000,88.000000,15.500000,64.000000,0.000000,0.000000,0.000000,1763131135.075980,0.000000
202.000000,17783.494924,34470.368561,20301.351881,10548.481113,33813.987233,29362.525566,15576.170752,14122.681513,35744.038015,31524.542752,10686.950169,5146.131533,19589.001785,32785.516415,18317.634561,25975.498673,0.024000,-0.010000,1.008000,192.000000,0.000000,0.000000,0.000000,0.000000,0.000000,0.000000,0.000000,0.000000,0.000000,1763131135.075990,0.000000
204.000000,17788.725232,34484.025476,20308.459736,10548.458761,33833.790879,29384.206758,15583.882103,14138.841824,35712.030317,31515.132667,10685.586713,5146.667975,19579.725811,32779.950831,18303.798831,25950.129443,0.024000,-0.010000,1.008000,192.000000,0.000000,0.000000,0.000000,0.000000,0.000000,0.000000,0.000000,0.000000,0.000000,1763131135.075999,0.000000
206.000000,17788.233493,34487.557052,20308.571495,10550.023383,33848.163050,29388.297127,15583.412717,14132.918612,35770.502480,31540.188973,10688.157164,5143.650489,19607.844306,32801.319099,18342.310887,26020.582142,0.024000,-0.010000,1.008000,192.000000,0.000000,0.000000,0.000000,0.000000,0.000000,0.000000,0.000000,0.000000,0.000000,1763131135.076009,0.000000
208.000000,17785.774801,34467.865165,20299.049652,10549.956328,33812.646128,29364.581926,15573.041507,14114.411368,35711.136247,31520.072403,10678.724727,5147.070306,19582.676242,32783.281241,18302.569485,25935.109071,0.024000,-0.010000,1.008000,192.000000,0.000000,0.000000,0.000000,0.000000,0.000000,0.000000,0.000000,0.000000,0.000000,1763131135.076018,0.000000
210.000000,17780.365679,34489.546357,20309.912599,10554.851360,33858.623667,29400.389421,15588.195990,14139.735894,35742.026358,31536.947970,10680.222294,5142.443495,19598.858905,32796.312308,18326.776424,26001.829028,0.020000,-0.008000,1.008000,192.000000,0.000000,80.000000,127.500000,96.000000,15.500000,64.000000,0.000000,0.000000,0.000000,1763131135.076028,0.000000
212.000000,17778.823409,34462.925430,20298.177933,10552.482075,33826.884189,29354.054255,15573.153266,14116.467728,35747.435480,31533.103470,10681.272826,5145.572739,19591.169905,32802.704907,18322.663703,25978.449104,0.020000,-0.008000,1.008000,192.000000,0.000000,0.000000,0.000000,0.000000,0.000000,0.000000,0.000000,0.000000,0.000000,1763131135.076038,0.000000
214.000000,17792.145049,34484.070180,20310.404338,10556.326575,33840.719919,29402.043450,15586.385499,14141.814606,35714.734878,31521.033528,10682.144544,5147.539693,19596.333158,32783.393000,18298.300302,25949.302429,0.020000,-0.008000,1.008000,192.000000,0.000000,0.000000,0.000000,0.000000,0.000000,0.000000,0.000000,0.000000,0.000000,1763131135.076048,0.000000
216.000000,17781.930301,34482.192633,20306.984521,10549.710458,33846.464318,29399.517703,15583.412717,14130.817548,35770.346018,31547.006255,10687.710129,5145.773905,19601.317597,32805.610634,18335.225384,26021.967950,0.020000,-0.008000,1.008000,192.000000,0.000000,0.000000,0.000000,0.000000,0.000000,0.000000,0.000000,0.000000,0.000000,1763131135.076057,0.000000
218.000000,17776.476476,34466.769930,20302.402413,10546.514159,33813.249625,29366.861804,15575.343737,14117.048874,35709.392811,31512.137534,10680.311701,5142.957585,19571.478018,32775.391075,18297.853267,25934.304408,0.020000,-0.008000,1.008000,192.000000,0.000000,0.000000,0.000000,0.000000,0.000000,0.000000,0.000000,0.000000,0.000000,1763131135.076066,0.000000
220.000000,17786.668871,34492.474436,20311.834849,10548.391706,33853.326303,29405.217398,15589.760612,14141.076999,35746.474355,31529.102508,10684.402071,5137.883739,19602.502239,32787.349258,18324.675360,25998.163342,0.018000,-0.010000,1.008000,192.000000,0.000000,72.000000,127.500000,88.000000,15.500000,64.000000,0.000000,0.000000,0.000000,1763131135.076076,0.000000
222.000000,17779.315147,34465.004142,20301.664806,10543.474322,33822.615006,29364.045485,15573.063859,14110.097481,35751.235277,31528.387252,10682.301007,5138.017850,19601.429355,32786.969279,18324.027160,25972.481188,0.018000,-0.010000,1.008000,192.000000,0.000000,0.000000,0.000000,0.000000,0.000000,0.000000,0.000000,0.000000,0.000000,1763131135.555838,0.000000
224.000000,17782.556150,34478.795168,20307.990349,10546.782380,33842.977445,29382.060991,15581.937502,14127.733007,35711.471523,31513.545694,10678.121230,5134.642736,19594.612073,32781.582508,18307.777441,25945.167356,0.018000,-0.010000,1.008000,192.000000,0.000000,0.000000,0.000000,0.000000,0.000000,0.000000,0.000000,0.000000,0.000000,1763131135.555938,0.000000
226.000000,17781.930301,34476.917622,20310.203172,10544.502502,33853.572172,29380.228148,15582.496295,14122.837975,35767.015608,31541.954761,10684.893809,5136.699097,19615.108623,32793.205415,18344.054323,26018.950465,0.018000,-0.010000,1.008000,192.000000,0.000000,0.000000,0.000000,0.000000,0.000000,0.000000,0.000000,0.000000,0.000000,1763131135.556019,0.000000
228.000000,17781.550322,34458.522136,20305.308140,10540.769761,33816.580035,29358.882232,15572.303900,14110.142185,35714.600767,31509.388269,10679.439983,5136.117951,19593.494486,32768.372627,18310.034968,25933.343283,0.018000,-0.010000,1.008000,192.000000,0.000000,0.000000,0.000000,0.000000,0.000000,0.000000,0.000000,0.000000,0.000000,1763131135.556104,0.000000
230.000000,17795.542514,34485.299526,20319.009759,10548.168188,33858.690722,29407.117296,15589.313577,14139.579432,35749.916524,31529.147211,10686.547838,5133.815722,19603.217495,32787.840997,18332.721988,25998.789191,0.020000,-0.010000,1.006000,192.000000,0.000000,80.000000,127.500000,88.000000,15.500000,56.000000,0.000000,0.000000,0.000000,1763131135.556179,0.000000
232.000000,17787.093554,34461.673732,20308.571495,10544.480150,33821.743288,29368.292316,15573.488542,14111.907972,35759.460719,31527.001444,10689.252399,5139.560120,19606.458498,32787.528072,18324.004808,25979.119656,0.020000,-0.010000,1.006000,192.000000,0.000000,0.000000,0.000000,0.000000,0.000000,0.000000,0.000000,0.000000,0.000000,1763131135.556262,0.000000
234.000000,17784.970139,34479.041037,20316.506364,10547.497636,33836.651902,29382.575081,15583.256255,14131.175176,35723.608520,31513.478638,10686.927818,5137.816684,19598.925960,32780.308459,18303.999997,25949.391836,0.020000,-0.010000,1.006000,192.000000,0.000000,0.000000,0.000000,0.000000,0.000000,0.000000,0.000000,0.000000,0.000000,1763131135.556320,0.000000
236.000000,17786.735926,34475.107130,20312.974788,10543.742543,33845.771414,29385.145531,15581.669281,14125.184909,35779.756103,31538.691406,10688.961826,5136.140303,19608.514858,32794.837093,18342.824977,26019.084575,0.020000,-0.010000,1.006000,192.000000,0.000000,0.000000,0.000000,0.000000,0.000000,0.000000,0.000000,0.000000,0.000000,1763131135.556344,0.000000
238.000000,17779.650423,34458.812709,20307.185686,10544.390743,33814.344861,29381.479845,15573.086211,14119.351103,35722.043898,31512.226941,10682.658635,5138.755457,19584.330271,32785.806988,18302.703595,25937.500708,0.020000,-0.010000,1.006000,192.000000,0.000000,0.000000,0.000000,0.000000,0.000000,0.000000,0.000000,0.000000,0.000000,1763131135.556368,0.000000
240.000000,17797.062432,34488.071142,20318.965056,10547.922319,33856.790824,29400.948215,15589.581798,14146.687287,35757.493765,31531.628255,10691.308760,5141.080039,19606.883181,32786.410485,18330.106834,26001.717270,0.018000,-0.010000,1.008000,192.000000,0.000000,64.000000,127.500000,88.000000,15.500000,72.000000,0.000000,0.000000,0.000000,1763131135.556392,0.000000
242.000000,17785.148953,34464.668866,20305.576361,10547.631746,33828.426460,29363.509043,15575.924882,14120.558097,35761.494727,31528.007272,10689.073585,5143.784600,19619.109585,32786.119912,18326.910535,25977.331516,0.018000,-0.010000,1.008000,192.000000,0.000000,0.000000,0.000000,0.000000,0.000000,0.000000,0.000000,0.000000,0.000000,1763131135.556416,0.000000
244.000000,17788.278197,34478.839872,20313.712396,10551.923281,33841.569286,29391.694592,15584.753821,14139.668839,35723.809686,31517.881932,10687.620722,5146.265643,19588.554751,32782.253061,18304.558790,25950.308257,0.018000,-0.010000,1.008000,192.000000,0.000000,0.000000,0.000000,0.000000,0.000000,0.000000,0.000000,0.000000,0.000000,1763131135.556440,0.000000
246.000000,17787.875865,34481.276212,20310.002006,10548.794037,33853.125137,29392.923938,15583.837400,14134.572641,35776.917431,31542.312389,10690.101765,5143.181103,19620.651856,32800.402677,18342.780273,26022.102061,0.018000,-0.010000,1.008000,192.000000,0.000000,0.000000,0.000000,0.000000,0.000000,0.000000,0.000000,0.000000,0.000000,1763131135.556465,0.000000
248.000000,17778.354022,34465.629991,20303.810573,10546.022421,33822.100916,29365.654810,15573.041507,14117.965295,35717.707660,31511.422278,10683.195076,5142.711716,19579.167018,32779.190872,18303.061223,25934.818498,0.018000,-0.010000,1.008000,192.000000,0.000000,0.000000,0.000000,0.000000,0.000000,0.000000,0.000000,0.000000,0.000000,1763131135.556477,0.000000
250.000000,17791.228627,34489.009915,20313.578285,10549.397534,33860.970600,29399.540055,15586.787830,14140.629964,35747.703701,31528.722528,10685.363196,5139.269547,19606.905533,32791.774904,18327.066997,26002.432525,0.016000,-0.012000,1.009000,192.000000,0.000000,56.000000,127.500000,72.000000,15.500000,72.000000,0.000000,0.000000,0.000000,1763131135.556490,0.000000
252.000000,17777.527008,34460.891421,20300.971902,10542.200272,33818.256416,29347.616952,15570.113429,14110.253943,35755.638570,31524.118069,10683.619760,5139.403658,19593.829762,32783.169482,18323.021331,25980.907796,0.016000,-0.012000,1.009000,192.000000,0.000000,0.000000,0.000000,0.000000,0.000000,0.000000,0.000000,0.000000,0.000000,1763131135.556502,0.000000
254.000000,17776.655290,34468.803938,20305.062271,10544.837778,33829.454640,29355.417711,15577.131877,14125.497833,35711.627985,31506.035507,10679.417632,5133.659260,19587.235998,32778.565023,18297.316825,25946.262592,0.016000,-0.012000,1.009000,192.000000,0.000000,0.000000,0.000000,0.000000,0.000000,0.000000,0.000000,0.000000,0.000000,1763131135.556513,0.000000
0.000000,17782.757316,34479.711590,20308.504439,10553.510255,33838.708262,29394.466209,15580.283473,14126.347199,35763.372274,31530.465964,10679.819963,5132.519321,19596.534323,32787.237500,18334.331314,26023.264351,0.016000,-0.012000,1.009000,192.000000,0.000000,0.000000,0.000000,0.000000,0.000000,0.000000,0.000000,0.000000,0.000000,1763131135.556524,0.000000
2.000000,17789.060508,34469.742712,20306.604541,10551.722115,33814.076640,29382.932709,15571.566292,14117.831185,35723.586169,31515.780868,10685.094975,5143.717545,19576.574215,32779.190872,18302.569485,25938.193612,0.016000,-0.012000,1.009000,192.000000,0.000000,0.000000,0.000000,0.000000,0.000000,0.000000,0.000000,0.000000,0.000000,1763131135.556535,0.000000
4.000000,17789.574598,34484.539567,20317.176916,10554.873711,33862.758739,29417.957892,15587.123106,14144.563871,35751.682311,31522.799316,10689.878248,5139.604824,19600.602341,32790.724372,18328.251639,26001.247883,0.016000,-0.012000,1.008500,192.000000,0.000000,64.000000,127.500000,80.000000,15.500000,64.000000,0.000000,0.000000,0.000000,1763131135.556546,0.000000
6.000000,17779.650423,34462.053712,20306.090451,10551.319784,33824.246684,29380.205796,15571.320423,14116.423025,35760.064216,31524.810973,10689.565324,5144.969242,19602.815163,32795.954680,18329.056302,25989.066182,0.016000,-0.012000,1.008500,192.000000,0.000000,0.000000,0.000000,0.000000,0.000000,0.000000,0.000000,0.000000,0.000000,1763131135.556558,0.000000
8.000000,17780.969176,34467.261668,20307.677425,10554.091400,33835.668425,29400.590587,15581.065784,14129.878775,35717.640605,31504.873217,10685.184382,5142.018812,19597.137820,32786.410485,18303.821183,25954.063350,0.016000,-0.012000,1.008500,192.000000,0.000000,0.000000,0.000000,0.000000,0.000000,0.000000,0.000000,0.000000,0.000000,1763131135.556571,0.000000
10.000000,17774.956557,34467.641648,20305.665768,10550.917453,33844.072681,29398.064840,15580.976377,14125.698999,35769.675466,31523.805144,10684.290312,5135.961489,19606.838477,32799.061572,18337.818186,26027.779404,0.016000,-0.012000,1.008500,192.000000,0.000000,0.000000,0.000000,0.000000,0.000000,0.000000,0.000000,0.000000,0.000000,1763131135.556583,0.000000
12.000000,17763.467760,34439.076118,20296.054518,10547.363525,33818.278768,29360.782130,15568.794676,14107.147051,35708.007003,31495.530188,10676.109573,5135.156826,19575.590739,32779.146168,18299.417889,25939.177089,0.016000,-0.012000,1.008500,192.000000,0.000000,0.000000,0.000000,0.000000,0.000000,0.000000,0.000000,0.000000,0.000000,1763131135.556596,0.000000
14.000000,17776.163551,34461.807842,20308.012701,10547.296470,33849.034768,29390.778171,15584.485601,14130.772845,35730.805782,31508.941234,10675.841352,5127.914861,19595.841419,32780.643735,18320.629695,26001.002014,0.014000,-0.014000,1.007250,192.000000,0.000000,48.000000,127.500000,64.000000,15.500000,56.000000,0.000000,0.000000,0.000000,1763131135.556616,0.000000
16.000000,17758.952708,34441.691272,20295.115744,10546.491807,33820.379832,29350.925011,15567.587682,14105.001283,35740.506439,31507.220150,10676.221332,5131.066457,19586.587797,32780.733142,18317.545154,25978.471455,0.014000,-0.014000,1.007250,192.000000,0.000000,0.000000,0.000000,0.000000,0.000000,0.000000,0.000000,0.000000,0.000000,1763131135.556635,0.000000
18.000000,17767.200502,34455.012912,20303.654111,10550.045735,33830.840448,29364.447816,15576.707193,14123.888507,35701.636756,31491.573929,10674.813172,5130.194739,19568.304070,32764.595182,18294.679319,25941.568725,0.014000,-0.014000,1.007250,192.000000,0.000000,0.000000,0.000000,0.000000,0.000000,0.000000,0.000000,0.000000,0.000000,1763131135.556666,0.000000
20.000000,17776.007089,34465.741749,20308.370329,10555.834836,33846.419614,29379.311726,15580.730507,14129.767016,35765.719207,31523.268702,10683.440946,5133.905129,19601.317597,32787.528072,18333.034913,26020.112755,0.014000,-0.014000,1.007250,192.000000,0.000000,0.000000,0.000000,0.000000,0.000000,0.000000,0.000000,0.000000,0.000000,1763131135.556686,0.000000
22.000000,17779.918644,34458.008046,20307.744480,10558.517046,33816.445925,29383.916185,15573.868522,14121.966257,35720.859256,31507.421316,10686.100803,5142.823475,19589.828800,32778.587375,18297.450936,25940.987580,0.014000,-0.014000,1.007250,192.000000,0.000000,0.000000,0.000000,0.000000,0.000000,0.000000,0.000000,0.000000,0.000000,1763131135.556701,0.000000
24.000000,17797.777688,34486.819445,20321.535506,10561.154552,33863.853975,29414.627482,15590.498220,14149.324793,35759.304256,31534.064595,10694.549763,5145.259815,19610.526515,32802.324927,18322.753110,26000.890255,0.010000,-0.014000,1.007625,192.000000,0.000000,24.000000,127.500000,72.000000,15.500000,64.000000,0.000000,0.000000,0.000000,1763131135.556716,0.000000
26.000000,17790.535723,34465.473529,20308.392681,10555.700726,33826.504210,29378.372953,15576.103696,14124.335542,35766.456815,31529.974226,10695.309722,5147.629100,19607.866658,32794.323003,18321.747282,25983.187673,0.010000,-0.014000,1.007625,192.000000,0.000000,0.000000,0.000000,0.000000,0.000000,0.000000,0.000000,0.000000,0.000000,1763131135.556730,0.000000
28.000000,17790.893351,34474.123654,20312.728919,10553.376145,33837.635379,29380.228148,15581.915150,14137.657182,35728.436497,31516.719641,10693.700396,5146.466809,19587.973605,32782.744799,18294.098174,25945.301467,0.010000,-0.014000,1.007625,192.000000,0.000000,0.000000,0.000000,0.000000,0.000000,0.000000,0.000000,0.000000,0.000000,1763131135.556744,0.000000
30.000000,17788.054679,34470.927354,20314.584114,10551.520950,33852.231068,29384.586738,15583.323310,14134.863214,35777.722094,31534.466926,10693.745100,5138.509588,19612.493469,32799.776828,18338.958125,26017.989340,0.010000,-0.014000,1.007625,192.000000,0.000000,0.000000,0.000000,0.000000,0.000000,0.000000,0.000000,0.000000,0.000000,1763131135.556760,0.000000
32.000000,17788.389956,34455.124671,20310.985483,10547.721153,33817.049422,29365.699514,15574.226150,14124.134377,35725.977805,31505.074382,10691.219353,5141.951757,19589.940559,32770.339581,18300.624883,25929.655246,0.010000,-0.014000,1.007625,192.000000,0.000000,0.000000,0.000000,0.000000,0.000000,0.000000,0.000000,0.000000,0.000000,1763131135.556774,0.000000
34.000000,17795.028424,34484.539567,20324.888268,10552.280909,33862.199946,29395.382630,15590.207647,14152.677554,35754.789204,31517.993691,10698.707187,5138.844864,19607.464326,32786.231671,18319.579163,25988.417982,0.013000,-0.014000,1.006813,192.000000,0.000000,64.000000,127.500000,72.000000,15.500000,56.000000,0.000000,0.000000,0.000000,1763131135.556788,0.000000
36.000000,17790.669834,34465.629991,20312.594809,10548.168188,33831.019262,29359.642191,15573.242673,14125.542536,35768.356713,31521.525266,10699.467146,5143.851655,19617.634370,32783.325944,18322.283724,25974.716362,0.013000,-0.014000,1.006813,192.000000,0.000000,0.000000,0.000000,0.000000,0.000000,0.000000,0.000000,0.000000,0.000000,1763131135.556803,0.000000
38.000000,17804.237342,34478.728113,20320.596733,10552.839703,33844.810289,29378.887043,15580.529342,14141.725199,35729.442326,31507.555426,10695.510888,5143.382268,19593.270969,32779.347334,18298.590875,25936.293714,0.013000,-0.014000,1.006813,192.000000,0.000000,0.000000,0.000000,0.000000,0.000000,0.000000,0.000000,0.000000,0.000000,1763131135.556818,0.000000
40.000000,17797.710633,34482.192633,20320.797899,10549.196368,33855.226201,29397.081363,15580.194066,14140.786426,35788.406228,31533.617560,10702.439928,5141.392963,19617.947294,32794.837093,18333.459596,26015.932979,0.013000,-0.014000,1.006813,192.000000,0.000000,0.000000,0.000000,0.000000,0.000000,0.000000,0.000000,0.000000,0.000000,1763131135.556834,0.000000
42.000000,17791.250979,34460.846717,20314.315893,10548.101133,33820.603349,29365.967735,15570.806333,14126.190737,35733.398585,31510.394098,10696.092033,5142.152922,19591.818105,32776.732180,18303.754127,25930.415205,0.013000,-0.014000,1.006813,192.000000,0.000000,0.000000,0.000000,0.000000,0.000000,0.000000,0.000000,0.000000,0.000000,1763131135.556849,0.000000
44.000000,17801.353967,34475.710628,20321.624913,10548.861092,33867.877289,29387.157188,15584.329138,14148.542481,35759.192498,31520.854714,10697.142565,5137.503760,19633.705274,32788.958584,18324.451843,25987.702726,0.015500,-0.013000,1.006406,192.000000,0.000000,72.000000,127.500000,80.000000,15.500000,56.000000,0.000000,0.000000,0.000000,1763131135.556864,0.000000
46.000000,17790.513371,34459.147985,20312.170126,10546.804732,33845.078509,29359.396322,15570.247539,14124.089673,35767.149719,31523.514572,10696.874344,5140.610652,19603.217495,32785.136436,18330.330352,25973.442313,0.015500,-0.013000,1.006406,192.000000,0.000000,0.000000,0.000000,0.000000,0.000000,0.000000,0.000000,0.000000,0.000000,1763131135.556876,0.000000
48.000000,17802.918589,34468.580421,20317.959227,10548.928147,33853.169841,29372.047409,15577.645967,14137.321906,35727.989462,31505.074382,10693.834507,5137.883739,19594.567370,32771.188947,18299.440241,25939.914696,0.015500,-0.013000,1.006406,192.000000,0.000000,0.000000,0.000000,0.000000,0.000000,0.000000,0.000000,0.000000,0.000000,1763131135.556887,0.000000
50.000000,17799.319959,34475.509462,20319.725015,10548.972851,33863.049312,29380.138741,15578.763554,14136.964278,35790.127312,31531.382386,10697.366082,5134.039239,19631.179527,32800.067401,18346.960050,26016.223552,0.015500,-0.013000,1.006406,192.000000,0.000000,0.000000,0.000000,0.000000,0.000000,0.000000,0.000000,0.000000,0.000000,1763131135.556898,0.000000
52.000000,17789.574598,34457.650418,20311.410166,10545.821255,33818.614044,29361.206813,15567.319461,14118.948772,35734.292654,31505.968452,10689.900600,5137.369649,19589.962910,32772.060665,18303.910590,25935.891382,0.015500,-0.013000,1.006406,192.000000,0.000000,0.000000,0.000000,0.000000,0.000000,0.000000,0.000000,0.000000,0.000000,1763131135.556909,0.000000
54.000000,17799.699938,34487.914680,20325.469413,10549.598700,33865.887984,29410.179485,15583.837400,14147.670763,35760.868878,31520.184162,10696.024978,5133.592204,19608.939541,32783.281241,18329.771558,25996.352851,0.015500,-0.013000,1.006406,192.000000,0.000000,0.000000,0.000000,0.000000,0.000000,0.000000,0.000000,0.000000,0.000000,1763131135.556920,0.000000
56.000000,17797.934150,34467.999276,20313.377120,10548.950499,33829.588751,29358.748121,15571.409830,14123.217955,35774.123463,31529.616598,10699.780071,5141.504722,19612.158193,32795.798218,18326.396445,25980.371354,0.018000,-0.018000,1.010000,192.000000,0.000000,72.000000,127.500000,56.000000,15.500000,72.000000,0.000000,0.000000,0.000000,1763131135.556931,0.000000
58.000000,17792.703842,34472.201404,20311.745442,10553.487903,33842.217486,29372.516796,15577.109525,14129.856423,35728.056518,31513.903321,10692.046367,5139.984803,19598.523629,32781.202529,18294.992244,25939.042978,0.018000,-0.018000,1.010000,192.000000,0.000000,0.000000,0.000000,0.000000,0.000000,0.000000,0.000000,0.000000,0.000000,1763131135.556942,0.000000
60.000000,17797.196543,34470.368561,20309.890248,10550.470418,33855.807347,29376.964793,15577.265987,14128.180042,35775.576326,31532.321159,10689.408861,5131.602899,19624.786928,32794.546520,18332.990209,26016.290607,0.018000,-0.018000,1.010000,192.000000,0.000000,0.000000,0.000000,0.000000,0.000000,0.000000,0.000000,0.000000,0.000000,1763131135.556953,0.000000
62.000000,17791.161572,34458.946819,20304.011739,10546.827083,33822.100916,29367.018267,15566.872426,14116.400673,35728.749422,31509.745897,10685.810230,5133.323983,19589.471172,32785.270546,18301.250732,25930.370501,0.018000,-0.018000,1.010000,192.000000,0.000000,0.000000,0.000000,0.000000,0.000000,0.000000,0.000000,0.000000,0.000000,1763131135.556964,0.000000
64.000000,17809.422947,34494.262575,20321.982541,10554.583139,33863.965734,29407.094944,15585.491429,14149.682420,35763.014646,31532.745842,10695.533239,5136.855559,19601.474059,32793.741857,18319.690921,25990.004956,0.018000,-0.018000,1.010000,192.000000,0.000000,0.000000,0.000000,0.000000,0.000000,0.000000,0.000000,0.000000,0.000000,1763131135.556976,0.000000
66.000000,17804.527915,34485.835968,20314.159431,10551.230377,33833.589713,29367.867633,15573.332080,14129.767016,35778.862033,31540.524249,10698.818946,5146.332699,19617.209687,32794.390058,18323.334256,25981.488941,0.016000,-0.020000,1.010000,192.000000,0.000000,64.000000,127.500000,48.000000,15.500000,72.000000,0.000000,0.000000,0.000000,1763131135.556987,0.000000
68.000000,17820.621171,34491.133331,20320.552030,10555.857188,33848.677140,29384.989069,15583.770345,14149.950641,35742.249875,31528.074327,10702.350521,5150.780696,19598.881256,32786.656354,18298.970854,25935.869030,0.016000,-0.020000,1.010000,192.000000,0.000000,0.000000,0.000000,0.000000,0.000000,0.000000,0.000000,0.000000,0.000000,1763131135.556998,0.000000
70.000000,17820.129433,34495.514273,20318.093338,10556.527741,33859.070701,29391.381668,15585.558484,14148.207205,35797.346925,31555.186994,10705.390359,5151.831228,19622.462347,32802.213168,18335.873584,26017.587008,0.016000,-0.020000,1.010000,192.000000,0.000000,0.000000,0.000000,0.000000,0.000000,0.000000,0.000000,0.000000,0.000000,1763131135.557009,0.000000
72.000000,17809.110023,34475.487110,20308.124460,10558.293528,33821.206846,29360.625668,15574.539074,14128.090635,35750.095338,31532.187048,10699.355388,5152.814705,19596.847248,32781.895433,18293.852305,25932.426862,0.016000,-0.020000,1.010000,192.000000,0.000000,0.000000,0.000000,0.000000,0.000000,0.000000,0.000000,0.000000,0.000000,1763131135.557020,0.000000
74.000000,17801.823354,34486.439465,20313.466527,10556.572444,33858.310742,29386.508988,15586.564313,14145.435589,35750.229448,31534.176354,10696.024978,5140.118914,19625.368074,32792.110180,18304.357625,25995.414078,0.016000,-0.020000,1.010000,192.000000,0.000000,0.000000,0.000000,0.000000,0.000000,0.000000,0.000000,0.000000,0.000000,1763131135.557032,0.000000
76.000000,17795.542514,34463.864203,20304.257608,10547.765857,33821.877399,29364.201947,15570.851036,14120.803967,35748.843640,31531.494144,10690.302931,5135.268585,19583.235035,32786.119912,18320.853212,25985.087572,0.018000,-0.022000,1.010000,192.000000,0.000000,72.000000,127.500000,40.000000,15.500000,72.000000,0.000000,0.000000,0.000000,1763131135.557042,0.000000
78.000000,17806.360758,34479.935107,20310.136117,10551.185674,33838.484745,29380.853996,15578.562388,14140.294688,35716.902997,31517.211380,10694.370949,5140.498893,19572.550901,32787.773941,18292.690014,25938.573592,0.018000,-0.022000,1.010000,192.000000,0.000000,0.000000,0.000000,0.000000,0.000000,0.000000,0.000000,0.000000,0.000000,1763131135.557053,0.000000
80.000000,17806.897200,34487.758218,20309.107937,10547.855264,33851.873440,29374.416694,15579.881141,14140.652316,35772.380027,31539.004331,10694.013321,5137.548463,19600.579989,32784.912918,18334.420721,26014.815392,0.018000,-0.022000,1.010000,192.000000,0.000000,0.000000,0.000000,0.000000,0.000000,0.000000,0.000000,0.000000,0.000000,1763131135.557064,0.000000
82.000000,17805.064357,34471.664962,20305.576361,10549.129313,33816.356518,29336.888115,15569.286414,14125.609592,35728.749422,31520.139458,10690.995835,5145.036297,19590.745221,32772.462997,18296.512162,25934.885554,0.018000,-0.022000,1.010000,192.000000,0.000000,0.000000,0.000000,0.000000,0.000000,0.000000,0.000000,0.000000,0.000000,1763131135.557075,0.000000
84.000000,17812.283970,34494.217872,20315.209963,10555.477209,33861.350579,29380.094037,15586.340795,14149.056572,35752.889306,31538.736110,10696.673178,5144.790428,19588.442992,32790.031468,18314.304151,25985.221682,0.018000,-0.022000,1.010000,192.000000,0.000000,0.000000,0.000000,0.000000,0.000000,0.000000,0.000000,0.000000,0.000000,1763131135.557086,0.000000
86.000000,17804.952598,34472.693142,20302.961207,10553.353793,33820.178666,29351.170880,15571.923920,14122.413292,35764.221640,31542.044168,10692.403995,5145.148056,19589.962910,32794.300651,18317.701616,25981.935976,0.018000,-0.014000,1.004000,192.000000,0.000000,72.000000,127.500000,72.000000,15.500000,48.000000,0.000000,0.000000,0.000000,1763131136.035891,0.000000
88.000000,17804.058528,34473.944840,20304.682291,10554.918415,33824.336091,29393.773305,15576.953063,14130.057589,35722.423878,31525.794450,10691.197001,5142.398792,19577.512989,32788.220976,18287.638520,25939.199440,0.018000,-0.014000,1.004000,192.000000,0.000000,0.000000,0.000000,0.000000,0.000000,0.000000,0.000000,0.000000,0.000000,1763131136.036009,0.000000
90.000000,17813.267447,34486.752389,20307.208038,10558.181770,33846.084338,29396.075534,15579.657624,14133.298592,35773.743483,31544.391101,10688.023053,5135.156826,19598.031890,32801.028526,18323.356607,26026.751223,0.018000,-0.014000,1.004000,192.000000,0.000000,0.000000,0.000000,0.000000,0.000000,0.000000,0.000000,0.000000,0.000000,1763131136.036106,0.000000
92.000000,17795.095479,34464.713569,20304.190553,10553.733772,33810.120381,29358.882232,15569.241711,14119.976952,35731.431631,31521.033528,10689.207696,5144.186931,19584.240864,32783.974145,18294.344043,25941.211097,0.018000,-0.014000,1.004000,192.000000,0.000000,0.000000,0.000000,0.000000,0.000000,0.000000,0.000000,0.000000,0.000000,1763131136.036204,0.000000
94.000000,17814.630904,34497.101247,20317.959227,10555.544264,33852.655751,29387.201892,15585.916112,14148.765999,35752.509326,31540.434842,10697.075510,5144.030469,19587.884198,32794.479465,18315.645256,25992.463647,0.018000,-0.014000,1.004000,192.000000,0.000000,0.000000,0.000000,0.000000,0.000000,0.000000,0.000000,0.000000,0.000000,1763131136.036302,0.000000
96.000000,17816.039063,34476.291773,20311.164297,10554.851360,33825.788954,29354.925973,15573.086211,14127.844766,35768.021437,31542.915886,10698.953056,5146.779734,19595.774364,32798.256910,18323.714235,25985.087572,0.020000,-0.014000,1.012000,192.000000,0.000000,80.000000,127.500000,72.000000,15.500000,80.000000,0.000000,0.000000,0.000000,1763131136.036407,0.000000
98.000000,17816.553154,34489.345192,20316.752233,10560.707517,33833.209733,29392.454552,15581.557522,14144.183891,35732.191590,31531.851772,10701.590562,5151.428896,19588.063012,32797.139322,18292.622959,25938.797109,0.020000,-0.014000,1.012000,192.000000,0.000000,0.000000,0.000000,0.000000,0.000000,0.000000,0.000000,0.000000,0.000000,1763131136.036488,0.000000
100.000000,17828.354875,34497.905910,20320.909658,10560.439296,33856.477899,29394.019174,15585.402022,14146.441418,35787.176882,31552.817709,10704.384530,5146.153885,19621.970608,32809.388078,18331.582049,26016.134145,0.020000,-0.014000,1.012000,192.000000,0.000000,0.000000,0.000000,0.000000,0.000000,0.000000,0.000000,0.000000,0.000000,1763131136.036512,0.000000
102.000000,17820.330598,34472.894308,20312.170126,10551.543302,33824.023166,29355.149490,15570.091077,14123.039141,35746.429652,31531.628255,10701.210582,5148.053783,19611.688806,32791.685497,18296.758031,25931.465737,0.020000,-0.014000,1.012000,192.000000,0.000000,0.000000,0.000000,0.000000,0.000000,0.000000,0.000000,0.000000,0.000000,1763131136.036536,0.000000
104.000000,17823.459843,34494.061410,20325.737634,10552.727944,33866.133853,29397.394287,15584.843228,14146.329659,35765.003951,31536.657397,10701.702321,5137.861387,19601.675225,32799.307442,18321.903744,25983.388839,0.020000,-0.014000,1.012000,192.000000,0.000000,0.000000,0.000000,0.000000,0.000000,0.000000,0.000000,0.000000,0.000000,1763131136.036559,0.000000
106.000000,17814.541497,34476.291773,20314.360596,10546.424752,33833.500306,29357.608182,15568.146475,14119.753435,35776.872727,31540.457194,10698.774242,5137.704925,19606.570257,32792.110180,18322.998979,25976.280984,0.016000,-0.012000,1.010000,192.000000,0.000000,64.000000,127.500000,80.000000,15.500000,72.000000,0.000000,0.000000,0.000000,1763131136.036582,0.000000
108.000000,17818.318941,34488.317011,20319.501498,10547.587043,33841.234009,29381.323383,15573.667356,14135.422007,35736.460774,31527.113202,10695.935571,5137.168483,19596.310806,32788.891529,18297.182715,25931.666903,0.016000,-0.012000,1.010000,192.000000,0.000000,0.000000,0.000000,0.000000,0.000000,0.000000,0.000000,0.000000,0.000000,1763131136.036606,0.000000
110.000000,17824.264505,34491.937994,20315.075852,10546.268290,33853.259248,29387.872444,15574.628481,14135.042028,35787.981544,31549.777871,10699.534202,5137.034373,19623.669341,32801.810837,18334.286610,26014.390709,0.016000,-0.012000,1.010000,192.000000,0.000000,0.000000,0.000000,0.000000,0.000000,0.000000,0.000000,0.000000,0.000000,1763131136.036629,0.000000
112.000000,17808.350063,34468.848642,20302.894152,10545.888310,33819.061079,29360.737426,15561.329193,14115.506603,35736.013739,31521.569970,10689.230047,5138.464885,19586.341928,32785.583471,18294.008767,25937.835984,0.016000,-0.012000,1.010000,192.000000,0.000000,0.000000,0.000000,0.000000,0.000000,0.000000,0.000000,0.000000,0.000000,1763131136.036652,0.000000
114.000000,17823.169270,34500.498712,20318.182745,10554.583139,33861.887021,29413.688709,15580.082307,14143.803912,35759.728940,31540.390139,10694.013321,5136.900262,19612.180544,32795.842921,18313.253619,25990.250825,0.016000,-0.012000,1.010000,192.000000,0.000000,0.000000,0.000000,0.000000,0.000000,0.000000,0.000000,0.000000,0.000000,1763131136.036676,0.000000
116.000000,17805.712558,34476.850566,20307.453907,10548.883444,33834.908466,29369.208738,15565.218397,14115.014865,35778.035018,31546.939200,10693.342768,5141.124742,19611.353530,32798.033392,18319.623866,25979.946671,0.018000,-0.012000,1.010000,192.000000,0.000000,72.000000,127.500000,80.000000,15.500000,72.000000,0.000000,0.000000,0.000000,1763131136.036728,0.000000
118.000000,17802.180982,34479.331610,20309.979655,10550.515121,33838.328283,29371.376857,15571.454534,14125.788406,35728.056518,31522.799316,10685.743175,5137.414353,19588.219474,32778.207395,18293.986415,25938.640647,0.018000,-0.012000,1.010000,192.000000,0.000000,0.000000,0.000000,0.000000,0.000000,0.000000,0.000000,0.000000,0.000000,1763131136.036751,0.000000
120.000000,17802.382148,34480.113921,20311.454870,10548.592871,33853.773338,29379.512892,15575.053164,14128.045932,35784.338210,31548.369711,10688.313626,5133.614556,19611.465289,32801.229692,18331.492642,26021.386805,0.018000,-0.012000,1.010000,192.000000,0.000000,0.000000,0.000000,0.000000,0.000000,0.000000,0.000000,0.000000,0.000000,1763131136.036775,0.000000
122.000000,17801.376319,34466.479357,20306.671596,10544.301336,33814.613082,29363.553746,15564.301975,14115.618362,35738.383024,31522.464040,10687.084280,5138.375478,19584.620843,32778.632078,18295.662796,25935.958437,0.018000,-0.012000,1.010000,192.000000,0.000000,0.000000,0.000000,0.000000,0.000000,0.000000,0.000000,0.000000,0.000000,1763131136.036798,0.000000
124.000000,17814.429738,34496.609509,20317.333378,10550.179845,33857.662542,29390.197026,15579.434106,14143.625098,35759.728940,31532.902304,10691.264056,5136.542635,19607.978416,32792.646622,18316.226401,25985.869883,0.018000,-0.012000,1.010000,192.000000,0.000000,0.000000,0.000000,0.000000,0.000000,0.000000,0.000000,0.000000,0.000000,1763131136.036822,0.000000
126.000000,17811.635770,34479.108093,20306.313968,10545.418924,33827.420631,29348.443967,15565.754839,14119.172289,35773.832890,31542.513554,10691.800498,5143.605786,19611.644103,32793.518340,18321.099081,25983.031211,0.017000,-0.012000,1.011000,192.000000,0.000000,64.000000,127.500000,80.000000,15.500000,80.000000,0.000000,0.000000,0.000000,1763131136.036845,0.000000
128.000000,17814.496793,34491.245090,20310.158469,10552.213854,33840.183477,29376.204834,15573.600301,14134.907917,35731.878666,31524.721566,10691.375815,5144.343393,19590.186428,32778.609726,18292.578255,25934.326760,0.017000,-0.012000,1.011000,192.000000,0.000000,0.000000,0.000000,0.000000,0.000000,0.000000,0.000000,0.000000,0.000000,1763131136.036869,0.000000
130.000000,17817.715444,34501.437485,20314.807631,10552.415020,33867.944344,29394.399154,15577.377746,14141.009944,35796.966946,31557.131595,10698.506021,5145.148056,19627.402082,32810.036279,18328.966895,26018.257561,0.017000,-0.012000,1.011000,192.000000,0.000000,0.000000,0.000000,0.000000,0.000000,0.000000,0.000000,0.000000,0.000000,1763131136.036892,0.000000
132.000000,17814.273276,34483.578442,20307.744480,10548.950499,33825.967768,29376.920089,15563.452609,14122.323885,35754.588038,31533.304636,10697.969579,5146.913844,19594.567370,32787.103389,18297.026252,25934.416167,0.017000,-0.012000,1.011000,192.000000,0.000000,0.000000,0.000000,0.000000,0.000000,0.000000,0.000000,0.000000,0.000000,1763131136.036915,0.000000
134.000000,17829.919497,34509.729983,20318.987408,10553.934938,33870.403036,29405.776191,15579.992900,14149.548310,35779.376123,31545.978075,10700.383568,5144.365745,19616.606190,32798.860407,18311.688997,25984.998165,0.017000,-0.012000,1.011000,192.000000,0.000000,0.000000,0.000000,0.000000,0.000000,0.000000,0.000000,0.000000,0.000000,1763131136.036938,0.000000
136.000000,17811.211087,34488.138197,20307.118631,10548.749333,33842.396300,29375.623688,15566.246577,14121.295705,35794.888234,31551.923639,10700.338864,5146.220940,19628.899649,32804.515398,18317.433395,25985.489903,0.019500,-0.011000,1.010500,192.000000,0.000000,88.000000,127.500000,88.000000,15.500000,72.000000,0.000000,0.000000,0.000000,1763131136.036961,0.000000
138.000000,17814.854421,34492.474436,20313.980617,10550.559825,33845.033806,29383.312688,15571.767458,14131.108121,35743.859201,31527.247313,10694.505059,5142.018812,19594.433259,32788.399790,18291.393613,25933.745615,0.019500,-0.011000,1.010500,192.000000,0.000000,0.000000,0.000000,0.000000,0.000000,0.000000,0.000000,0.000000,0.000000,1763131136.036985,0.000000
140.000000,17817.044892,34501.370430,20314.092376,10551.342136,33861.149414,29394.108581,15575.008461,14131.957487,35800.766742,31555.745787,10698.237800,5140.320079,19622.551754,32804.671860,18326.888183,26019.889238,0.019500,-0.011000,1.010500,192.000000,0.000000,0.000000,0.000000,0.000000,0.000000,0.000000,0.000000,0.000000,0.000000,1763131136.037008,0.000000
142.000000,17806.673683,34475.017723,20303.698814,10544.368392,33825.453678,29369.588717,15561.396249,14110.253943,35755.973846,31534.444575,10691.308760,5142.242329,19596.288454,32789.472674,18298.345005,25932.605676,0.019500,-0.011000,1.010500,192.000000,0.000000,0.000000,0.000000,0.000000,0.000000,0.000000,0.000000,0.000000,0.000000,1763131136.037031,0.000000
144.000000,17800.705767,34487.825273,20313.690044,10547.475284,33867.206736,29400.232959,15578.540037,14137.053685,35762.388797,31524.565104,10690.302931,5129.345373,19607.754899,32793.250119,18319.668570,25981.600700,0.019500,-0.011000,1.010500,192.000000,0.000000,0.000000,0.000000,0.000000,0.000000,0.000000,0.000000,0.000000,0.000000,1763131136.037055,0.000000
146.000000,17796.525991,34472.179052,20304.190553,10544.658964,33837.367158,29363.039656,15564.145513,14113.718464,35783.354733,31532.432918,10691.420518,5135.469751,19641.662495,32792.847787,18320.696750,25984.595833,0.017750,-0.015500,1.007250,192.000000,0.000000,64.000000,127.500000,48.000000,15.500000,48.000000,0.000000,0.000000,0.000000,1763131136.037078,0.000000
148.000000,17791.116868,34465.764101,20310.538448,10545.329517,33842.642169,29380.541072,15569.778153,14123.486176,35739.433556,31507.264853,10688.537143,5132.452265,19594.656777,32788.310383,18290.074860,25934.125594,0.017750,-0.015500,1.007250,192.000000,0.000000,0.000000,0.000000,0.000000,0.000000,0.000000,0.000000,0.000000,0.000000,1763131136.037101,0.000000
150.000000,17791.832124,34473.631915,20313.377120,10543.451970,33861.060007,29383.446799,15571.856865,14125.989571,35799.738562,31526.330891,10691.934608,5125.791445,19616.963818,32791.864311,18332.811395,26015.776517,0.017750,-0.015500,1.007250,192.000000,0.000000,0.000000,0.000000,0.000000,0.000000,0.000000,0.000000,0.000000,0.000000,1763131136.037124,0.000000
152.000000,17785.752450,34450.006121,20304.145849,10541.239147,33824.224332,29337.513964,15558.445818,14102.900219,35752.017588,31502.481580,10685.944341,5126.976088,19597.361338,32784.979973,18298.724985,25933.499746,0.017750,-0.015500,1.007250,192.000000,0.000000,0.000000,0.000000,0.000000,0.000000,0.000000,0.000000,0.000000,0.000000,1763131136.037148,0.000000
154.000000,17785.193656,34476.269421,20314.964094,10545.240110,33869.710132,29381.368087,15575.544903,14131.912784,35768.066140,31515.914978,10687.687777,5124.025658,19609.945370,32786.656354,18315.019407,25980.036078,0.017750,-0.015500,1.007250,192.000000,0.000000,0.000000,0.000000,0.000000,0.000000,0.000000,0.000000,0.000000,0.000000,1763131136.037171,0.000000
156.000000,17783.003185,34454.945857,20306.045748,10543.384915,33839.177649,29378.618822,15562.804408,14110.410405,35786.081646,31525.839153,10687.911294,5130.686478,19615.689768,32792.467808,18318.953314,25984.796999,0.016875,-0.013750,1.008625,192.000000,0.000000,64.000000,127.500000,80.000000,15.500000,72.000000,0.000000,0.000000,0.000000,1763131136.037194,0.000000
158.000000,17779.203389,34463.461872,20311.253704,10544.211929,33845.704358,29383.223281,15569.755801,14123.128548,35736.840753,31502.995670,10684.983216,5131.826416,19597.249579,32777.805063,18291.639482,25929.096452,0.016875,-0.013750,1.008625,192.000000,0.000000,0.000000,0.000000,0.000000,0.000000,0.000000,0.000000,0.000000,0.000000,1763131136.037217,0.000000
160.000000,17780.544493,34469.563898,20308.996178,10540.814464,33862.579925,29383.044467,15571.096906,14119.999304,35788.093303,31531.941179,10685.474954,5130.373553,19625.792757,32797.809875,18327.245811,26009.138049,0.016875,-0.013750,1.008625,192.000000,0.000000,0.000000,0.000000,0.000000,0.000000,0.000000,0.000000,0.000000,0.000000,1763131136.037241,0.000000
162.000000,17774.084839,34458.544488,20296.836829,10539.003973,33817.049422,29356.870575,15559.049315,14100.620341,35739.567666,31498.860597,10676.601312,5125.858501,19596.243751,32778.274450,18297.450936,25938.260667,0.016875,-0.013750,1.008625,192.000000,0.000000,0.000000,0.000000,0.000000,0.000000,0.000000,0.000000,0.000000,0.000000,1763131136.037264,0.000000
164.000000,17788.635825,34478.884575,20310.940780,10549.196368,33859.048350,29382.932709,15577.780077,14133.030371,35763.551088,31517.792525,10685.653768,5127.825454,19608.425451,32793.294822,18309.185601,25981.488941,0.016875,-0.013750,1.008625,192.000000,0.000000,0.000000,0.000000,0.000000,0.000000,0.000000,0.000000,0.000000,0.000000,1763131136.037287,0.000000
166.000000,17782.846723,34454.163546,20299.586093,10545.083647,33826.928893,29353.875441,15563.854940,14109.717501,35780.739579,31524.766269,10686.100803,5132.228748,19600.647044,32788.556253,18313.812412,25984.618185,0.015437,-0.013875,1.008312,192.000000,0.000000,56.000000,127.500000,72.000000,15.500000,64.000000,0.000000,0.000000,0.000000,1763131136.037310,0.000000
168.000000,17794.559037,34473.073122,20309.443213,10549.844569,33841.748100,29358.077569,15572.326252,14127.420083,35738.025396,31504.895568,10688.671254,5135.313289,19596.579027,32779.548500,18285.962139,25930.437557,0.015437,-0.013875,1.008312,192.000000,0.000000,0.000000,0.000000,0.000000,0.000000,0.000000,0.000000,0.000000,0.000000,1763131136.037333,0.000000
170.000000,17799.007034,34483.086703,20314.315893,10548.771685,33867.407902,29381.770418,15574.986109,14128.336504,35806.421734,31537.238543,10696.092033,5137.794332,19626.664475,32801.743782,18325.658837,26010.635616,0.015437,-0.013875,1.008312,192.000000,0.000000,0.000000,0.000000,0.000000,0.000000,0.000000,0.000000,0.000000,0.000000,1763131136.037357,0.000000
172.000000,17792.815601,34463.193651,20306.492782,10546.536511,33831.220428,29353.137833,15562.670298,14111.304475,35758.074910,31506.884874,10688.067757,5136.609690,19596.176695,32787.662183,18301.898933,25935.444347,0.015437,-0.013875,1.008312,192.000000,0.000000,0.000000,0.000000,0.000000,0.000000,0.000000,0.000000,0.000000,0.000000,1763131136.037376,0.000000
174.000000,17799.766993,34493.703782,20319.680312,10550.984508,33866.804405,29420.796564,15579.992900,14142.619269,35780.046675,31525.928560,10698.148393,5140.878873,19620.674207,32805.901206,18301.898933,25991.144894,0.015437,-0.013875,1.008312,192.000000,0.000000,0.000000,0.000000,0.000000,0.000000,0.000000,0.000000,0.000000,0.000000,1763131136.037387,0.000000
176.000000,17784.567807,34470.994409,20308.772660,10543.161397,33835.958998,29362.033828,15566.067763,14115.998342,35796.430504,31525.235656,10695.980274,5138.755457,19637.616830,32796.580529,18320.897915,25985.534607,0.014719,-0.013938,1.008156,192.000000,0.000000,56.000000,127.500000,72.000000,15.500000,64.000000,0.000000,0.000000,0.000000,1763131136.037398,0.000000
178.000000,17788.389956,34479.510424,20312.483050,10546.849435,33846.017283,29365.967735,15571.812161,14126.548365,35743.255704,31501.855731,10690.884076,5136.319117,19600.200009,32775.972220,18287.616168,25926.391891,0.014719,-0.013938,1.008156,192.000000,0.000000,0.000000,0.000000,0.000000,0.000000,0.000000,0.000000,0.000000,0.000000,1763131136.037408,0.000000
180.000000,17796.525991,34490.775703,20313.891210,10549.956328,33865.619763,29374.751970,15575.142571,14133.097426,35799.939728,31532.745842,10694.639170,5137.235539,19625.278667,32803.844846,18324.921229,26003.281892,0.014719,-0.013938,1.008156,192.000000,0.000000,0.000000,0.000000,0.000000,0.000000,0.000000,0.000000,0.000000,0.000000,1763131136.037418,0.000000
182.000000,17801.085746,34473.207232,20303.520000,10548.279947,33825.654844,29344.755929,15561.038621,14114.456071,35750.676483,31509.321214,10689.788841,5141.862350,19595.953178,32780.286107,18289.136087,25928.872934,0.014719,-0.013938,1.008156,192.000000,0.000000,0.000000,0.000000,0.000000,0.000000,0.000000,0.000000,0.000000,0.000000,1763131136.037429,0.000000
184.000000,17798.716462,34498.352945,20316.282846,10549.621052,33874.314591,29386.486636,15577.221284,14141.412275,35768.580230,31524.609807,10694.125079,5141.460018,19603.262198,32795.485293,18301.921284,25979.209063,0.014719,-0.013938,1.008156,192.000000,0.000000,0.000000,0.000000,0.000000,0.000000,0.000000,0.000000,0.000000,0.000000,1763131136.037439,0.000000
186.000000,17785.506581,34475.867090,20306.850410,10546.089476,33843.558591,29362.324400,15563.229092,14116.579487,35792.206024,31527.426127,10692.962789,5138.889568,19613.096966,32798.659241,18318.640389,25982.450066,0.014719,-0.013938,1.008156,192.000000,0.000000,0.000000,0.000000,0.000000,0.000000,0.000000,0.000000,0.000000,0.000000,1763131136.037450,0.000000
188.000000,17790.200447,34482.170282,20311.164297,10547.318822,33842.731576,29383.446799,15567.900606,14126.615420,35740.931122,31504.627348,10688.984178,5137.324946,19596.131992,32781.537805,18292.891180,25925.251952,0.020000,-0.008000,1.008000,192.000000,0.000000,80.000000,127.500000,96.000000,15.500000,64.000000,0.000000,0.000000,0.000000,1763131136.037461,0.000000
190.000000,17795.028424,34483.578442,20310.404338,10543.899005,33864.502175,29383.066819,15570.314595,14130.459920,35799.224472,31528.610769,10692.135774,5132.944004,19635.582821,32798.659241,18329.369227,26012.848438,0.020000,-0.008000,1.008000,192.000000,0.000000,0.000000,0.000000,0.000000,0.000000,0.000000,0.000000,0.000000,0.000000,1763131136.037471,0.000000
192.000000,17793.061470,34463.506575,20300.189590,10542.267328,33825.073698,29355.238897,15557.328231,14112.019731,35749.089509,31501.453400,10685.944341,5136.185007,19599.060070,32778.989706,18294.142877,25935.310237,0.020000,-0.008000,1.008000,192.000000,0.000000,0.000000,0.000000,0.000000,0.000000,0.000000,0.000000,0.000000,0.000000,1763131136.037482,0.000000
194.000000,17802.918589,34495.916605,20314.986445,10550.179845,33865.820928,29377.501235,15574.628481,14140.339391,35762.969942,31514.685633,10689.967655,5134.866254,19603.217495,32798.122799,18309.744395,25978.180883,0.020000,-0.008000,1.008000,192.000000,0.000000,0.000000,0.000000,0.000000,0.000000,0.000000,0.000000,0.000000,0.000000,1763131136.037493,0.000000
196.000000,17793.664967,34479.644535,20305.911637,10544.502502,33836.271922,29364.291354,15560.658641,14116.065397,35790.641402,31523.536923,10694.035672,5138.040201,19625.479832,32796.580529,18314.550020,25986.987470,0.020000,-0.008000,1.008000,192.000000,0.000000,0.000000,0.000000,0.000000,0.000000,0.000000,0.000000,0.000000,0.000000,1763131136.037503,0.000000
198.000000,17795.944845,34482.639668,20308.124460,10550.157493,33843.178611,29380.988107,15566.358336,14127.308324,35737.913637,31502.369821,10690.124117,5135.805027,19596.668434,32784.845863,18286.520932,25934.103243,0.020000,-0.014000,1.008000,192.000000,0.000000,80.000000,127.500000,72.000000,15.500000,64.000000,0.000000,0.000000,0.000000,1763131136.037514,0.000000
200.000000,17803.343273,34495.469570,20311.141945,10551.275081,33859.607143,29388.185369,15573.443839,14134.349124,35799.537396,31530.510668,10695.041501,5137.436704,19623.177603,32801.274395,18327.201107,26011.507334,0.020000,-0.014000,1.008000,192.000000,0.000000,0.000000,0.000000,0.000000,0.000000,0.000000,0.000000,0.000000,0.000000,1763131136.037525,0.000000
202.000000,17796.950674,34477.923450,20301.821268,10550.135142,33820.648053,29359.396322,15561.016269,14115.685417,35755.504460,31508.695365,10689.990007,5138.397829,19601.988149,32788.109218,18292.958235,25929.655246,0.020000,-0.014000,1.008000,192.000000,0.000000,0.000000,0.000000,0.000000,0.000000,0.000000,0.000000,0.000000,0.000000,1763131136.037535,0.000000
204.000000,17803.387976,34491.468607,20309.711434,10551.744467,33859.137757,29378.887043,15574.181446,14137.143092,35771.016570,31523.447516,10694.147431,5139.403658,19603.888047,32798.078096,18297.629749,25978.963194,0.020000,-0.014000,1.008000,192.000000,0.000000,0.000000,0.000000,0.000000,0.000000,0.000000,0.000000,0.000000,0.000000,1763131136.037546,0.000000
206.000000,17791.765069,34467.865165,20297.596788,10545.642441,33828.292349,29364.671333,15559.094019,14106.364740,35784.315858,31522.531095,10681.764565,5131.021754,19605.855001,32796.267604,18310.727872,25990.653156,0.020000,-0.014000,1.008000,192.000000,0.000000,0.000000,0.000000,0.000000,0.000000,0.000000,0.000000,0.000000,0.000000,1763131136.516128,0.000000
208.000000,17787.473534,34476.917622,20304.257608,10546.983546,33843.424480,29373.969659,15565.240749,14120.178118,35731.677500,31501.006365,10679.887018,5129.345373,19591.013442,32783.370648,18282.475267,25929.029397,0.014000,-0.010000,1.002000,192.000000,0.000000,56.000000,127.500000,88.000000,15.500000,40.000000,0.000000,0.000000,0.000000,1763131136.516247,0.000000
210.000000,17790.066336,34488.317011,20307.476259,10546.581214,33865.552707,29382.731543,15569.442877,14123.061493,35795.670545,31528.499011,10686.547838,5127.043143,19628.206745,32797.631061,18326.217631,26010.814430,0.014000,-0.010000,1.002000,192.000000,0.000000,0.000000,0.000000,0.000000,0.000000,0.000000,0.000000,0.000000,0.000000,1763131136.516347,0.000000
212.000000,17789.574598,34462.344284,20298.222637,10544.010764,33823.822000,29356.825871,15556.747086,14103.146088,35750.654131,31506.594301,10681.563399,5129.546539,19598.031890,32781.873081,18288.711403,25931.801013,0.014000,-0.010000,1.002000,192.000000,0.000000,0.000000,0.000000,0.000000,0.000000,0.000000,0.000000,0.000000,0.000000,1763131136.516446,0.000000
214.000000,17792.636787,34489.859282,20309.197343,10546.670621,33861.909373,29396.880197,15572.639176,14130.594031,35756.420881,31516.071441,10681.831620,5121.522262,19599.842381,32795.552349,18307.218648,25982.897101,0.014000,-0.010000,1.002000,192.000000,0.000000,0.000000,0.000000,0.000000,0.000000,0.000000,0.000000,0.000000,0.000000,1763131136.516544,0.000000
216.000000,17793.083822,34474.861261,20299.228465,10546.290642,33836.294274,29363.732560,15561.128028,14111.639751,35782.170091,31528.364900,10685.832582,5129.948870,19622.819975,32800.335622,18314.304151,25982.494769,0.014000,-0.010000,1.002000,192.000000,0.000000,0.000000,0.000000,0.000000,0.000000,0.000000,0.000000,0.000000,0.000000,1763131136.516642,0.000000
218.000000,17797.688281,34479.152796,20303.788221,10547.587043,33834.774355,29365.408941,15566.246577,14121.832147,35734.024433,31505.722583,10682.323358,5132.318155,19593.293320,32789.204453,18281.000052,25927.710644,0.020000,-0.012000,1.006000,192.000000,0.000000,80.000000,127.500000,80.000000,15.500000,56.000000,0.000000,0.000000,0.000000,1763131136.516711,0.000000
220.000000,17787.607645,34491.289793,20306.381024,10547.519988,33861.462338,29374.573156,15573.153266,14127.978877,35794.955289,31534.310464,10688.112460,5128.138379,19609.632446,32799.150979,18318.908610,26012.960197,0.020000,-0.012000,1.006000,192.000000,0.000000,0.000000,0.000000,0.000000,0.000000,0.000000,0.000000,0.000000,0.000000,1763131136.516734,0.000000
222.000000,17784.724269,34462.456043,20295.831000,10544.569557,33821.586826,29362.123235,15560.323365,14105.157745,35748.843640,31509.991766,10681.988082,5129.345373,19595.997881,32785.292898,18285.068069,25933.656208,0.020000,-0.012000,1.006000,192.000000,0.000000,0.000000,0.000000,0.000000,0.000000,0.000000,0.000000,0.000000,0.000000,1763131136.516757,0.000000
224.000000,17795.341348,34486.595927,20308.750309,10546.134179,33868.279620,29403.965700,15575.835475,14131.532804,35762.008817,31519.044223,10683.306835,5125.791445,19599.752974,32791.841959,18302.569485,25977.867958,0.020000,-0.012000,1.006000,192.000000,0.000000,0.000000,0.000000,0.000000,0.000000,0.000000,0.000000,0.000000,0.000000,1763131136.516781,0.000000
226.000000,17794.559037,34474.861261,20298.289692,10548.525816,33839.267056,29368.851110,15562.424429,14110.611571,35789.769684,31525.258008,10684.424422,5127.154902,19615.354492,32802.168465,18312.314846,25985.914586,0.020000,-0.012000,1.006000,192.000000,0.000000,0.000000,0.000000,0.000000,0.000000,0.000000,0.000000,0.000000,0.000000,1763131136.516804,0.000000
228.000000,17803.097403,34487.735866,20305.308140,10549.643403,33837.702434,29382.977412,15567.855903,14122.592106,35738.427727,31506.393135,10682.636283,5131.446437,19596.064937,32790.366744,18280.240092,25925.698987,0.020000,-0.012000,1.004000,192.000000,0.000000,80.000000,127.500000,80.000000,15.500000,48.000000,0.000000,0.000000,0.000000,1763131136.516828,0.000000
230.000000,17805.936075,34491.289793,20308.415032,10548.838740,33854.935629,29393.952119,15572.885045,14126.883641,35795.849359,31534.131650,10688.201867,5129.166559,19634.174661,32812.673785,18318.171003,26012.624921,0.020000,-0.012000,1.004000,192.000000,0.000000,0.000000,0.000000,0.000000,0.000000,0.000000,0.000000,0.000000,0.000000,1763131136.516851,0.000000
232.000000,17789.976929,34466.121729,20297.485029,10543.697839,33815.104820,29350.589734,15559.250481,14104.800118,35749.290675,31506.236673,10682.166896,5128.943041,19587.884198,32785.941098,18282.363508,25934.818498,0.020000,-0.012000,1.004000,192.000000,0.000000,0.000000,0.000000,0.000000,0.000000,0.000000,0.000000,0.000000,0.000000,1763131136.516875,0.000000
234.000000,17798.247075,34492.161511,20308.996178,10546.022421,33863.965734,29394.533264,15573.019156,14130.392865,35760.265381,31515.289130,10685.117326,5125.165597,19602.859867,32796.602881,18297.808563,25976.772723,0.020000,-0.012000,1.004000,192.000000,0.000000,0.000000,0.000000,0.000000,0.000000,0.000000,0.000000,0.000000,0.000000,1763131136.516898,0.000000
236.000000,17796.816563,34474.168357,20302.178896,10541.574424,33834.752004,29358.859880,15562.178560,14110.410405,35784.427617,31523.112240,10684.692643,5126.730219,19610.012425,32804.336584,18316.315808,25983.902929,0.020000,-0.012000,1.004000,192.000000,0.000000,0.000000,0.000000,0.000000,0.000000,0.000000,0.000000,0.000000,0.000000,1763131136.516921,0.000000
238.000000,17805.332578,34481.164453,20307.230390,10544.681316,33845.324379,29379.758761,15566.201874,14123.933211,35736.080794,31504.135609,10687.531315,5129.010097,19587.012480,32780.263755,18286.543284,25928.492955,0.022000,-0.010000,1.000000,192.000000,0.000000,88.000000,127.500000,88.000000,15.500000,32.000000,0.000000,0.000000,0.000000,1763131136.516945,0.000000
240.000000,17812.731005,34494.977831,20310.180820,10548.391706,33861.574097,29394.555616,15573.287377,14131.465749,35795.648193,31534.243409,10694.125079,5131.312326,19618.640199,32803.531921,18321.479061,26012.960197,0.022000,-0.010000,1.000000,192.000000,0.000000,0.000000,0.000000,0.000000,0.000000,0.000000,0.000000,0.000000,0.000000,1763131136.516968,0.000000
242.000000,17799.610531,34476.716456,20301.620102,10545.150703,33826.012471,29359.530432,15559.697516,14109.337522,35755.727977,31513.478638,10688.492440,5133.994536,19602.099908,32789.003287,18290.946578,25935.667865,0.022000,-0.010000,1.000000,192.000000,0.000000,0.000000,0.000000,0.000000,0.000000,0.000000,0.000000,0.000000,0.000000,1763131136.516992,0.000000
244.000000,17810.518183,34499.515235,20314.248838,10550.515121,33867.966696,29393.438029,15575.231978,14134.930269,35768.446120,31523.581627,10690.660559,5132.318155,19608.760727,32797.206378,18301.675415,25972.883519,0.022000,-0.010000,1.000000,192.000000,0.000000,0.000000,0.000000,0.000000,0.000000,0.000000,0.000000,0.000000,0.000000,1763131136.517015,0.000000
246.000000,17798.045909,34471.553203,20299.787259,10543.787246,33838.372986,29357.027037,15561.798580,14109.404577,35794.441199,31529.437784,10689.632379,5132.318155,19620.495393,32795.574700,18310.191430,25984.729944,0.022000,-0.010000,1.000000,192.000000,0.000000,0.000000,0.000000,0.000000,0.000000,0.000000,0.000000,0.000000,0.000000,1763131136.517038,0.000000
248.000000,17814.005055,34483.980773,20305.174029,10546.044772,33840.943437,29361.586793,15566.403039,14122.726217,35743.099242,31503.889740,10685.273789,5129.680649,19598.590684,32778.140340,18281.916473,25927.487126,0.020000,-0.014000,0.998000,192.000000,0.000000,80.000000,127.500000,72.000000,15.500000,24.000000,0.000000,0.000000,0.000000,1763131136.517061,0.000000
250.000000,17813.848593,34494.083761,20311.924256,10545.374220,33861.171765,29399.942386,15572.147438,14130.482272,35806.712306,31535.003368,10694.080376,5129.032448,19621.523574,32802.280224,18325.278857,26005.919398,0.020000,-0.014000,0.998000,192.000000,0.000000,0.000000,0.000000,0.000000,0.000000,0.000000,0.000000,0.000000,0.000000,1763131136.517085,0.000000
252.000000,17806.204296,34472.559032,20302.938855,10540.523892,33822.860875,29368.739351,15559.384592,14110.633923,35766.747387,31513.903321,10691.889905,5132.631079,19610.034777,32784.868215,18289.024328,25934.460871,0.020000,-0.014000,0.998000,192.000000,0.000000,0.000000,0.000000,0.000000,0.000000,0.000000,0.000000,0.000000,0.000000,1763131136.517108,0.000000
254.000000,17815.972008,34495.983660,20314.338245,10547.922319,33863.541050,29395.136761,15574.181446,14135.891394,35778.504405,31522.106412,10695.108556,5132.944004,19618.081405,32801.810837,18298.814392,25968.212005,0.020000,-0.014000,0.998000,192.000000,0.000000,0.000000,0.000000,0.000000,0.000000,0.000000,0.000000,0.000000,0.000000,1763131136.517132,0.000000
0.000000,17799.364662,34477.543471,20305.106974,10543.429618,33848.543030,29366.191252,15561.217435,14113.092615,35799.537396,31527.359072,10691.688739,5131.804065,19619.154289,32798.614538,18318.349817,25983.813522,0.020000,-0.014000,0.998000,192.000000,0.000000,0.000000,0.000000,0.000000,0.000000,0.000000,0.000000,0.000000,0.000000,1763131136.517157,0.000000
2.000000,17804.840839,34483.667849,20308.482088,10543.519025,33844.922047,29387.045430,15565.263100,14120.088711,35749.536544,31506.594301,10689.654731,5131.446437,19597.584855,32785.650526,18284.039889,25926.682463,0.022000,-0.015000,1.002000,192.000000,0.000000,96.000000,127.500000,64.000000,15.500000,56.000000,0.000000,0.000000,0.000000,1763131136.517180,0.000000
4.000000,17806.293703,34492.921471,20307.789184,10542.759066,33868.011399,29382.888005,15570.895740,14127.375379,35797.436332,31532.365862,10689.498268,5126.730219,19619.847193,32800.022697,18324.451843,26011.708499,0.022000,-0.015000,1.002000,192.000000,0.000000,0.000000,0.000000,0.000000,0.000000,0.000000,0.000000,0.000000,0.000000,1763131136.517203,0.000000
6.000000,17801.353967,34461.718435,20296.903884,10540.300374,33824.671367,29364.246650,15556.322403,14103.280199,35753.135175,31509.723545,10682.569228,5127.557233,19607.821954,32783.750627,18291.483020,25939.087682,0.022000,-0.015000,1.002000,192.000000,0.000000,0.000000,0.000000,0.000000,0.000000,0.000000,0.000000,0.000000,0.000000,1763131136.517227,0.000000
8.000000,17813.602723,34486.730038,20309.487916,10545.105999,33866.714998,29399.674165,15571.476885,14128.761188,35761.762948,31518.731298,10686.346672,5127.087847,19604.849172,32789.807950,18302.949465,25975.275156,0.022000,-0.015000,1.002000,192.000000,0.000000,0.000000,0.000000,0.000000,0.000000,0.000000,0.000000,0.000000,0.000000,1763131136.517250,0.000000
10.000000,17806.070185,34476.895270,20302.067137,10546.692973,33843.938570,29382.463322,15561.329193,14110.119833,35795.290565,31530.533019,10687.441908,5129.948870,19630.799548,32822.150924,18316.047587,25985.981642,0.022000,-0.015000,1.002000,192.000000,0.000000,0.000000,0.000000,0.000000,0.000000,0.000000,0.000000,0.000000,0.000000,1763131136.517273,0.000000
12.000000,17804.706729,34483.042000,20305.799878,10543.742543,33841.502230,29385.212587,15563.072629,14115.730121,35747.524887,31509.723545,10685.899637,5132.385210,19593.963873,32785.359953,18284.755145,25930.683426,0.021000,-0.014500,1.007000,192.000000,0.000000,80.000000,127.500000,72.000000,15.500000,80.000000,0.000000,0.000000,0.000000,1763131136.517297,0.000000
14.000000,17815.323808,34489.903985,20312.036015,10548.838740,33870.693609,29400.456476,15569.062897,14125.497833,35803.895987,31537.976150,10690.302931,5128.004268,19635.046379,32810.125686,18324.205974,26015.240075,0.021000,-0.014500,1.007000,192.000000,0.000000,0.000000,0.000000,0.000000,0.000000,0.000000,0.000000,0.000000,0.000000,1763131136.517321,0.000000
16.000000,17810.764052,34470.145043,20302.245951,10542.692011,33825.274864,29365.677162,15554.869539,14103.168440,35763.752254,31513.791563,10686.033748,5132.027582,19604.200972,32796.647584,18292.824124,25940.987580,0.021000,-0.014500,1.007000,192.000000,0.000000,0.000000,0.000000,0.000000,0.000000,0.000000,0.000000,0.000000,0.000000,1763131136.517341,0.000000
18.000000,17824.868003,34492.161511,20315.209963,10548.771685,33868.346675,29400.814104,15571.990975,14131.488100,35774.324629,31520.318272,10691.129946,5128.205434,19618.394329,32802.928424,18297.450936,25978.851435,0.021000,-0.014500,1.007000,192.000000,0.000000,0.000000,0.000000,0.000000,0.000000,0.000000,0.000000,0.000000,0.000000,1763131136.517353,0.000000
20.000000,17812.954523,34470.949706,20305.084623,10542.870825,33840.831678,29382.217453,15558.021135,14105.738891,35799.179768,31528.364900,10691.264056,5126.618460,19625.546888,32807.599939,18314.751186,25989.982604,0.021000,-0.014500,1.007000,192.000000,0.000000,0.000000,0.000000,0.000000,0.000000,0.000000,0.000000,0.000000,0.000000,1763131136.517365,0.000000
22.000000,17810.428776,34476.112959,20306.626893,10544.971889,33837.076585,29399.249482,15560.971565,14112.220897,35744.060367,31503.979147,10685.162030,5124.562100,19608.268989,32792.087828,18283.637557,25932.069234,0.017500,-0.012250,1.008500,192.000000,0.000000,56.000000,127.500000,88.000000,15.500000,72.000000,0.000000,0.000000,0.000000,1763131136.517376,0.000000
24.000000,17812.820412,34489.367543,20313.757099,10545.821255,33856.746120,29403.295148,15568.437048,14122.435644,35801.683164,31534.355168,10690.437042,5123.623326,19635.493414,32816.585340,18318.796851,26011.507334,0.017500,-0.012250,1.008500,192.000000,0.000000,0.000000,0.000000,0.000000,0.000000,0.000000,0.000000,0.000000,0.000000,1763131136.517386,0.000000
26.000000,17803.812659,34465.451177,20304.011739,10540.836816,33819.239893,29360.938592,15554.131932,14101.022673,35760.757120,31509.544731,10687.285446,5126.529053,19601.854038,32789.897357,18291.326558,25933.790318,0.017500,-0.012250,1.008500,192.000000,0.000000,0.000000,0.000000,0.000000,0.000000,0.000000,0.000000,0.000000,0.000000,1763131136.517397,0.000000
28.000000,17818.877735,34491.133331,20319.233277,10547.564691,33870.805367,29395.896720,15571.700403,14130.191699,35773.989352,31519.044223,10694.192135,5126.841977,19629.950181,32795.105314,18300.781345,25972.905871,0.017500,-0.012250,1.008500,192.000000,0.000000,0.000000,0.000000,0.000000,0.000000,0.000000,0.000000,0.000000,0.000000,1763131136.517408,0.000000
30.000000,17817.044892,34476.291773,20308.638550,10544.122522,33845.324379,29374.260232,15559.853978,14108.130528,35801.750219,31529.057804,10695.488536,5126.260832,19622.082367,32801.050878,18318.305113,25988.730906,0.017500,-0.012250,1.008500,192.000000,0.000000,0.000000,0.000000,0.000000,0.000000,0.000000,0.000000,0.000000,0.000000,1763131136.517418,0.000000
32.000000,17816.776671,34480.829177,20310.493745,10546.380049,33846.039634,29387.313651,15562.782057,14118.009999,35748.106032,31511.444630,10694.013321,5130.015925,19605.899704,32788.891529,18282.229398,25924.134365,0.018750,-0.012125,1.010250,192.000000,0.000000,80.000000,127.500000,80.000000,15.500000,80.000000,0.000000,0.000000,0.000000,1763131136.517429,0.000000
34.000000,17822.856346,34498.062372,20314.718224,10543.787246,33864.613934,29394.443857,15568.526455,14125.900164,35806.175864,31534.377519,10697.008454,5125.165597,19634.487585,32805.074192,18328.117529,26013.518991,0.018750,-0.012125,1.010250,192.000000,0.000000,0.000000,0.000000,0.000000,0.000000,0.000000,0.000000,0.000000,0.000000,1763131136.517440,0.000000
36.000000,17813.267447,34470.525023,20306.984521,10544.614261,33826.526562,29357.228202,15555.428333,14107.951714,35770.457777,31511.601092,10695.421481,5129.948870,19610.057129,32793.272471,18295.640444,25941.278153,0.018750,-0.012125,1.010250,192.000000,0.000000,0.000000,0.000000,0.000000,0.000000,0.000000,0.000000,0.000000,0.000000,1763131136.517450,0.000000
38.000000,17829.047779,34501.661003,20315.075852,10546.804732,33859.316571,29384.273813,15571.096906,14135.533766,35770.994219,31520.631197,10699.243629,5128.652469,19612.895800,32791.730200,18299.574351,25972.905871,0.018750,-0.012125,1.010250,192.000000,0.000000,0.000000,0.000000,0.000000,0.000000,0.000000,0.000000,0.000000,0.000000,1763131136.517461,0.000000
40.000000,17820.330598,34479.845700,20306.828059,10546.000069,33838.931780,29395.583796,15560.837455,14116.065397,35798.397457,31531.583551,10698.193097,5132.452265,19632.364170,32800.268567,18315.533497,25994.207083,0.018750,-0.012125,1.010250,192.000000,0.000000,0.000000,0.000000,0.000000,0.000000,0.000000,0.000000,0.000000,0.000000,1763131136.517472,0.000000
42.000000,17823.884526,34482.192633,20311.343111,10547.519988,33836.920123,29390.889930,15565.553673,14122.659161,35748.933047,31510.528208,10697.388434,5133.815722,19602.859867,32791.573738,18286.297415,25926.503650,0.016375,-0.015063,1.007125,192.000000,0.000000,56.000000,127.500000,56.000000,15.500000,48.000000,0.000000,0.000000,0.000000,1763131136.517482,0.000000
44.000000,17819.838860,34489.635764,20314.271189,10547.609395,33868.793710,29401.395250,15572.728583,14128.157691,35801.660812,31533.706967,10698.506021,5128.496007,19629.369036,32808.315195,18325.234154,26012.803735,0.016375,-0.015063,1.007125,192.000000,0.000000,0.000000,0.000000,0.000000,0.000000,0.000000,0.000000,0.000000,0.000000,1763131136.517493,0.000000
46.000000,17807.366587,34468.736883,20302.022434,10546.022421,33826.414803,29360.111578,15558.803446,14103.347254,35760.310085,31514.059784,10690.392338,5129.993573,19624.876335,32800.693250,18297.830915,25939.981751,0.016375,-0.015063,1.007125,192.000000,0.000000,0.000000,0.000000,0.000000,0.000000,0.000000,0.000000,0.000000,0.000000,1763131136.517503,0.000000
48.000000,17829.785386,34500.386953,20310.672559,10552.459723,33873.934612,29417.421450,15573.622653,14131.108121,35768.759044,31526.777926,10693.365120,5131.289975,19617.164983,32797.541654,18299.149668,25973.934051,0.016375,-0.015063,1.007125,192.000000,0.000000,0.000000,0.000000,0.000000,0.000000,0.000000,0.000000,0.000000,0.000000,1763131136.517514,0.000000
50.000000,17815.927305,34480.851529,20300.770736,10544.368392,33846.620780,29394.957947,15558.065839,14104.934228,35795.312917,31536.746804,10688.134812,5127.914861,19622.283533,32806.370593,18319.690921,26000.197351,0.016375,-0.015063,1.007125,192.000000,0.000000,0.000000,0.000000,0.000000,0.000000,0.000000,0.000000,0.000000,0.000000,1763131136.517524,0.000000
52.000000,17826.611439,34488.227604,20306.693948,10549.151665,33843.938570,29397.573101,15563.564368,14116.199507,35746.608466,31514.149191,10687.710129,5129.770056,19604.849172,32791.976069,18285.380994,25933.835022,0.013188,-0.016531,1.006563,192.000000,0.000000,40.000000,127.500000,56.000000,15.500000,56.000000,0.000000,0.000000,0.000000,1763131136.517534,0.000000
54.000000,17829.181889,34499.872863,20309.554971,10550.425714,33873.733446,29406.536151,15570.806333,14122.346237,35800.856149,31541.910057,10691.465222,5127.847806,19638.399141,32813.769020,18324.585953,26017.207029,0.013188,-0.016531,1.006563,192.000000,0.000000,0.000000,0.000000,0.000000,0.000000,0.000000,0.000000,0.000000,0.000000,1763131136.517545,0.000000
56.000000,17814.854421,34472.290811,20299.206114,10546.044772,33833.947341,29377.702400,15555.897719,14097.580504,35763.573440,31518.977167,10686.257265,5128.473655,19606.212629,32798.480427,18293.874656,25942.641609,0.013188,-0.016531,1.006563,192.000000,0.000000,0.000000,0.000000,0.000000,0.000000,0.000000,0.000000,0.000000,0.000000,1763131136.517556,0.000000
58.000000,17820.576468,34497.414171,20306.135155,10550.604528,33867.586716,29405.999709,15570.873388,14124.067321,35767.976733,31525.392118,10685.139678,5123.891547,19617.746129,32804.850674,18299.507296,25976.392743,0.013188,-0.016531,1.006563,192.000000,0.000000,0.000000,0.000000,0.000000,0.000000,0.000000,0.000000,0.000000,0.000000,1763131136.517566,0.000000
60.000000,17825.113872,34491.759180,20298.692024,10546.938842,33854.756815,29365.788921,15561.508007,14108.711673,35796.005821,31540.010159,10684.849105,5128.563062,19631.447748,32809.455134,18311.219610,25998.163342,0.013188,-0.016531,1.006563,192.000000,0.000000,0.000000,0.000000,0.000000,0.000000,0.000000,0.000000,0.000000,0.000000,1763131136.517577,0.000000
62.000000,17835.060398,34494.553148,20307.051576,10551.029211,33845.994931,29402.244616,15565.173693,14119.999304,35748.843640,31524.855676,10688.715957,5134.933309,19594.857942,32793.160712,18277.312014,25926.838926,0.012594,-0.015266,1.006281,192.000000,0.000000,48.000000,127.500000,72.000000,15.500000,56.000000,0.000000,0.000000,0.000000,1763131136.517588,0.000000
64.000000,17833.071093,34510.869922,20311.320759,10550.291604,33874.649867,29425.624541,15571.074554,14124.804929,35804.253614,31551.945991,10696.851992,5131.357030,19630.553678,32817.255892,18314.237096,26019.598665,0.012594,-0.015266,1.006281,192.000000,0.000000,0.000000,0.000000,0.000000,0.000000,0.000000,0.000000,0.000000,0.000000,1763131136.517598,0.000000
66.000000,17817.357816,34480.918584,20301.664806,10544.502502,33836.115460,29369.834586,15554.042525,14095.814716,35764.668675,31523.671034,10690.168821,5125.791445,19620.048358,32799.508607,18296.199238,25937.299542,0.012594,-0.015266,1.006281,192.000000,0.000000,0.000000,0.000000,0.000000,0.000000,0.000000,0.000000,0.000000,0.000000,1763131136.517610,0.000000
68.000000,17821.582296,34497.436523,20312.259532,10545.508331,33875.454530,29408.167828,15569.353470,14117.898240,35773.229393,31530.108336,10689.945303,5122.036352,19612.091137,32802.570796,18302.100098,25969.798979,0.012594,-0.015266,1.006281,192.000000,0.000000,0.000000,0.000000,0.000000,0.000000,0.000000,0.000000,0.000000,0.000000,1763131136.517620,0.000000
70.000000,17820.956447,34488.406418,20306.090451,10540.568595,33855.650885,29384.586738,15559.719868,14101.715577,35801.705516,31538.132612,10688.358329,5120.561137,19624.474004,32808.024622,18321.479061,25995.369374,0.012594,-0.015266,1.006281,192.000000,0.000000,0.000000,0.000000,0.000000,0.000000,0.000000,0.000000,0.000000,0.000000,1763131136.998018,0.000000
72.000000,17832.199375,34497.995317,20308.884419,10546.938842,33847.783071,29380.183444,15563.430257,14116.646542,35751.078814,31520.385327,10690.660559,5128.004268,19603.396309,32794.032430,18284.978662,25924.402586,0.012594,-0.015266,1.006281,192.000000,0.000000,0.000000,0.000000,0.000000,0.000000,0.000000,0.000000,0.000000,0.000000,1763131136.998138,0.000000
74.000000,17833.763997,34510.869922,20311.633684,10552.012688,33872.124120,29400.881159,15571.543940,14129.364685,35807.114638,31552.437729,10697.343731,5133.100466,19640.969591,32809.030450,18317.813375,26008.243979,0.016000,-0.014000,1.010000,192.000000,0.000000,64.000000,127.500000,72.000000,15.500000,72.000000,0.000000,0.000000,0.000000,1763131136.998240,0.000000
76.000000,17832.020561,34493.077933,20300.971902,10552.392668,33830.996910,29380.541072,15557.887025,14108.532859,35767.261477,31536.165659,10697.813117,5138.397829,19602.815163,32805.096543,18287.482058,25936.606638,0.016000,-0.014000,1.010000,192.000000,0.000000,0.000000,0.000000,0.000000,0.000000,0.000000,0.000000,0.000000,0.000000,1763131136.998343,0.000000
78.000000,17838.390808,34516.100230,20314.584114,10556.125409,33874.225184,29413.644005,15573.019156,14135.757284,35777.565632,31545.039302,10703.356350,5137.392001,19628.296152,32804.783619,18294.254636,25972.280022,0.016000,-0.014000,1.010000,192.000000,0.000000,0.000000,0.000000,0.000000,0.000000,0.000000,0.000000,0.000000,0.000000,1763131136.998445,0.000000
80.000000,17834.188680,34504.745544,20308.929123,10551.118618,33849.727672,29389.615880,15563.474961,14116.043045,35811.249710,31555.410511,10702.350521,5137.459056,19627.156213,32809.633948,18314.102985,25993.245958,0.016000,-0.014000,1.010000,192.000000,0.000000,0.000000,0.000000,0.000000,0.000000,0.000000,0.000000,0.000000,0.000000,1763131136.998546,0.000000
82.000000,17834.121625,34503.851474,20311.544277,10548.347002,33846.687835,29368.716999,15565.888949,14121.966257,35758.410187,31531.963531,10699.310684,5140.342431,19609.990073,32795.217072,18278.496656,25922.145059,0.016000,-0.014000,1.010000,192.000000,0.000000,0.000000,0.000000,0.000000,0.000000,0.000000,0.000000,0.000000,0.000000,1763131136.998630,0.000000
84.000000,17834.903936,34513.127448,20314.517059,10545.463627,33868.860766,29371.689781,15572.929749,14130.281106,35807.740487,31552.840060,10702.171707,5133.435742,19649.463254,32803.286052,18316.494622,26008.087517,0.020000,-0.010000,1.004000,192.000000,0.000000,80.000000,127.500000,88.000000,15.500000,48.000000,0.000000,0.000000,0.000000,1763131136.998654,0.000000
86.000000,17840.491872,34501.370430,20305.799878,10546.134179,33822.056213,29370.058104,15558.490522,14109.672798,35779.174957,31534.779851,10700.025940,5135.760323,19606.860829,32795.909976,18288.420831,25936.204307,0.020000,-0.010000,1.004000,192.000000,0.000000,0.000000,0.000000,0.000000,0.000000,0.000000,0.000000,0.000000,0.000000,1763131136.998679,0.000000
88.000000,17838.949602,34517.776611,20313.555934,10552.727944,33869.240745,29421.914151,15573.376784,14134.326772,35784.338210,31549.241429,10702.551687,5138.174312,19616.829707,32801.319099,18289.449011,25967.832025,0.020000,-0.010000,1.004000,192.000000,0.000000,0.000000,0.000000,0.000000,0.000000,0.000000,0.000000,0.000000,0.000000,1763131136.998704,0.000000
90.000000,17830.858270,34505.438448,20305.397547,10549.933976,33846.777242,29402.959872,15562.446780,14116.512432,35804.901815,31560.037322,10701.054120,5136.900262,19626.083329,32817.591169,18308.000959,25989.110886,0.020000,-0.010000,1.004000,192.000000,0.000000,0.000000,0.000000,0.000000,0.000000,0.000000,0.000000,0.000000,0.000000,1763131136.998729,0.000000
92.000000,17831.037084,34504.365564,20306.828059,10547.810560,33838.484745,29382.820950,15562.312670,14119.842842,35749.849468,31541.127746,10697.522545,5140.677707,19597.786021,32795.060610,18275.210950,25920.446327,0.020000,-0.010000,1.004000,192.000000,0.000000,0.000000,0.000000,0.000000,0.000000,0.000000,0.000000,0.000000,0.000000,1763131136.998755,0.000000
94.000000,17835.574488,34515.250863,20310.158469,10546.916490,33871.475920,29390.219377,15570.024022,14130.415217,35804.365373,31563.188918,10699.958885,5135.425047,19638.265030,32808.583416,18320.875564,26009.205104,0.022000,-0.008000,1.006000,192.000000,0.000000,88.000000,127.500000,96.000000,15.500000,56.000000,0.000000,0.000000,0.000000,1763131136.998780,0.000000
96.000000,17829.852442,34499.381125,20300.077832,10548.123485,33827.375928,29367.934688,15556.948251,14109.024597,35768.356713,31541.798299,10695.868515,5138.487236,19599.998844,32794.233596,18290.141915,25936.628990,0.022000,-0.008000,1.006000,192.000000,0.000000,0.000000,0.000000,0.000000,0.000000,0.000000,0.000000,0.000000,0.000000,1763131136.998806,0.000000
98.000000,17840.201299,34532.193486,20313.555934,10552.839703,33868.525489,29414.471020,15573.466191,14135.690228,35776.939783,31549.263781,10700.808251,5138.643699,19613.879277,32808.359898,18293.785249,25965.798016,0.022000,-0.008000,1.006000,192.000000,0.000000,0.000000,0.000000,0.000000,0.000000,0.000000,0.000000,0.000000,0.000000,1763131136.998831,0.000000
100.000000,17839.418988,34514.803829,20307.632721,10548.615223,33851.582867,29388.364183,15563.810237,14117.294743,35813.171960,31564.842947,10702.551687,5139.984803,19625.859812,32822.799125,18313.052453,25989.200293,0.022000,-0.008000,1.006000,192.000000,0.000000,0.000000,0.000000,0.000000,0.000000,0.000000,0.000000,0.000000,0.000000,1763131136.998855,0.000000
102.000000,17835.909764,34506.891311,20306.224561,10547.721153,33842.329245,29371.242746,15563.609071,14119.686379,35758.656056,31541.105394,10699.131870,5142.354088,19621.210649,32797.519302,18269.913586,25919.440498,0.022000,-0.008000,1.006000,192.000000,0.000000,0.000000,0.000000,0.000000,0.000000,0.000000,0.000000,0.000000,0.000000,1763131136.998880,0.000000
104.000000,17827.259639,34512.523951,20308.012701,10547.542339,33860.858841,29420.394232,15569.688746,14124.380246,35804.141856,31562.764235,10696.673178,5135.067419,19623.557582,32817.255892,18308.738566,26015.508296,0.022000,-0.010000,1.004000,192.000000,0.000000,88.000000,127.500000,88.000000,15.500000,48.000000,0.000000,0.000000,0.000000,1763131136.998905,0.000000
106.000000,17821.358779,34488.741695,20300.144887,10545.933014,33819.597521,29374.684915,15554.377801,14098.385167,35772.044751,31537.484412,10689.833544,5132.765190,19610.168887,32790.433799,18287.817334,25940.205269,0.022000,-0.010000,1.004000,192.000000,0.000000,0.000000,0.000000,0.000000,0.000000,0.000000,0.000000,0.000000,0.000000,1763131136.998929,0.000000
108.000000,17832.735817,34518.245997,20315.969922,10549.285775,33868.704303,29394.063877,15570.985147,14126.615420,35775.531623,31544.994598,10694.840335,5129.613594,19613.879277,32800.447381,18293.740546,25962.892290,0.022000,-0.010000,1.004000,192.000000,0.000000,0.000000,0.000000,0.000000,0.000000,0.000000,0.000000,0.000000,0.000000,1763131136.998954,0.000000
110.000000,17825.717369,34507.427753,20308.526791,10545.798903,33848.140698,29379.199967,15560.189254,14109.672798,35806.533492,31557.310409,10699.981236,5132.631079,19640.008466,32806.862331,18315.131165,25989.289700,0.022000,-0.010000,1.004000,192.000000,0.000000,0.000000,0.000000,0.000000,0.000000,0.000000,0.000000,0.000000,0.000000,1763131136.998979,0.000000
112.000000,17830.299476,34504.857302,20309.443213,10549.509293,33841.144602,29388.073610,15561.820932,14115.126624,35751.391739,31533.528153,10696.136736,5137.928443,19604.558600,32793.674802,18275.590929,25921.429804,0.022000,-0.010000,1.004000,192.000000,0.000000,0.000000,0.000000,0.000000,0.000000,0.000000,0.000000,0.000000,0.000000,1763131136.999003,0.000000
114.000000,17829.874793,34520.972910,20316.931047,10549.866921,33876.169786,29414.493372,15571.834513,14127.487138,35807.449914,31560.618467,10700.584734,5132.966355,19650.580841,32810.751535,18313.901819,26008.735717,0.022000,-0.010000,1.004000,192.000000,0.000000,88.000000,127.500000,88.000000,15.500000,48.000000,0.000000,0.000000,0.000000,1763131136.999028,0.000000
116.000000,17827.349046,34500.833988,20308.146812,10546.312993,33835.422556,29374.170825,15556.188292,14104.777766,35774.056408,31544.681674,10698.371911,5137.682574,19617.880239,32801.453209,18288.420831,25936.338417,0.022000,-0.010000,1.004000,192.000000,0.000000,0.000000,0.000000,0.000000,0.000000,0.000000,0.000000,0.000000,0.000000,1763131136.999053,0.000000
118.000000,17836.401503,34531.053547,20319.121518,10552.146799,33868.033751,29408.078421,15571.633347,14132.516281,35772.447082,31549.576706,10700.182402,5137.637870,19614.058091,32802.816666,18293.785249,25961.461778,0.022000,-0.010000,1.004000,192.000000,0.000000,0.000000,0.000000,0.000000,0.000000,0.000000,0.000000,0.000000,0.000000,1763131136.999077,0.000000
120.000000,17822.096386,34513.552131,20306.738652,10548.637575,33846.330207,29374.863729,15562.111504,14109.851612,35804.298318,31562.294848,10702.283466,5137.168483,19624.161079,32816.115953,18312.471308,25988.172112,0.022000,-0.010000,1.004000,192.000000,0.000000,0.000000,0.000000,0.000000,0.000000,0.000000,0.000000,0.000000,0.000000,1763131136.999102,0.000000
122.000000,17823.683360,34514.312090,20304.458774,10547.743505,33836.584847,29367.644115,15563.050278,14112.824394,35744.127422,31534.288112,10694.505059,5135.201530,19600.870562,32784.577642,18270.025345,25919.686367,0.022000,-0.010000,1.004000,192.000000,0.000000,0.000000,0.000000,0.000000,0.000000,0.000000,0.000000,0.000000,0.000000,1763131136.999127,0.000000
124.000000,17827.147880,34521.710518,20306.291617,10547.832912,33863.965734,29400.411773,15571.186313,14121.072188,35795.424675,31563.054808,10694.035672,5133.435742,19626.083329,32806.728221,18305.139936,26005.315900,0.022000,-0.008000,1.004000,192.000000,0.000000,88.000000,127.500000,96.000000,15.500000,48.000000,0.000000,0.000000,0.000000,1763131136.999152,0.000000
126.000000,17808.931209,34494.128465,20293.282901,10543.653136,33819.530466,29360.357447,15553.819007,14095.010054,35752.598733,31540.054863,10682.591579,5131.602899,19618.461385,32787.371610,18280.262444,25936.293714,0.022000,-0.008000,1.004000,192.000000,0.000000,0.000000,0.000000,0.000000,0.000000,0.000000,0.000000,0.000000,0.000000,1763131136.999177,0.000000
128.000000,17827.930192,34521.107021,20309.107937,10548.034078,33858.824832,29397.260177,15568.928786,14125.184909,35754.118652,31545.329874,10688.917123,5130.194739,19596.713137,32798.145151,18280.731831,25957.751388,0.022000,-0.008000,1.004000,192.000000,0.000000,0.000000,0.000000,0.000000,0.000000,0.000000,0.000000,0.000000,0.000000,1763131136.999202,0.000000
130.000000,17819.101252,34512.076916,20301.262474,10543.742543,33835.780184,29411.408831,15558.915205,14106.700016,35794.731771,31560.260839,10693.521582,5131.938175,19630.330161,32811.086811,18299.015558,25993.670642,0.022000,-0.008000,1.004000,192.000000,0.000000,0.000000,0.000000,0.000000,0.000000,0.000000,0.000000,0.000000,0.000000,1763131136.999227,0.000000
132.000000,17824.644485,34511.249901,20305.777527,10544.301336,33830.102841,29390.487598,15561.575062,14114.120795,35741.959303,31536.299769,10694.058024,5137.079076,19592.555713,32786.164616,18268.840703,25920.379272,0.022000,-0.008000,1.004000,192.000000,0.000000,0.000000,0.000000,0.000000,0.000000,0.000000,0.000000,0.000000,0.000000,1763131136.999248,0.000000
134.000000,17825.538555,34524.482134,20309.912599,10548.861092,33857.863707,29393.706249,15569.509932,14125.877813,35794.485902,31560.283191,10699.578905,5133.413390,19619.891896,32804.805971,18304.737604,26005.226494,0.020000,-0.014000,1.004000,192.000000,0.000000,80.000000,127.500000,72.000000,15.500000,48.000000,0.000000,0.000000,0.000000,1763131136.999259,0.000000
136.000000,17817.871907,34500.968099,20295.652186,10541.663830,33814.166047,29355.127139,15551.695591,14098.921609,35759.594829,31543.765252,10694.728577,5135.782675,19600.959969,32786.902223,18282.318805,25939.691179,0.020000,-0.014000,1.004000,192.000000,0.000000,0.000000,0.000000,0.000000,0.000000,0.000000,0.000000,0.000000,0.000000,1763131136.999270,0.000000
138.000000,17830.612401,34532.551114,20310.136117,10546.268290,33853.169841,29400.679994,15567.855903,14128.358856,35759.214849,31549.621409,10697.746062,5135.022716,19605.407966,32794.077133,18283.950482,25961.171205,0.020000,-0.014000,1.004000,192.000000,0.000000,0.000000,0.000000,0.000000,0.000000,0.000000,0.000000,0.000000,0.000000,1763131136.999282,0.000000
140.000000,17831.595878,34518.313052,20303.341186,10544.793075,33834.260265,29374.215528,15557.864673,14109.315170,35798.643327,31564.686485,10701.232934,5136.788504,19625.479832,32806.303538,18313.141860,25989.043831,0.020000,-0.014000,1.004000,192.000000,0.000000,0.000000,0.000000,0.000000,0.000000,0.000000,0.000000,0.000000,0.000000,1763131136.999293,0.000000
142.000000,17819.347122,34515.787305,20302.961207,10541.976755,33822.950282,29364.693685,15557.283528,14108.488155,35740.551143,31534.511630,10693.722748,5134.821550,19618.215515,32790.634965,18273.512217,25917.831173,0.020000,-0.014000,1.004000,192.000000,0.000000,0.000000,0.000000,0.000000,0.000000,0.000000,0.000000,0.000000,0.000000,1763131136.999305,0.000000
144.000000,17825.672665,34520.771744,20311.097242,10545.150703,33856.232030,29421.578875,15568.951138,14121.586278,35789.434408,31557.310409,10697.477841,5128.741876,19613.812222,32803.710735,18314.371206,26006.120563,0.016000,-0.011000,1.002000,192.000000,0.000000,48.000000,127.500000,96.000000,15.500000,32.000000,0.000000,0.000000,0.000000,1763131136.999316,0.000000
146.000000,17822.208145,34500.833988,20298.557913,10543.541377,33813.473143,29378.328249,15553.975469,14096.641731,35761.360617,31546.022778,10694.840335,5136.788504,19591.594588,32789.562081,18284.598682,25936.852507,0.016000,-0.011000,1.002000,192.000000,0.000000,0.000000,0.000000,0.000000,0.000000,0.000000,0.000000,0.000000,0.000000,1763131136.999331,0.000000
148.000000,17828.332523,34525.175038,20308.772660,10550.850397,33855.628533,29398.981261,15569.666394,14123.217955,35759.237201,31547.520345,10695.354425,5135.045068,19608.559562,32791.998421,18287.794982,25963.831063,0.016000,-0.011000,1.002000,192.000000,0.000000,0.000000,0.000000,0.000000,0.000000,0.000000,0.000000,0.000000,0.000000,1763131136.999343,0.000000
150.000000,17821.515241,34509.797038,20302.961207,10548.704630,33838.283579,29391.672241,15559.876330,14103.324902,35796.721077,31562.294848,10696.807289,5137.168483,19621.456518,32803.956604,18308.425642,25993.760049,0.016000,-0.011000,1.002000,192.000000,0.000000,0.000000,0.000000,0.000000,0.000000,0.000000,0.000000,0.000000,0.000000,1763131136.999354,0.000000
152.000000,17821.962276,34510.355831,20306.246913,10548.056429,33831.063966,29380.965755,15559.943385,14108.197583,35738.561838,31537.797336,10693.700396,5138.353126,19598.903608,32792.110180,18271.455857,25921.049824,0.016000,-0.011000,1.002000,192.000000,0.000000,0.000000,0.000000,0.000000,0.000000,0.000000,0.000000,0.000000,0.000000,1763131136.999366,0.000000
154.000000,17834.836881,34525.689128,20312.460698,10551.118618,33867.676123,29412.459363,15569.264063,14121.966257,35794.083571,31568.799206,10700.808251,5135.782675,19636.923926,32814.394869,18309.766747,26006.008805,0.017000,-0.011500,1.004000,192.000000,0.000000,72.000000,127.500000,80.000000,15.500000,56.000000,0.000000,0.000000,0.000000,1763131136.999377,0.000000
156.000000,17806.740738,34496.184825,20299.317872,10546.223586,33824.067870,29367.152377,15554.109580,14095.010054,35758.365483,31544.234639,10692.068719,5134.642736,19622.372940,32801.989651,18287.415002,25939.042978,0.017000,-0.011500,1.004000,192.000000,0.000000,0.000000,0.000000,0.000000,0.000000,0.000000,0.000000,0.000000,0.000000,1763131136.999388,0.000000
158.000000,17823.862174,34520.190599,20309.420861,10553.778476,33852.678103,29400.679994,15570.068725,14122.145071,35751.727015,31547.028607,10693.476879,5135.939137,19622.462347,32800.000346,18282.564674,25959.092493,0.017000,-0.011500,1.004000,192.000000,0.000000,0.000000,0.000000,0.000000,0.000000,0.000000,0.000000,0.000000,0.000000,1763131136.999399,0.000000
160.000000,17812.283970,34510.378183,20298.714375,10550.962156,33836.115460,29394.533264,15559.094019,14102.788461,35787.623917,31561.825462,10690.124117,5136.721449,19620.763614,32805.588282,18301.206029,25997.358679,0.017000,-0.011500,1.004000,192.000000,0.000000,0.000000,0.000000,0.000000,0.000000,0.000000,0.000000,0.000000,0.000000,1763131136.999411,0.000000
162.000000,17825.046816,34518.447163,20300.927198,10550.425714,33822.458544,29378.328249,15558.535225,14112.913801,35730.604616,31544.234639,10687.777184,5138.666050,19590.365242,32798.480427,18265.040906,25927.084795,0.017000,-0.011500,1.004000,192.000000,0.000000,0.000000,0.000000,0.000000,0.000000,0.000000,0.000000,0.000000,0.000000,1763131136.999422,0.000000
164.000000,17818.050720,34512.970986,20309.532620,10548.279947,33857.260210,29395.047354,15569.644042,14124.044970,35777.677390,31561.065502,10696.829640,5134.687440,19632.297114,32808.739878,18307.129241,26002.231360,0.017500,-0.011750,1.005000,192.000000,0.000000,72.000000,127.500000,80.000000,15.500000,56.000000,0.000000,0.000000,0.000000,1763131136.999434,0.000000
166.000000,17807.433642,34482.572613,20301.061309,10542.669659,33810.276843,29380.406961,15555.249519,14098.519277,35738.964169,31530.890647,10687.799536,5131.647603,19600.155306,32796.133494,18279.927168,25937.120728,0.017500,-0.011750,1.005000,192.000000,0.000000,0.000000,0.000000,0.000000,0.000000,0.000000,0.000000,0.000000,0.000000,1763131136.999445,0.000000
168.000000,17805.645502,34501.705706,20311.343111,10547.117656,33846.732539,29408.145476,15570.851036,14125.676647,35734.069137,31529.996578,10692.314588,5129.770056,19609.319521,32798.703945,18272.707554,25950.911754,0.017500,-0.011750,1.005000,192.000000,0.000000,0.000000,0.000000,0.000000,0.000000,0.000000,0.000000,0.000000,0.000000,1763131136.999456,0.000000
170.000000,17804.505563,34489.881634,20302.469468,10540.635650,33836.495440,29377.501235,15559.518702,14102.676702,35771.709475,31540.434842,10690.749966,5124.807969,19628.162042,32795.731163,18308.202125,25988.529740,0.017500,-0.011750,1.005000,192.000000,0.000000,0.000000,0.000000,0.000000,0.000000,0.000000,0.000000,0.000000,0.000000,1763131136.999468,0.000000
172.000000,17799.208200,34470.927354,20302.603579,10542.535549,33824.090221,29384.318517,15557.931728,14105.090690,35717.506494,31515.579702,10686.525486,5124.651507,19623.982265,32778.833244,18269.354793,25920.714548,0.017500,-0.011750,1.005000,192.000000,0.000000,0.000000,0.000000,0.000000,0.000000,0.000000,0.000000,0.000000,0.000000,1763131136.999479,0.000000
174.000000,17806.472517,34499.537587,20311.790146,10548.704630,33861.305876,29399.942386,15569.129952,14124.000266,35773.072931,31544.905191,10694.549763,5128.674821,19617.366149,32801.877892,18309.789098,26002.007842,0.015750,-0.012875,1.005500,192.000000,0.000000,56.000000,127.500000,72.000000,15.500000,56.000000,0.000000,0.000000,0.000000,1763131136.999490,0.000000
176.000000,17803.522087,34476.202366,20298.826134,10545.374220,33812.668480,29383.111523,15553.193158,14097.804022,35750.564724,31532.455269,10694.438004,5133.413390,19613.588704,32792.356049,18276.887331,25942.306333,0.015750,-0.012875,1.005500,192.000000,0.000000,0.000000,0.000000,0.000000,0.000000,0.000000,0.000000,0.000000,0.000000,1763131136.999502,0.000000
178.000000,17807.143069,34498.956442,20308.884419,10548.972851,33858.333094,29411.766459,15568.258234,14123.195603,35742.741614,31531.672958,10693.298065,5128.607765,19617.276742,32795.194721,18277.557883,25961.931164,0.015750,-0.012875,1.005500,192.000000,0.000000,0.000000,0.000000,0.000000,0.000000,0.000000,0.000000,0.000000,0.000000,1763131136.999513,0.000000
180.000000,17800.459898,34486.394761,20302.692986,10541.216796,33840.854030,29377.568290,15557.149417,14102.587295,35773.877594,31540.747767,10691.733443,5124.226823,19626.686827,32803.688384,18310.504354,25991.100191,0.015750,-0.012875,1.005500,192.000000,0.000000,0.000000,0.000000,0.000000,0.000000,0.000000,0.000000,0.000000,0.000000,1763131136.999525,0.000000
182.000000,17816.374340,34493.770837,20305.576361,10543.071990,33830.594579,29383.111523,15558.177597,14106.543554,35722.312119,31514.529170,10689.610027,5125.389114,19632.677094,32783.594165,18273.534569,25912.980844,0.015750,-0.012875,1.005500,192.000000,0.000000,0.000000,0.000000,0.000000,0.000000,0.000000,0.000000,0.000000,0.000000,1763131136.999556,0.000000
184.000000,17824.331561,34510.132314,20314.852335,10543.764894,33862.088187,29398.221302,15569.599339,14117.808833,35779.286716,31545.352226,10698.103690,5125.165597,19630.911306,32803.129590,18310.191430,25995.727002,0.014875,-0.008438,1.005750,192.000000,0.000000,56.000000,127.500000,112.000000,15.500000,56.000000,0.000000,0.000000,0.000000,1763131136.999567,0.000000
186.000000,17798.492944,34487.020610,20302.983559,10540.948575,33819.821038,29359.575136,15554.310746,14092.886638,35747.435480,31525.079194,10693.454527,5124.226823,19611.979379,32791.573738,18287.772630,25935.399644,0.014875,-0.008438,1.005750,192.000000,0.000000,0.000000,0.000000,0.000000,0.000000,0.000000,0.000000,0.000000,0.000000,1763131136.999578,0.000000
188.000000,17810.942866,34497.458875,20312.617160,10542.915528,33856.388492,29406.402040,15568.817028,14116.490080,35740.148811,31524.185124,10695.779108,5119.197681,19618.774309,32786.879872,18281.603549,25961.439426,0.014875,-0.008438,1.005750,192.000000,0.000000,0.000000,0.000000,0.000000,0.000000,0.000000,0.000000,0.000000,0.000000,1763131136.999589,0.000000
190.000000,17802.695072,34484.360753,20306.425727,10537.282889,33837.523620,29392.119276,15557.730562,14096.060586,35780.180786,31539.138441,10692.940437,5116.649582,19632.855908,32806.147075,18303.664720,26000.823200,0.014875,-0.008438,1.005750,192.000000,0.000000,0.000000,0.000000,0.000000,0.000000,0.000000,0.000000,0.000000,0.000000,1763131137.478882,0.000000
192.000000,17806.628979,34481.700895,20306.381024,10541.395610,33823.240855,29378.685877,15559.608109,14100.486231,35724.793163,31509.254159,10687.911294,5117.342486,19597.316634,32779.280279,18277.155552,25923.195591,0.014875,-0.008438,1.005750,192.000000,0.000000,0.000000,0.000000,0.000000,0.000000,0.000000,0.000000,0.000000,0.000000,1763131137.478986,0.000000
194.000000,17822.297552,34509.841741,20312.393643,10545.061296,33863.697513,29407.810200,15570.672222,14120.669856,35781.387780,31544.860488,10696.695530,5121.634021,19639.226155,32802.459038,18307.263351,26001.583159,0.014437,-0.008219,1.006875,192.000000,0.000000,56.000000,127.500000,96.000000,15.500000,64.000000,0.000000,0.000000,0.000000,1763131137.479063,0.000000
196.000000,17817.536630,34490.172206,20302.335358,10541.619127,33827.733556,29366.347714,15556.076533,14098.742795,35761.718245,31532.768194,10696.516716,5129.345373,19605.519725,32791.752552,18285.157476,25934.438519,0.014437,-0.008219,1.006875,192.000000,0.000000,0.000000,0.000000,0.000000,0.000000,0.000000,0.000000,0.000000,0.000000,1763131137.479138,0.000000
198.000000,17816.687264,34511.696936,20315.880515,10544.949537,33859.942420,29415.856828,15573.779115,14124.581411,35757.247896,31534.444575,10700.607085,5128.853634,19623.736396,32799.016869,18284.241055,25948.520118,0.014437,-0.008219,1.006875,192.000000,0.000000,0.000000,0.000000,0.000000,0.000000,0.000000,0.000000,0.000000,0.000000,1763131137.479214,0.000000
200.000000,17818.833032,34499.872863,20309.666730,10540.814464,33852.543992,29385.749028,15563.810237,14107.661141,35794.754123,31550.560182,10703.378702,5130.373553,19639.606135,32802.347279,18307.352758,25980.907796,0.014437,-0.008219,1.006875,192.000000,0.000000,0.000000,0.000000,0.000000,0.000000,0.000000,0.000000,0.000000,0.000000,1763131137.479257,0.000000
202.000000,17817.223706,34498.934090,20310.717262,10537.819330,33835.400204,29387.045430,15561.932690,14108.197583,35743.233352,31524.475697,10700.025940,5129.390076,19621.612981,32789.092694,18267.700764,25907.549370,0.014437,-0.008219,1.006875,192.000000,0.000000,0.000000,0.000000,0.000000,0.000000,0.000000,0.000000,0.000000,0.000000,1763131137.479293,0.000000
204.000000,17821.202316,34507.606567,20314.047672,10542.759066,33864.211603,29404.122162,15572.706231,14122.212127,35794.016515,31546.603924,10704.205716,5123.600975,19640.701370,32801.810837,18310.951389,25988.753258,0.015219,-0.011109,1.005437,192.000000,0.000000,64.000000,127.500000,72.000000,15.500000,48.000000,0.000000,0.000000,0.000000,1763131137.479310,0.000000
206.000000,17814.161517,34483.332572,20297.373271,10545.329517,33816.781201,29372.583851,15558.311708,14095.501792,35758.901925,31532.075290,10696.807289,5129.255966,19623.423472,32787.684535,18280.418906,25928.291789,0.015219,-0.011109,1.005437,192.000000,0.000000,0.000000,0.000000,0.000000,0.000000,0.000000,0.000000,0.000000,0.000000,1763131137.479321,0.000000
208.000000,17812.283970,34499.448180,20304.905809,10547.899967,33846.732539,29394.197988,15573.577949,14115.886583,35746.362596,31531.985883,10695.823812,5127.668992,19612.538172,32796.535825,18272.461685,25949.570650,0.015219,-0.011109,1.005437,192.000000,0.000000,0.000000,0.000000,0.000000,0.000000,0.000000,0.000000,0.000000,0.000000,1763131137.479333,0.000000
210.000000,17800.929284,34484.673677,20298.513210,10544.077819,33832.114498,29387.827741,15564.123161,14096.865248,35777.051541,31538.512592,10688.939475,5120.427027,19610.906495,32798.927462,18301.474250,25988.887368,0.015219,-0.011109,1.005437,192.000000,0.000000,0.000000,0.000000,0.000000,0.000000,0.000000,0.000000,0.000000,0.000000,1763131137.479344,0.000000
212.000000,17805.220819,34482.684372,20300.346053,10541.283851,33818.211713,29381.099866,15560.725696,14098.318112,35722.960320,31518.820705,10687.844239,5124.785617,19595.819067,32783.482407,18255.608470,25913.539638,0.015219,-0.011109,1.005437,192.000000,0.000000,0.000000,0.000000,0.000000,0.000000,0.000000,0.000000,0.000000,0.000000,1763131137.479356,0.000000
214.000000,17815.413215,34497.078895,20309.934951,10541.641479,33866.737350,29404.680956,15570.180484,14113.562001,35770.748350,31541.418319,10691.241704,5118.415370,19618.349626,32798.189854,18306.436337,26000.130296,0.015219,-0.011109,1.005437,192.000000,0.000000,0.000000,0.000000,0.000000,0.000000,0.000000,0.000000,0.000000,0.000000,1763131137.479367,0.000000
216.000000,17807.478345,34481.365619,20298.267340,10540.970926,33826.079527,29369.968697,15556.210644,14093.266617,35749.938875,31530.153040,10691.241704,5125.299707,19611.174716,32794.568872,18286.163305,25942.976885,0.018000,-0.012000,1.004000,192.000000,0.000000,72.000000,127.500000,80.000000,15.500000,48.000000,0.000000,0.000000,0.000000,1763131137.479379,0.000000
218.000000,17826.432625,34509.350003,20309.085585,10544.994240,33862.803443,29407.474924,15572.817990,14119.932249,35749.402434,31532.902304,10696.449661,5126.573757,19610.101832,32787.036334,18283.950482,25955.829138,0.018000,-0.012000,1.004000,192.000000,0.000000,0.000000,0.000000,0.000000,0.000000,0.000000,0.000000,0.000000,0.000000,1763131137.479390,0.000000
220.000000,17811.658122,34493.100285,20304.235256,10544.971889,33853.169841,29395.248520,15565.218397,14105.761243,35788.763856,31550.135499,10701.478803,5128.071323,19630.665437,32807.801105,18307.464517,25990.787267,0.018000,-0.012000,1.004000,192.000000,0.000000,0.000000,0.000000,0.000000,0.000000,0.000000,0.000000,0.000000,0.000000,1763131137.479401,0.000000
222.000000,17813.490965,34491.937994,20303.877628,10543.854301,33837.210695,29380.831645,15561.731525,14104.151917,35734.270303,31526.330891,10698.237800,5130.261794,19601.004672,32796.021735,18269.265386,25911.170353,0.018000,-0.012000,1.004000,192.000000,0.000000,0.000000,0.000000,0.000000,0.000000,0.000000,0.000000,0.000000,0.000000,1763131137.479412,0.000000
224.000000,17825.024465,34511.249901,20309.666730,10546.044772,33874.001667,29403.988052,15570.426353,14120.200470,35787.556861,31553.868241,10699.243629,5125.634983,19645.305830,32807.219959,18306.972779,26002.454877,0.018000,-0.012000,1.004000,192.000000,0.000000,0.000000,0.000000,0.000000,0.000000,0.000000,0.000000,0.000000,0.000000,1763131137.479424,0.000000
226.000000,17820.978799,34493.390857,20303.542352,10545.664793,33840.027015,29377.992973,15556.702382,14098.452222,35766.680332,31543.027645,10698.036635,5131.580547,19626.776234,32801.944947,18285.336290,25939.333551,0.020000,-0.014000,1.002000,192.000000,0.000000,80.000000,127.500000,72.000000,15.500000,40.000000,0.000000,0.000000,0.000000,1763131137.479435,0.000000
228.000000,17827.505508,34516.301395,20308.370329,10545.195406,33872.012362,29396.187293,15569.912263,14118.591144,35756.107957,31543.072348,10698.886001,5132.385210,19634.867565,32807.085849,18277.960214,25953.593964,0.020000,-0.014000,1.002000,192.000000,0.000000,0.000000,0.000000,0.000000,0.000000,0.000000,0.000000,0.000000,0.000000,1763131137.479446,0.000000
230.000000,17821.492889,34496.520102,20299.586093,10541.261499,33856.991989,29381.725714,15561.977394,14099.949789,35793.837702,31550.917810,10692.158126,5126.551405,19630.218402,32806.147075,18310.593761,25997.045755,0.020000,-0.014000,1.002000,192.000000,0.000000,0.000000,0.000000,0.000000,0.000000,0.000000,0.000000,0.000000,0.000000,1763131137.479458,0.000000
232.000000,17809.847630,34489.322840,20296.747422,10543.519025,33844.229143,29389.258252,15560.502179,14095.814716,35736.214904,31527.023795,10687.374853,5126.640812,19601.205838,32799.352145,18266.806694,25912.846734,0.020000,-0.014000,1.002000,192.000000,0.000000,0.000000,0.000000,0.000000,0.000000,0.000000,0.000000,0.000000,0.000000,1763131137.479469,0.000000
234.000000,17818.497755,34506.086648,20305.308140,10544.256633,33868.503138,29404.770363,15569.755801,14111.662103,35782.930050,31551.588363,10690.369986,5123.176291,19619.176640,32811.936177,18305.184639,25998.565674,0.020000,-0.014000,1.002000,192.000000,0.000000,0.000000,0.000000,0.000000,0.000000,0.000000,0.000000,0.000000,0.000000,1763131137.479481,0.000000
236.000000,17817.022540,34488.965212,20295.003986,10541.194444,33832.963864,29375.109598,15553.886062,14090.785574,35759.460719,31539.406662,10692.024015,5127.490178,19612.046434,32806.549407,18286.409174,25938.640647,0.018000,-0.012000,1.006000,192.000000,0.000000,72.000000,127.500000,80.000000,15.500000,56.000000,0.000000,0.000000,0.000000,1763131137.479492,0.000000
238.000000,17829.383055,34514.736773,20304.324663,10547.721153,33864.233954,29415.722718,15568.504103,14118.255868,35750.117689,31541.686540,10694.639170,5130.418257,19619.735434,32797.564006,18279.681299,25950.956458,0.018000,-0.012000,1.006000,192.000000,0.000000,0.000000,0.000000,0.000000,0.000000,0.000000,0.000000,0.000000,0.000000,1763131137.479503,0.000000
240.000000,17826.991418,34509.126485,20299.072003,10547.318822,33851.582867,29394.667374,15564.838417,14107.169403,35798.285699,31562.697180,10699.578905,5135.670917,19637.549774,32820.116916,18305.899895,25991.189598,0.018000,-0.012000,1.006000,192.000000,0.000000,0.000000,0.000000,0.000000,0.000000,0.000000,0.000000,0.000000,0.000000,1763131137.479514,0.000000
