Sample Index, EXG Channel 0, EXG Channel 1, EXG Channel 2, EXG Channel 3, EXG Channel 4, EXG Channel 5, EXG Channel 6, EXG Channel 7, EXG Channel 8, EXG Channel 9, EXG Channel 10, EXG Channel 11, EXG Channel 12, EXG Channel 13, EXG Channel 14, EXG Channel 15, Accel Channel 0, Accel Channel 1, Accel Channel 2, Not Used, Digital Channel 0 (D11), Digital Channel 1 (D12), Digital Channel 2 (D13), Digital Channel 3 (D17), Not Used, Digital Channel 4 (D18), Analog Channel 0, Analog Channel 1, Analog Channel 2, Timestamp, Marker Channel, Timestamp (Formatted)
100.000000,21595.808458,34201.924110,21511.341216,11376.680300,34353.401882,33032.324378,18061.617680,15821.190574,35922.561398,33440.467231,15321.047940,2607.576860,19855.725152,30895.005869,18875.802323,24124.237791,0.021000,-0.010500,1.001500,192.000000,0.000000,0.000000,0.000000,0.000000,0.000000,0.000000,0.000000,0.000000,0.000000,1763132572.819677,0.000000
102.000000,21612.661673,34213.390555,21516.482117,11381.754146,34365.270658,33047.501212,18072.525331,15840.547185,35872.158214,33431.750051,15323.976019,2612.918927,19844.996315,30891.004907,18845.873337,24087.200950,0.021000,-0.010500,1.001500,192.000000,0.000000,0.000000,0.000000,0.000000,0.000000,0.000000,0.000000,0.000000,0.000000,1763132572.819774,0.000000
104.000000,21624.083415,34224.924055,21517.912628,11383.296416,34394.551443,33061.962791,18074.894616,15843.274098,35943.370872,33460.136766,15328.960458,2609.744979,19868.800922,30911.322643,18889.973329,24169.008335,0.021000,-0.010500,1.001500,192.000000,0.000000,0.000000,0.000000,0.000000,0.000000,0.000000,0.000000,0.000000,0.000000,1763132572.819851,0.000000
106.000000,21636.488633,34235.295264,21513.911666,11384.503410,34353.603048,33032.614950,18064.121075,15829.840699,35894.979345,33449.966723,15323.126653,2615.712895,19853.288812,30905.287672,18849.963707,24083.937595,0.021000,-0.010500,1.001500,192.000000,0.000000,0.000000,0.000000,0.000000,0.000000,0.000000,0.000000,0.000000,0.000000,1763132572.819926,0.000000
108.000000,21642.791825,34241.196125,21520.281913,11387.878524,34403.402734,33084.113369,18080.281386,15858.517988,35926.964692,33474.911270,15333.274345,2620.026782,19868.845626,30919.033995,18874.662384,24150.523442,0.018500,-0.009250,0.999750,192.000000,0.000000,64.000000,127.500000,96.000000,15.500000,24.000000,0.000000,0.000000,0.000000,1763132572.820002,0.000000
110.000000,21633.828775,34218.687918,21510.648311,11385.643349,34358.453376,33052.351541,18063.897558,15826.622048,35917.755773,33470.955011,15317.449310,2619.959726,19855.211062,30915.413012,18877.702222,24135.301904,0.018500,-0.009250,0.999750,192.000000,0.000000,0.000000,0.000000,0.000000,0.000000,0.000000,0.000000,0.000000,0.000000,1763132572.820072,0.000000
112.000000,21644.334095,34226.756898,21516.571524,11387.632655,34373.853728,33060.420520,18071.318337,15838.826101,35874.616906,33456.985170,15317.516365,2619.870319,19847.767931,30910.294462,18849.941355,24098.108601,0.018500,-0.009250,0.999750,192.000000,0.000000,0.000000,0.000000,0.000000,0.000000,0.000000,0.000000,0.000000,0.000000,1763132572.820148,0.000000
114.000000,21613.175763,34241.643160,21517.376187,11387.655006,34390.997516,33063.348599,18075.632224,15844.212871,35938.989930,33482.197938,15322.411397,2616.428151,19872.958347,30924.733689,18894.913065,24174.082181,0.018500,-0.009250,0.999750,192.000000,0.000000,0.000000,0.000000,0.000000,0.000000,0.000000,0.000000,0.000000,0.000000,1763132572.820170,0.000000
116.000000,21609.107746,34217.480924,21508.547247,11385.866867,34341.220181,33037.554686,18063.785799,15824.811557,35872.471139,33460.919078,15320.019760,2621.658459,19846.225661,30910.585035,18849.047285,24084.608148,0.018500,-0.009250,0.999750,192.000000,0.000000,0.000000,0.000000,0.000000,0.000000,0.000000,0.000000,0.000000,0.000000,1763132572.820191,0.000000
118.000000,21620.060101,34242.917209,21520.304265,11390.471326,34401.972223,33078.570137,18079.543779,15855.701668,35907.429267,33475.581822,15326.568821,2619.847968,19864.487036,30920.978596,18871.890768,24149.674076,0.017250,-0.008625,1.001875,192.000000,0.000000,64.000000,127.500000,96.000000,15.500000,48.000000,0.000000,0.000000,0.000000,1763132572.820212,0.000000
120.000000,21628.665522,34229.930845,21510.603608,11386.738585,34357.715769,33046.048349,18062.109418,15825.727978,35921.689680,33476.721761,15322.925487,2622.172549,19864.934071,30919.659843,18878.931568,24134.184317,0.017250,-0.008625,1.001875,192.000000,0.000000,0.000000,0.000000,0.000000,0.000000,0.000000,0.000000,0.000000,0.000000,1763132572.820232,0.000000
122.000000,21629.224316,34243.140726,21518.627884,11387.900876,34366.723522,33054.296142,18071.072468,15844.659906,35874.929830,33464.137729,15320.533850,2619.803264,19856.306297,30910.026242,18849.941355,24095.024061,0.017250,-0.008625,1.001875,192.000000,0.000000,0.000000,0.000000,0.000000,0.000000,0.000000,0.000000,0.000000,0.000000,1763132572.820254,0.000000
124.000000,21661.455531,34249.443918,21518.471422,11387.364434,34377.027676,33060.331113,18073.285290,15844.235223,35947.707110,33488.054095,15326.859394,2616.919889,19878.590987,30927.237085,18893.728422,24168.650707,0.017250,-0.008625,1.001875,192.000000,0.000000,0.000000,0.000000,0.000000,0.000000,0.000000,0.000000,0.000000,0.000000,1763132572.820274,0.000000
126.000000,21636.108653,34233.149497,21518.471422,11392.572390,34332.994739,33047.612971,18067.920872,15838.379066,35880.137787,33463.467176,15326.457063,2631.873206,19852.037114,30915.435364,18846.767407,24073.521682,0.017250,-0.008625,1.001875,192.000000,0.000000,0.000000,0.000000,0.000000,0.000000,0.000000,0.000000,0.000000,0.000000,1763132572.820295,0.000000
128.000000,21617.087319,34255.076558,21524.886373,11391.499506,34383.599089,33066.768416,18080.773125,15863.681241,35924.237779,33490.713953,15343.533795,2633.571939,19877.383992,30936.155431,18865.967556,24135.905401,0.016625,-0.010313,1.004938,192.000000,0.000000,64.000000,127.500000,80.000000,15.500000,64.000000,0.000000,0.000000,0.000000,1763132572.820315,0.000000
130.000000,21601.552856,34220.386651,21510.782422,11382.134125,34342.918914,33010.754944,18060.947127,15826.845566,35910.625566,33469.792720,15326.144138,2620.295002,19856.641574,30912.216713,18878.663347,24134.810166,0.016625,-0.010313,1.004938,192.000000,0.000000,0.000000,0.000000,0.000000,0.000000,0.000000,0.000000,0.000000,0.000000,1763132572.820336,0.000000
132.000000,21628.889040,34238.983302,21517.912628,11388.079690,34358.811004,33051.055139,18070.781895,15844.905775,35866.704388,33457.096929,15322.746673,2623.066619,19844.482225,30904.348898,18851.640088,24097.661566,0.016625,-0.010313,1.004938,192.000000,0.000000,0.000000,0.000000,0.000000,0.000000,0.000000,0.000000,0.000000,0.000000,1763132572.820356,0.000000
134.000000,21639.774339,34247.476965,21524.081710,11389.621960,34384.761379,33074.502119,18072.279462,15852.885348,35938.185267,33484.723685,15331.150929,2624.787703,19868.264481,30928.131155,18892.297911,24178.016088,0.016625,-0.010313,1.004938,192.000000,0.000000,0.000000,0.000000,0.000000,0.000000,0.000000,0.000000,0.000000,0.000000,1763132572.820377,0.000000
136.000000,21640.780168,34239.609151,21516.549172,11385.442184,34341.957789,33022.690776,18060.276575,15830.913583,35887.938546,33467.199918,15325.741807,2631.403819,19849.824291,30912.127306,18853.316468,24080.495427,0.016625,-0.010313,1.004938,192.000000,0.000000,0.000000,0.000000,0.000000,0.000000,0.000000,0.000000,0.000000,0.000000,1763132572.820397,0.000000
138.000000,21647.418636,34244.101851,21526.182774,11387.006806,34398.418295,33066.254326,18078.090915,15859.769685,35917.822828,33479.158101,15329.251031,2621.904328,19865.828140,30919.101050,18876.428172,24144.779044,0.015312,-0.009156,1.002469,192.000000,0.000000,56.000000,127.500000,96.000000,15.500000,32.000000,0.000000,0.000000,0.000000,1763132572.820418,0.000000
140.000000,21600.278807,34210.842456,21512.972893,11384.101079,34347.657484,33058.073587,18062.131770,15826.823214,35915.319433,33471.022066,15325.630048,2621.792569,19857.289774,30916.016509,18876.450524,24125.623599,0.015312,-0.009156,1.002469,192.000000,0.000000,0.000000,0.000000,0.000000,0.000000,0.000000,0.000000,0.000000,0.000000,1763132572.820439,0.000000
142.000000,21611.007644,34231.473116,21516.727986,11386.582123,34356.911106,33055.681951,18069.843122,15843.162339,35866.480871,33455.487604,15323.014894,2620.607927,19842.358809,30909.579207,18839.033704,24086.061011,0.015312,-0.009156,1.002469,192.000000,0.000000,0.000000,0.000000,0.000000,0.000000,0.000000,0.000000,0.000000,0.000000,1763132572.820460,0.000000
144.000000,21644.021171,34233.149497,21516.929152,11384.682224,34378.748760,33073.161015,18070.446619,15841.038923,35937.157087,33478.755770,15323.461929,2614.058866,19861.514254,30922.342053,18882.105515,24164.649745,0.015312,-0.009156,1.002469,192.000000,0.000000,0.000000,0.000000,0.000000,0.000000,0.000000,0.000000,0.000000,0.000000,1763132572.820480,0.000000
146.000000,21611.387624,34226.689843,21508.323730,11382.759974,34320.902445,33027.474049,18059.270747,15819.424786,35878.170833,33453.855926,15315.325894,2613.656534,19836.815576,30904.371250,18843.749922,24073.856959,0.015312,-0.009156,1.002469,192.000000,0.000000,0.000000,0.000000,0.000000,0.000000,0.000000,0.000000,0.000000,0.000000,1763132572.820501,0.000000
148.000000,21612.169935,34247.029930,21520.103099,11387.140916,34382.369743,33053.379721,18078.381488,15853.913528,35899.270880,33467.848118,15330.212156,2611.376656,19847.343248,30913.401355,18862.458332,24144.868451,0.018656,-0.009578,0.999234,192.000000,0.000000,88.000000,127.500000,88.000000,15.500000,16.000000,0.000000,0.000000,0.000000,1763132572.820523,0.000000
150.000000,21618.249609,34220.699575,21510.067166,11382.737623,34343.455356,33034.626607,18062.332936,15826.175013,35909.440924,33463.064845,15326.345304,2614.796473,19846.248012,30910.652090,18873.902425,24122.382596,0.018656,-0.009578,0.999234,192.000000,0.000000,0.000000,0.000000,0.000000,0.000000,0.000000,0.000000,0.000000,0.000000,1763132572.820543,0.000000
152.000000,21640.243726,34243.118375,21516.839745,11394.181716,34351.569039,33090.170692,18074.671099,15849.242014,35871.152386,33466.104682,15328.759292,2629.347459,19838.246088,30919.592788,18830.897669,24084.675203,0.018656,-0.009578,0.999234,192.000000,0.000000,0.000000,0.000000,0.000000,0.000000,0.000000,0.000000,0.000000,0.000000,1763132572.820564,0.000000
154.000000,21612.438156,34232.434241,21512.794079,11383.698748,34365.293010,33070.635268,18070.960709,15840.010743,35938.542895,33487.607060,15332.715551,2624.050096,19859.413190,30934.546105,18877.948091,24167.600175,0.018656,-0.009578,0.999234,192.000000,0.000000,0.000000,0.000000,0.000000,0.000000,0.000000,0.000000,0.000000,0.000000,1763132572.820585,0.000000
156.000000,21600.792897,34214.731659,21503.048718,11375.607416,34329.597274,33019.270959,18055.046267,15814.596810,35862.949295,33453.140670,15311.839022,2611.041380,19822.264591,30897.978651,18856.155140,24082.082401,0.018656,-0.009578,0.999234,192.000000,0.000000,0.000000,0.000000,0.000000,0.000000,0.000000,0.000000,0.000000,0.000000,1763132572.820605,0.000000
158.000000,21613.086356,34220.632520,21516.996207,11378.557846,34397.233653,33067.975410,18074.089953,15844.838720,35894.800531,33458.013351,15322.031417,2610.057904,19842.247050,30900.280881,18878.439829,24144.175547,0.018656,-0.009578,0.999234,192.000000,0.000000,0.000000,0.000000,0.000000,0.000000,0.000000,0.000000,0.000000,0.000000,1763132572.820626,0.000000
160.000000,21604.637397,34205.053354,21506.759108,11376.479134,34350.160879,33041.868572,18059.538968,15815.714397,35898.376810,33451.911324,15315.795280,2607.822729,19844.415169,30904.192436,18879.691527,24122.002616,0.022000,-0.014000,1.000000,192.000000,0.000000,88.000000,127.500000,72.000000,15.500000,32.000000,0.000000,0.000000,0.000000,1763132572.820647,0.000000
162.000000,21601.686967,34196.827912,21509.731890,11377.663777,34361.582620,33049.356407,18067.183264,15826.331476,35853.852135,33438.455574,15308.128632,2605.721665,19833.284001,30896.726954,18846.253317,24086.485694,0.022000,-0.014000,1.000000,192.000000,0.000000,0.000000,0.000000,0.000000,0.000000,0.000000,0.000000,0.000000,0.000000,1763132572.820667,0.000000
164.000000,21581.011603,34201.767647,21512.034120,11377.708480,34387.532996,33042.628532,18068.926700,15828.946630,35923.053136,33458.862717,15313.448347,2596.266877,19857.803864,30910.629739,18893.281387,24164.247413,0.022000,-0.014000,1.000000,192.000000,0.000000,0.000000,0.000000,0.000000,0.000000,0.000000,0.000000,0.000000,0.000000,1763132572.820688,0.000000
166.000000,21593.305062,34180.689952,21505.350948,11376.389727,34337.219219,33028.546933,18058.734305,15808.494783,35860.915287,33430.163077,15309.805013,2602.659476,19835.854451,30893.664765,18851.215404,24073.968717,0.022000,-0.014000,1.000000,192.000000,0.000000,0.000000,0.000000,0.000000,0.000000,0.000000,0.000000,0.000000,0.000000,1763132572.820709,0.000000
168.000000,21584.833751,34206.528569,21518.426719,11380.547152,34389.432894,33072.602221,18075.475761,15842.245918,35894.241738,33446.703368,15313.314237,2603.397084,19850.450140,30907.053460,18871.711954,24138.542907,0.022000,-0.014000,1.000000,192.000000,0.000000,0.000000,0.000000,0.000000,0.000000,0.000000,0.000000,0.000000,0.000000,1763132572.820729,0.000000
170.000000,21574.686059,34183.215700,21507.831992,11372.545227,34344.662350,33024.188343,18057.951994,15810.305275,35903.383601,33443.216496,15316.555240,2601.653648,19845.778626,30899.275052,18875.668213,24119.566276,0.022000,-0.014000,1.004000,192.000000,0.000000,88.000000,127.500000,72.000000,15.500000,48.000000,0.000000,0.000000,0.000000,1763132572.820749,0.000000
172.000000,21594.288539,34212.295319,21513.263466,11376.657948,34361.359103,33052.485651,18066.423305,15827.560821,35855.215592,33430.140725,15308.620370,2595.506918,19829.730073,30889.954375,18846.163910,24079.199026,0.022000,-0.014000,1.004000,192.000000,0.000000,0.000000,0.000000,0.000000,0.000000,0.000000,0.000000,0.000000,0.000000,1763132572.820770,0.000000
174.000000,21625.759795,34201.857054,21513.129355,11374.065146,34377.452359,33062.476881,18065.238662,15825.213888,35933.446697,33459.577973,15311.503745,2592.869412,19857.580347,30909.042765,18889.012204,24159.061808,0.022000,-0.014000,1.004000,192.000000,0.000000,0.000000,0.000000,0.000000,0.000000,0.000000,0.000000,0.000000,0.000000,1763132572.820791,0.000000
176.000000,21575.289556,34170.519909,21506.356777,11372.165247,34334.291140,33031.251494,18053.056962,15805.991388,35868.313714,33431.727699,15301.087833,2595.082235,19829.864184,30890.602576,18852.601213,24070.303031,0.022000,-0.014000,1.004000,192.000000,0.000000,0.000000,0.000000,0.000000,0.000000,0.000000,0.000000,0.000000,0.000000,1763132572.820811,0.000000
178.000000,21597.954225,34209.434296,21519.633713,11376.881466,34393.724429,33059.459395,18071.072468,15840.256612,35900.321412,33450.145537,15318.186917,2599.440825,19852.841777,30904.930044,18877.746925,24132.910267,0.022000,-0.014000,1.004000,192.000000,0.000000,0.000000,0.000000,0.000000,0.000000,0.000000,0.000000,0.000000,0.000000,1763132572.820832,0.000000
180.000000,21603.653920,34194.793903,21505.328596,11376.948521,34347.277504,33055.570192,18055.649764,15807.801879,35915.095915,33453.565354,15312.800147,2603.173566,19850.539547,30907.835771,18877.523408,24121.130898,0.024000,-0.014000,1.006000,192.000000,0.000000,96.000000,127.500000,72.000000,15.500000,56.000000,0.000000,0.000000,0.000000,1763132572.820852,0.000000
182.000000,21588.767658,34203.242863,21511.877657,11381.441221,34368.355199,33070.568212,18064.925738,15824.431577,35864.111586,33442.724758,15308.754481,2598.882031,19836.748521,30903.633643,18842.051189,24084.138761,0.024000,-0.014000,1.006000,192.000000,0.000000,0.000000,0.000000,0.000000,0.000000,0.000000,0.000000,0.000000,0.000000,1763132572.820873,0.000000
184.000000,21584.096144,34200.113618,21512.190582,11377.641425,34383.844958,33064.801462,18064.344593,15825.146833,35915.989985,33458.013351,15312.867202,2595.193993,19858.921451,30910.540332,18897.751736,24163.621564,0.024000,-0.014000,1.006000,192.000000,0.000000,0.000000,0.000000,0.000000,0.000000,0.000000,0.000000,0.000000,0.000000,1763132572.820893,0.000000
186.000000,21588.007699,34190.748237,21509.798945,11376.702652,34340.393167,33031.810287,18054.554529,15807.131327,35860.602362,33436.198048,15309.067405,2605.811072,19840.190690,30894.178855,18856.892748,24077.209720,0.024000,-0.014000,1.006000,192.000000,0.000000,0.000000,0.000000,0.000000,0.000000,0.000000,0.000000,0.000000,0.000000,1763132572.820914,0.000000
188.000000,21618.629589,34234.088270,21522.226515,11382.938788,34398.485350,33066.343733,18074.335822,15843.251746,35899.561453,33453.900630,15319.259801,2604.604078,19856.999201,30907.478143,18873.745963,24138.051169,0.024000,-0.014000,1.006000,192.000000,0.000000,0.000000,0.000000,0.000000,0.000000,0.000000,0.000000,0.000000,0.000000,1763132572.820935,0.000000
190.000000,21609.755946,34194.726848,21511.631788,11376.233265,34351.636094,33026.132944,18057.057924,15812.518097,35917.040517,33454.526479,15317.091682,2607.330991,19859.100265,30905.265320,18876.942262,24115.855886,0.022000,-0.010000,1.006000,192.000000,0.000000,88.000000,127.500000,88.000000,15.500000,56.000000,0.000000,0.000000,0.000000,1763132572.820956,0.000000
192.000000,21601.351690,34197.207892,21514.313998,11379.340157,34360.397978,33043.187325,18064.612814,15828.633705,35866.279705,33440.042548,15313.224830,2605.945183,19840.816538,30895.095276,18847.102683,24074.214587,0.022000,-0.010000,1.006000,192.000000,0.000000,0.000000,0.000000,0.000000,0.000000,0.000000,0.000000,0.000000,0.000000,1763132572.820976,0.000000
194.000000,21595.339071,34206.237996,21514.984550,11377.686128,34382.839129,33055.570192,18067.697354,15832.277040,35927.925817,33456.895764,15317.672827,2603.151214,19858.116789,30905.131210,18890.889751,24155.843157,0.022000,-0.010000,1.006000,192.000000,0.000000,0.000000,0.000000,0.000000,0.000000,0.000000,0.000000,0.000000,0.000000,1763132572.820997,0.000000
196.000000,21576.630661,34186.121426,21507.563771,11373.774573,34333.128850,33023.741308,18054.889805,15809.947647,35866.458519,33436.533324,15310.252048,2610.348476,19834.021608,30892.144846,18848.935526,24061.451740,0.022000,-0.010000,1.006000,192.000000,0.000000,0.000000,0.000000,0.000000,0.000000,0.000000,0.000000,0.000000,0.000000,1763132572.821018,0.000000
198.000000,21580.184588,34209.635462,21516.169192,11375.853285,34383.397923,33046.785956,18071.094819,15838.088493,35888.542043,33444.579952,15316.152908,2599.574935,19847.343248,30898.224520,18870.214387,24131.412701,0.022000,-0.010000,1.006000,192.000000,0.000000,0.000000,0.000000,0.000000,0.000000,0.000000,0.000000,0.000000,0.000000,1763132572.821038,0.000000
200.000000,21606.447888,34190.770589,21506.155611,11374.981567,34339.052062,33007.648052,18055.023915,15810.528792,35901.975441,33443.417662,15312.576629,2599.127900,19846.203309,30896.235215,18870.437905,24119.029834,0.018000,-0.012000,1.004000,192.000000,0.000000,72.000000,127.500000,80.000000,15.500000,48.000000,0.000000,0.000000,0.000000,1763132572.821058,0.000000
202.000000,21597.976577,34203.153456,21511.408271,11377.976701,34363.840147,33051.323360,18062.265880,15824.722150,35856.579048,33434.879295,15306.720472,2598.502052,19834.111015,30891.407238,18843.325239,24079.467246,0.018000,-0.012000,1.004000,192.000000,0.000000,0.000000,0.000000,0.000000,0.000000,0.000000,0.000000,0.000000,0.000000,1763132572.821079,0.000000
204.000000,21588.432382,34209.724869,21511.050643,11378.088460,34380.402789,33069.830605,18065.216311,15829.952458,35918.493380,33455.331141,15316.644647,2595.082235,19857.110960,30907.165218,18890.688585,24162.325163,0.018000,-0.012000,1.004000,192.000000,0.000000,0.000000,0.000000,0.000000,0.000000,0.000000,0.000000,0.000000,0.000000,1763132572.821099,0.000000
206.000000,21575.915405,34184.579156,21503.853381,11373.662814,34332.190076,33034.537200,18054.308659,15810.931124,35857.428415,33428.866676,15310.587324,2603.799415,19832.412283,30888.345049,18848.667306,24074.102828,0.018000,-0.012000,1.004000,192.000000,0.000000,0.000000,0.000000,0.000000,0.000000,0.000000,0.000000,0.000000,0.000000,1763132572.821119,0.000000
208.000000,21625.245705,34212.161209,21520.438376,11379.764841,34391.779827,33071.909317,18073.799381,15843.967002,35892.990040,33444.423490,15316.018798,2601.988924,19852.618260,30902.024317,18872.628376,24133.580820,0.018000,-0.012000,1.004000,192.000000,0.000000,0.000000,0.000000,0.000000,0.000000,0.000000,0.000000,0.000000,0.000000,1763132572.821140,0.000000
210.000000,21617.601409,34204.740429,21513.598742,11375.786230,34346.986931,33032.704357,18058.399029,15816.452004,35918.940415,33450.078481,15309.648551,2602.950049,19862.967117,30905.846465,18875.399992,24111.094965,0.018000,-0.016000,1.006000,192.000000,0.000000,72.000000,127.500000,64.000000,15.500000,56.000000,0.000000,0.000000,0.000000,1763132572.821161,0.000000
212.000000,21573.434362,34191.374086,21518.337312,11379.653082,34356.732292,33055.324323,18065.216311,15832.053522,35872.426435,33441.003673,15317.002275,2602.145386,19849.064332,30901.554930,18842.319410,24073.767552,0.018000,-0.016000,1.006000,192.000000,0.000000,0.000000,0.000000,0.000000,0.000000,0.000000,0.000000,0.000000,0.000000,1763132572.821182,0.000000
214.000000,21566.348859,34183.282755,21512.302341,11370.108887,34367.349370,33031.452660,18062.243529,15822.643438,35915.632357,33451.374883,15320.109167,2599.776101,19859.368486,30902.739573,18891.940283,24164.359172,0.018000,-0.016000,1.006000,192.000000,0.000000,0.000000,0.000000,0.000000,0.000000,0.000000,0.000000,0.000000,0.000000,1763132572.821203,0.000000
216.000000,21569.522806,34172.017476,21505.708576,11367.560788,34322.914102,33011.336090,18048.318392,15801.833964,35845.157307,33418.361356,15303.837097,2595.126938,19824.522117,30876.096293,18862.771256,24076.874444,0.018000,-0.016000,1.006000,192.000000,0.000000,0.000000,0.000000,0.000000,0.000000,0.000000,0.000000,0.000000,0.000000,1763132572.821223,0.000000
218.000000,21587.135981,34203.220511,21518.694939,11377.373204,34386.616574,33069.182404,18068.479665,15836.635630,35881.165967,33441.808336,15311.012007,2590.745996,19846.829158,30894.894111,18882.440791,24138.252334,0.018000,-0.016000,1.006000,192.000000,0.000000,0.000000,0.000000,0.000000,0.000000,0.000000,0.000000,0.000000,0.000000,1763132572.821243,0.000000
220.000000,21578.396449,34180.980525,21505.127431,11374.288663,34342.270713,33031.698529,18052.699334,15804.672635,35898.980307,33446.211630,15305.938161,2595.886898,19847.969097,30900.414991,18882.820771,24120.460346,0.016000,-0.014000,1.006000,192.000000,0.000000,64.000000,127.500000,72.000000,15.500000,56.000000,0.000000,0.000000,0.000000,1763132572.821264,0.000000
222.000000,21586.376022,34187.574290,21509.329559,11377.149686,34344.572943,33046.674198,18061.170645,15817.256667,35842.832725,33431.213609,15299.679673,2599.172604,19830.400626,30892.725991,18849.516672,24085.166941,0.016000,-0.014000,1.006000,192.000000,0.000000,0.000000,0.000000,0.000000,0.000000,0.000000,0.000000,0.000000,0.000000,1763132573.300402,0.000000
224.000000,21590.444039,34202.684069,21512.078823,11375.875637,34376.714751,33051.144546,18065.171607,15825.772682,35911.944319,33453.721816,15310.117937,2595.551621,19851.232451,30905.153561,18898.377585,24162.928660,0.016000,-0.014000,1.006000,192.000000,0.000000,0.000000,0.000000,0.000000,0.000000,0.000000,0.000000,0.000000,0.000000,1763132573.300511,0.000000
226.000000,21571.154484,34181.606374,21505.350948,11373.148724,34335.744004,33020.790877,18052.475816,15805.052615,35859.328313,33433.225266,15301.110184,2601.117206,19834.848623,30887.875663,18857.138617,24071.733543,0.016000,-0.014000,1.006000,192.000000,0.000000,0.000000,0.000000,0.000000,0.000000,0.000000,0.000000,0.000000,0.000000,1763132573.300601,0.000000
228.000000,21574.283728,34207.802618,21515.856268,11375.450954,34395.691382,33045.623666,18067.496189,15834.646324,35887.044476,33447.329217,15314.074196,2592.467081,19854.898137,30896.816361,18883.334861,24133.916096,0.016000,-0.014000,1.006000,192.000000,0.000000,0.000000,0.000000,0.000000,0.000000,0.000000,0.000000,0.000000,0.000000,1763132573.300695,0.000000
230.000000,21572.205016,34178.924165,21504.814506,11372.053489,34350.920838,33008.497418,18050.844139,15805.901981,35902.556587,33445.719891,15313.738920,2598.077369,19852.953536,30893.262433,18892.476725,24124.506012,0.016000,-0.014000,1.004000,192.000000,0.000000,64.000000,127.500000,72.000000,15.500000,40.000000,0.000000,0.000000,0.000000,1763132573.300786,0.000000
232.000000,21586.398373,34201.074743,21510.558904,11379.451916,34365.293010,33054.631419,18059.293098,15823.202231,35850.029987,33430.677167,15310.632027,2602.994752,19840.838890,30889.082657,18857.853873,24089.279662,0.016000,-0.014000,1.004000,192.000000,0.000000,0.000000,0.000000,0.000000,0.000000,0.000000,0.000000,0.000000,0.000000,1763132573.300866,0.000000
234.000000,21617.400243,34218.129124,21513.039948,11381.798849,34395.847845,33045.377796,18063.137598,15832.075874,35928.372851,33464.361246,15318.812766,2607.107473,19872.444257,30914.787163,18903.227914,24160.514672,0.016000,-0.014000,1.004000,192.000000,0.000000,0.000000,0.000000,0.000000,0.000000,0.000000,0.000000,0.000000,0.000000,1763132573.300943,0.000000
236.000000,21586.554836,34186.769627,21501.573503,11382.424698,34336.794536,33025.842372,18051.559395,15809.969999,35871.130034,33440.199010,15309.715606,2610.750808,19847.432655,30896.168160,18859.865530,24075.287470,0.016000,-0.014000,1.004000,192.000000,0.000000,0.000000,0.000000,0.000000,0.000000,0.000000,0.000000,0.000000,0.000000,1763132573.300971,0.000000
238.000000,21602.134002,34216.609206,21512.838782,11387.118565,34393.724429,33091.243576,18068.747886,15840.234261,35896.074581,33459.779139,15313.627161,2607.889784,19859.390838,30915.301253,18879.915044,24144.935506,0.016000,-0.014000,1.004000,192.000000,0.000000,0.000000,0.000000,0.000000,0.000000,0.000000,0.000000,0.000000,0.000000,1763132573.301002,0.000000
240.000000,21589.259397,34196.738505,21503.786326,11382.625864,34347.411614,33061.940439,18052.542872,15810.707606,35903.785933,33460.427339,15312.531926,2605.252278,19855.389876,30913.423707,18882.038460,24132.329122,0.015000,-0.015000,1.008000,192.000000,0.000000,56.000000,127.500000,64.000000,15.500000,80.000000,0.000000,0.000000,0.000000,1763132573.301039,0.000000
242.000000,21574.216673,34197.744333,21512.123527,11383.654044,34363.549574,33069.048294,18060.745962,15822.732845,35847.258371,33439.014368,15307.480431,2598.502052,19838.089626,30904.281843,18859.373791,24084.898720,0.015000,-0.015000,1.008000,192.000000,0.000000,0.000000,0.000000,0.000000,0.000000,0.000000,0.000000,0.000000,0.000000,1763132573.301067,0.000000
244.000000,21602.491629,34210.641290,21510.313035,11382.290588,34382.637964,33078.905413,18063.338764,15827.449063,35915.967633,33463.511880,15314.007141,2603.374732,19857.222719,30912.529637,18903.272617,24160.939355,0.015000,-0.015000,1.008000,192.000000,0.000000,0.000000,0.000000,0.000000,0.000000,0.000000,0.000000,0.000000,0.000000,1763132573.301097,0.000000
246.000000,21570.461580,34180.734656,21492.565750,11376.769707,34321.528294,33036.101822,18047.133749,15796.626007,35847.146612,33432.822935,15299.634969,2603.777063,19826.734939,30889.216767,18855.976326,24073.901662,0.015000,-0.015000,1.008000,192.000000,0.000000,0.000000,0.000000,0.000000,0.000000,0.000000,0.000000,0.000000,0.000000,1763132573.301123,0.000000
248.000000,21587.672423,34205.813313,21503.585160,11381.083593,34372.266754,33062.298067,18064.948090,15829.170147,35869.185432,33441.964798,15299.389100,2595.261049,19833.060483,30898.068058,18868.470951,24146.366018,0.015000,-0.015000,1.008000,192.000000,0.000000,0.000000,0.000000,0.000000,0.000000,0.000000,0.000000,0.000000,0.000000,1763132573.301144,0.000000
250.000000,21572.093257,34173.470339,21496.432602,11373.931035,34326.713899,33020.656767,18048.854834,15801.543391,35888.385581,33437.695615,15298.807955,2594.210517,19837.866108,30892.502474,18875.064716,24126.405910,0.014500,-0.012500,1.008000,192.000000,0.000000,56.000000,127.500000,88.000000,15.500000,64.000000,0.000000,0.000000,0.000000,1763132573.301164,0.000000
252.000000,21574.708411,34202.415848,21503.629864,11376.993224,34338.381510,33042.740290,18056.946165,15815.692045,35832.841496,33422.094097,15295.119917,2587.482642,19828.523079,30884.120570,18851.036590,24084.831665,0.014500,-0.012500,1.008000,192.000000,0.000000,0.000000,0.000000,0.000000,0.000000,0.000000,0.000000,0.000000,0.000000,1763132573.301186,0.000000
254.000000,21585.526655,34201.342964,21510.916532,11377.037928,34379.911051,33053.469128,18060.209520,15824.498632,35917.956939,33449.117356,15306.407548,2593.919944,19855.389876,30898.559797,18901.149202,24163.263936,0.014500,-0.012500,1.008000,192.000000,0.000000,0.000000,0.000000,0.000000,0.000000,0.000000,0.000000,0.000000,0.000000,1763132573.301206,0.000000
0.000000,21560.447998,34183.416865,21503.652215,11373.998091,34332.547704,33028.301064,18047.603136,15801.766908,35857.741339,33424.530438,15304.887629,2602.838290,19840.615373,30881.170139,18862.681849,24072.046467,0.014500,-0.012500,1.008000,192.000000,0.000000,0.000000,0.000000,0.000000,0.000000,0.000000,0.000000,0.000000,0.000000,1763132573.301227,0.000000
2.000000,21582.553873,34214.195217,21514.895143,11381.396518,34389.879929,33059.526451,18066.982098,15834.914545,35878.371999,33442.188316,15315.124728,2595.842194,19856.172187,30898.224520,18882.373736,24131.166831,0.014500,-0.012500,1.008000,192.000000,0.000000,0.000000,0.000000,0.000000,0.000000,0.000000,0.000000,0.000000,0.000000,1763132573.301248,0.000000
4.000000,21586.688946,34187.686048,21497.349024,11373.975739,34334.022919,32999.534368,18047.290212,15797.989464,35893.839406,33446.815127,15309.156812,2600.133729,19853.534681,30898.425686,18882.194922,24114.917113,0.016250,-0.011250,1.007000,192.000000,0.000000,72.000000,127.500000,88.000000,15.500000,56.000000,0.000000,0.000000,0.000000,1763132573.301268,0.000000
6.000000,21585.101972,34186.300240,21500.142992,11374.914512,34342.114251,33043.679064,18051.671154,15802.951551,35834.272007,33417.869618,15288.794373,2583.526383,19824.745634,30883.204148,18849.516672,24086.820970,0.016250,-0.011250,1.007000,192.000000,0.000000,0.000000,0.000000,0.000000,0.000000,0.000000,0.000000,0.000000,0.000000,1763132573.301289,0.000000
8.000000,21576.116571,34185.830854,21501.774669,11375.853285,34365.158899,33059.280581,18054.934508,15808.986522,35901.461351,33444.199973,15295.589303,2583.213458,19849.980754,30900.191474,18894.622492,24167.309602,0.016250,-0.011250,1.007000,192.000000,0.000000,0.000000,0.000000,0.000000,0.000000,0.000000,0.000000,0.000000,0.000000,1763132573.301310,0.000000
10.000000,21573.747286,34177.895984,21497.974872,11377.194390,34325.171629,33043.433195,18043.356305,15792.937969,35846.341949,33426.162115,15293.309426,2592.891764,19830.400626,30889.283823,18852.042419,24079.646060,0.016250,-0.011250,1.007000,192.000000,0.000000,0.000000,0.000000,0.000000,0.000000,0.000000,0.000000,0.000000,0.000000,1763132573.301331,0.000000
12.000000,21605.911446,34218.620863,21512.458803,11385.039852,34381.609783,33077.072570,18064.523407,15832.098226,35892.252432,33456.582839,15309.089757,2601.675999,19857.647402,30910.965015,18877.322242,24136.508898,0.016250,-0.011250,1.007000,192.000000,0.000000,0.000000,0.000000,0.000000,0.000000,0.000000,0.000000,0.000000,0.000000,1763132573.301351,0.000000
14.000000,21577.010641,34196.157360,21498.287797,11381.463573,34336.392204,33047.076529,18050.195938,15803.175068,35891.268956,33453.297133,15302.540696,2600.916040,19850.450140,30908.752192,18876.875207,24121.332064,0.018125,-0.010625,1.007500,192.000000,0.000000,80.000000,127.500000,88.000000,15.500000,64.000000,0.000000,0.000000,0.000000,1763132573.301372,0.000000
16.000000,21583.380888,34195.397400,21500.455916,11385.151611,34338.269751,33059.258230,18056.968517,15815.647342,35827.879408,33438.813202,15299.299693,2600.178432,19826.913753,30900.794971,18843.705218,24083.781133,0.018125,-0.010625,1.007500,192.000000,0.000000,0.000000,0.000000,0.000000,0.000000,0.000000,0.000000,0.000000,0.000000,1763132573.301392,0.000000
18.000000,21586.577187,34203.421677,21503.473401,11383.430527,34358.431024,33059.593506,18059.986002,15821.615257,35886.351572,33466.909345,15303.077138,2600.133729,19843.878727,30914.295425,18890.643882,24159.911175,0.018125,-0.010625,1.007500,192.000000,0.000000,0.000000,0.000000,0.000000,0.000000,0.000000,0.000000,0.000000,0.000000,1763132573.301414,0.000000
20.000000,21596.188437,34189.630650,21494.711518,11377.663777,34308.407820,33028.859857,18045.457369,15799.375272,35830.382804,33439.215534,15295.857524,2602.592421,19823.471585,30891.183721,18851.125997,24066.100903,0.018125,-0.010625,1.007500,192.000000,0.000000,0.000000,0.000000,0.000000,0.000000,0.000000,0.000000,0.000000,0.000000,1763132573.301435,0.000000
22.000000,21623.479917,34223.068860,21507.899047,11381.709442,34370.009228,33058.051235,18063.539930,15831.874708,35859.484775,33444.915228,15301.244295,2591.461252,19834.692160,30895.162331,18873.321280,24133.491413,0.018125,-0.010625,1.007500,192.000000,0.000000,0.000000,0.000000,0.000000,0.000000,0.000000,0.000000,0.000000,0.000000,1763132573.301455,0.000000
24.000000,21587.247740,34209.076668,21499.897122,11377.328500,34332.793573,33018.242779,18048.921889,15807.265438,35882.507072,33459.779139,15301.780737,2596.333932,19839.609544,30894.424724,18877.344594,24114.917113,0.020063,-0.010312,1.005750,192.000000,0.000000,88.000000,127.500000,88.000000,15.500000,48.000000,0.000000,0.000000,0.000000,1763132573.301475,0.000000
26.000000,21587.046574,34199.599528,21502.668739,11380.033062,34338.068585,33045.646017,18057.929642,15820.251801,35827.700594,33441.406005,15305.602885,2604.291153,19823.516288,30886.713372,18843.660515,24071.465322,0.020063,-0.010312,1.005750,192.000000,0.000000,0.000000,0.000000,0.000000,0.000000,0.000000,0.000000,0.000000,0.000000,1763132573.301497,0.000000
28.000000,21600.099993,34215.245749,21505.060375,11379.541323,34360.465033,33039.901619,18061.237700,15825.772682,35897.661555,33464.294191,15308.396853,2603.017104,19845.689219,30901.957262,18894.488382,24146.723646,0.020063,-0.010312,1.005750,192.000000,0.000000,0.000000,0.000000,0.000000,0.000000,0.000000,0.000000,0.000000,0.000000,1763132573.301518,0.000000
30.000000,21592.858028,34204.673374,21496.812582,11381.508277,34314.465143,33008.072735,18050.084180,15806.684292,35844.777327,33445.026987,15304.775870,2606.548680,19824.544468,30888.680326,18851.617736,24065.542110,0.020063,-0.010312,1.005750,192.000000,0.000000,0.000000,0.000000,0.000000,0.000000,0.000000,0.000000,0.000000,0.000000,1763132573.301538,0.000000
32.000000,21609.532429,34235.764651,21506.334425,11384.391652,34372.557327,33073.920974,18066.020973,15834.109883,35876.986191,33465.501185,15311.213173,2604.469967,19842.895251,30903.454829,18872.248396,24132.597343,0.020063,-0.010312,1.005750,192.000000,0.000000,0.000000,0.000000,0.000000,0.000000,0.000000,0.000000,0.000000,0.000000,1763132573.301558,0.000000
34.000000,21598.669481,34194.771551,21499.114811,11379.988358,34323.361137,33037.219410,18051.268822,15809.701778,35885.368095,33458.013351,15308.441557,2600.223136,19840.145986,30895.788180,18878.238663,24124.103680,0.021031,-0.011156,1.006875,192.000000,0.000000,88.000000,127.500000,80.000000,15.500000,64.000000,0.000000,0.000000,0.000000,1763132573.301579,0.000000
36.000000,21633.024112,34213.010575,21507.474364,11385.375128,34343.433004,33046.093052,18059.650726,15829.326609,35841.759842,33446.368092,15310.207344,2610.795511,19834.267477,30892.144846,18848.801416,24074.080476,0.021031,-0.011156,1.006875,192.000000,0.000000,0.000000,0.000000,0.000000,0.000000,0.000000,0.000000,0.000000,0.000000,1763132573.301600,0.000000
38.000000,21610.247685,34232.680110,21510.603608,11387.431489,34371.216222,33066.142567,18063.830502,15836.568574,35911.452581,33475.671229,15317.449310,2610.706104,19865.872844,30910.965015,18893.326091,24156.536061,0.021031,-0.011156,1.006875,192.000000,0.000000,0.000000,0.000000,0.000000,0.000000,0.000000,0.000000,0.000000,0.000000,1763132573.301621,0.000000
40.000000,21600.837600,34204.919243,21505.350948,11383.922265,34325.596312,33043.835526,18050.911194,15812.808670,35854.388577,33457.231040,15316.689350,2612.762465,19847.611469,30898.984480,18857.876224,24069.744238,0.021031,-0.011156,1.006875,192.000000,0.000000,0.000000,0.000000,0.000000,0.000000,0.000000,0.000000,0.000000,0.000000,1763132573.301642,0.000000
42.000000,21620.998874,34222.778287,21510.804774,11382.648216,34368.310495,33064.309724,18066.043325,15837.887327,35879.713104,33459.533269,15316.689350,2607.509805,19856.775684,30906.785239,18878.909216,24137.514727,0.021031,-0.011156,1.006875,192.000000,0.000000,0.000000,0.000000,0.000000,0.000000,0.000000,0.000000,0.000000,0.000000,1763132573.301662,0.000000
44.000000,21600.658786,34206.349755,21500.098288,11373.931035,34326.222161,33018.823924,18048.743075,15807.846583,35885.703371,33460.047359,15308.732129,2597.473871,19850.226623,30894.581186,18887.402879,24122.404948,0.021031,-0.011156,1.006875,192.000000,0.000000,0.000000,0.000000,0.000000,0.000000,0.000000,0.000000,0.000000,0.000000,1763132573.301683,0.000000
46.000000,21596.479010,34206.617976,21503.026367,11376.166210,34334.469954,33042.181497,18055.403895,15821.838775,35835.858981,33439.170830,15309.268571,2596.982133,19834.133367,30882.958279,18852.958840,24075.063953,0.018000,-0.014000,1.008000,192.000000,0.000000,72.000000,127.500000,72.000000,15.500000,64.000000,0.000000,0.000000,0.000000,1763132573.301703,0.000000
48.000000,21616.059138,34221.884217,21506.177963,11378.803716,34355.502946,33052.306837,18062.198825,15832.120577,35902.824808,33461.991961,15320.220926,2603.732360,19854.205233,30901.577282,18893.281387,24151.462215,0.018000,-0.014000,1.008000,192.000000,0.000000,0.000000,0.000000,0.000000,0.000000,0.000000,0.000000,0.000000,0.000000,1763132573.301724,0.000000
50.000000,21613.309874,34200.694764,21493.593930,11376.568541,34301.478779,33021.662595,18048.944241,15805.052615,35840.575199,33439.461403,15304.284132,2603.844119,19827.964285,30885.372267,18849.561375,24060.669429,0.018000,-0.014000,1.008000,192.000000,0.000000,0.000000,0.000000,0.000000,0.000000,0.000000,0.000000,0.000000,0.000000,1763132573.301744,0.000000
52.000000,21608.683063,34226.466325,21509.486021,11381.016538,34365.382417,33062.387474,18066.803285,15838.289659,35872.471139,33457.432205,15308.933295,2602.055979,19845.242184,30897.151637,18875.422344,24127.255276,0.018000,-0.014000,1.008000,192.000000,0.000000,0.000000,0.000000,0.000000,0.000000,0.000000,0.000000,0.000000,0.000000,1763132573.301765,0.000000
54.000000,21606.291426,34219.112601,21502.400518,11375.428602,34337.219219,33019.069793,18050.844139,15812.451042,35887.826787,33460.673208,15318.008103,2604.604078,19852.886480,30898.313927,18885.927664,24114.090099,0.018000,-0.014000,1.008000,192.000000,0.000000,0.000000,0.000000,0.000000,0.000000,0.000000,0.000000,0.000000,0.000000,1763132573.301785,0.000000
56.000000,21615.992083,34225.840476,21507.630826,11379.787192,34349.132699,33042.941456,18057.840235,15825.951496,35844.643217,33443.842345,15314.923562,2601.854813,19845.063370,30889.462637,18860.580785,24070.325383,0.022000,-0.010000,1.010000,192.000000,0.000000,88.000000,127.500000,88.000000,15.500000,72.000000,0.000000,0.000000,0.000000,1763132573.301806,0.000000
58.000000,21610.940589,34223.784116,21508.211971,11380.413041,34372.870251,33049.490517,18060.433037,15830.399493,35905.708183,33471.446749,15319.952705,2601.005447,19868.040963,30908.707489,18905.172516,24162.571032,0.022000,-0.010000,1.010000,192.000000,0.000000,0.000000,0.000000,0.000000,0.000000,0.000000,0.000000,0.000000,0.000000,1763132573.301826,0.000000
60.000000,21615.969731,34208.115543,21499.137163,11377.842591,34321.170666,33033.754889,18047.893709,15809.344150,35844.866734,33450.681979,15310.117937,2609.499110,19845.219832,30895.117628,18860.580785,24075.622746,0.022000,-0.010000,1.010000,192.000000,0.000000,0.000000,0.000000,0.000000,0.000000,0.000000,0.000000,0.000000,0.000000,1763132573.301847,0.000000
62.000000,21620.909467,34235.764651,21512.928189,11381.888256,34377.809987,33073.518643,18067.920872,15844.883423,35878.170833,33462.886031,15316.152908,2603.754712,19861.737771,30906.919349,18882.932530,24139.548736,0.022000,-0.010000,1.010000,192.000000,0.000000,0.000000,0.000000,0.000000,0.000000,0.000000,0.000000,0.000000,0.000000,1763132573.301867,0.000000
64.000000,21635.236935,34233.954159,21505.306245,11379.474268,34340.549629,33048.328227,18055.023915,15820.810595,35893.034743,33469.949182,15315.683522,2612.941279,19865.135236,30906.896997,18890.733289,24127.568201,0.022000,-0.010000,1.010000,192.000000,0.000000,0.000000,0.000000,0.000000,0.000000,0.000000,0.000000,0.000000,0.000000,1763132573.301888,0.000000
66.000000,21615.522696,34233.462421,21510.760070,11380.211875,34350.674969,33061.783977,18060.477741,15831.427673,35848.867696,33462.684865,15312.084891,2611.443712,19854.898137,30903.946567,18857.473893,24080.271909,0.022000,-0.010000,1.006000,192.000000,0.000000,88.000000,127.500000,88.000000,15.500000,56.000000,0.000000,0.000000,0.000000,1763132573.301908,0.000000
68.000000,21607.006682,34232.255427,21512.324692,11380.345986,34370.009228,33057.581849,18064.322241,15839.653115,35909.686793,33478.375790,15327.686408,2609.521462,19875.372335,30917.491724,18903.227914,24160.469968,0.022000,-0.010000,1.006000,192.000000,0.000000,0.000000,0.000000,0.000000,0.000000,0.000000,0.000000,0.000000,0.000000,1763132573.301929,0.000000
70.000000,21616.349711,34220.297244,21504.456878,11378.379032,34320.410707,33028.345767,18053.749866,15817.636647,35850.141746,33454.079444,15320.533850,2616.159930,19848.349076,30900.347936,18855.126960,24072.582909,0.022000,-0.010000,1.006000,192.000000,0.000000,0.000000,0.000000,0.000000,0.000000,0.000000,0.000000,0.000000,0.000000,1763132573.301950,0.000000
72.000000,21629.403130,34241.106718,21515.498640,11381.843553,34374.904260,33055.346674,18072.033593,15847.789150,35880.830691,33470.217403,15320.377388,2611.600174,19860.262556,30906.159390,18875.511751,24130.675093,0.022000,-0.010000,1.006000,192.000000,0.000000,0.000000,0.000000,0.000000,0.000000,0.000000,0.000000,0.000000,0.000000,1763132573.301970,0.000000
74.000000,21602.916313,34204.986299,21502.109945,11377.440259,34333.933512,33023.942473,18056.588537,15816.809632,35886.619793,33467.155214,15316.957571,2605.654610,19857.245071,30904.058326,18877.746925,24119.856849,0.022000,-0.010000,1.006000,192.000000,0.000000,0.000000,0.000000,0.000000,0.000000,0.000000,0.000000,0.000000,0.000000,1763132573.301991,0.000000
76.000000,21601.910484,34208.607281,21503.205181,11379.720137,34335.207562,33037.755851,18060.634203,15827.113787,35824.571350,33438.813202,15308.508612,2606.705142,19836.681466,30886.087523,18848.644954,24083.758781,0.020000,-0.012000,1.002000,192.000000,0.000000,80.000000,127.500000,80.000000,15.500000,40.000000,0.000000,0.000000,0.000000,1763132573.302011,0.000000
78.000000,21610.359443,34218.620863,21505.730928,11378.848419,34361.292048,33045.578962,18062.757619,15830.935935,35897.460389,33461.723740,15313.940086,2605.140520,19861.715419,30902.672518,18898.131716,24162.436922,0.020000,-0.012000,1.002000,192.000000,0.000000,0.000000,0.000000,0.000000,0.000000,0.000000,0.000000,0.000000,0.000000,1763132573.302032,0.000000
80.000000,21588.275920,34198.996031,21498.824239,11378.826067,34315.538027,33034.358386,18049.503034,15809.746481,35835.210781,33439.528458,15302.183068,2601.810110,19840.213041,30887.406276,18856.468064,24076.695630,0.020000,-0.012000,1.002000,192.000000,0.000000,0.000000,0.000000,0.000000,0.000000,0.000000,0.000000,0.000000,0.000000,1763132573.302052,0.000000
82.000000,21603.385699,34227.762726,21511.832954,11384.816335,34372.467920,33082.146416,18068.345555,15845.375162,35866.570278,33457.476909,15318.991580,2607.979191,19862.497731,30909.310986,18876.048193,24135.927753,0.020000,-0.012000,1.002000,192.000000,0.000000,0.000000,0.000000,0.000000,0.000000,0.000000,0.000000,0.000000,0.000000,1763132573.302090,0.000000
84.000000,21603.922141,34212.608244,21502.266407,11378.200218,34327.518562,33032.749061,18053.638107,15818.597772,35879.400179,33457.789833,15314.990618,2610.683752,19860.597832,30901.174951,18882.597254,24124.036625,0.020000,-0.012000,1.002000,192.000000,0.000000,0.000000,0.000000,0.000000,0.000000,0.000000,0.000000,0.000000,0.000000,1763132573.302110,0.000000
86.000000,21603.698624,34217.324462,21509.553076,11379.764841,34338.113289,33039.946322,18061.282404,15833.215813,35837.915342,33445.228153,15315.392949,2611.644877,19846.248012,30892.211901,18851.282460,24078.304956,0.014000,-0.016000,1.004000,192.000000,0.000000,56.000000,127.500000,64.000000,15.500000,48.000000,0.000000,0.000000,0.000000,1763132573.780836,0.000000
88.000000,21605.106784,34220.788982,21509.642483,11377.350852,34363.951905,33039.655750,18063.249357,15837.440293,35891.961860,33461.164947,15322.232583,2605.811072,19869.605585,30903.141904,18898.690510,24159.933527,0.014000,-0.016000,1.004000,192.000000,0.000000,0.000000,0.000000,0.000000,0.000000,0.000000,0.000000,0.000000,0.000000,1763132573.780948,0.000000
90.000000,21602.446926,34202.281738,21502.579332,11375.763878,34311.313547,33037.621741,18049.100703,15817.815461,35831.969778,33440.891914,15315.035321,2607.867433,19842.694085,30888.434456,18859.038515,24071.062991,0.014000,-0.016000,1.004000,192.000000,0.000000,0.000000,0.000000,0.000000,0.000000,0.000000,0.000000,0.000000,0.000000,1763132573.781054,0.000000
92.000000,21619.434252,34229.662625,21514.246942,11382.804678,34372.602030,33063.415654,18067.876168,15853.891176,35864.580973,33453.900630,15325.518289,2612.181319,19857.602699,30901.152599,18877.746925,24130.026892,0.014000,-0.016000,1.004000,192.000000,0.000000,0.000000,0.000000,0.000000,0.000000,0.000000,0.000000,0.000000,0.000000,1763132573.781158,0.000000
94.000000,21611.879362,34208.853150,21504.367471,11378.155515,34329.977254,33019.136848,18054.554529,15826.309124,35882.574127,33458.616848,15323.260763,2615.802302,19860.307260,30902.359593,18884.050117,24119.320407,0.014000,-0.016000,1.004000,192.000000,0.000000,0.000000,0.000000,0.000000,0.000000,0.000000,0.000000,0.000000,0.000000,1763132573.781263,0.000000
96.000000,21601.396394,34218.017366,21505.865038,11380.793021,34340.393167,33037.465279,18061.461218,15838.177900,35830.472211,33444.736415,15317.136385,2611.242546,19844.303411,30894.782352,18851.461274,24076.405057,0.020000,-0.020000,1.008000,192.000000,0.000000,80.000000,127.500000,48.000000,15.500000,64.000000,0.000000,0.000000,0.000000,1763132573.781368,0.000000
98.000000,21614.338054,34232.367186,21507.966102,11382.603512,34364.309533,33049.445814,18065.462180,15842.536490,35891.537177,33463.020141,15321.852603,2603.486491,19871.237263,30911.188532,18896.634149,24160.358210,0.020000,-0.020000,1.008000,192.000000,0.000000,0.000000,0.000000,0.000000,0.000000,0.000000,0.000000,0.000000,0.000000,1763132573.781452,0.000000
100.000000,21604.391528,34210.708345,21500.970006,11381.374166,34315.023937,33015.873494,18051.894671,15817.279019,35831.388632,33439.215534,15317.605772,2619.803264,19849.399608,30895.095276,18849.293154,24068.537243,0.020000,-0.020000,1.008000,192.000000,0.000000,0.000000,0.000000,0.000000,0.000000,0.000000,0.000000,0.000000,0.000000,1763132573.781478,0.000000
102.000000,21612.013473,34236.479907,21513.151707,11382.134125,34371.350333,33064.756759,18067.652651,15842.961173,35865.005656,33455.509955,15319.438615,2612.382485,19865.649327,30903.030146,18876.696393,24127.612904,0.020000,-0.020000,1.008000,192.000000,0.000000,0.000000,0.000000,0.000000,0.000000,0.000000,0.000000,0.000000,0.000000,1763132573.781502,0.000000
104.000000,21603.408051,34202.214682,21502.355814,11375.853285,34330.625454,33024.948302,18050.061828,15812.138118,35870.235964,33449.787909,15317.806937,2603.888822,19864.822312,30900.906730,18885.055946,24122.360244,0.020000,-0.020000,1.008000,192.000000,0.000000,0.000000,0.000000,0.000000,0.000000,0.000000,0.000000,0.000000,0.000000,1763132573.781526,0.000000
106.000000,21606.894923,34221.727755,21508.144916,11379.653082,34345.355254,33040.818040,18056.476779,15826.465586,35823.610225,33439.237885,15308.955647,2607.062770,19851.120693,30893.463599,18853.808207,24083.825837,0.018000,-0.019000,1.004000,192.000000,0.000000,64.000000,127.500000,56.000000,15.500000,32.000000,0.000000,0.000000,0.000000,1763132573.781550,0.000000
108.000000,21600.457621,34216.944482,21511.587085,11377.149686,34370.903298,33034.090165,18060.164816,15829.974810,35899.248528,33466.574069,15318.455138,2605.095816,19879.462705,30907.656957,18903.205562,24161.811073,0.018000,-0.019000,1.004000,192.000000,0.000000,0.000000,0.000000,0.000000,0.000000,0.000000,0.000000,0.000000,0.000000,1763132573.781574,0.000000
110.000000,21583.760868,34196.939671,21500.679433,11377.999053,34320.388355,33042.315607,18045.278555,15805.834926,35827.834705,33434.119336,15310.095586,2604.268802,19856.730980,30888.277994,18863.598271,24074.885139,0.018000,-0.019000,1.004000,192.000000,0.000000,0.000000,0.000000,0.000000,0.000000,0.000000,0.000000,0.000000,0.000000,1763132573.781599,0.000000
112.000000,21621.736481,34240.838497,21516.213896,11383.743451,34377.273545,33071.775207,18066.155084,15843.989354,35869.610115,33464.450653,15321.092644,2607.196880,19875.506446,30910.227407,18883.267806,24136.620657,0.018000,-0.019000,1.004000,192.000000,0.000000,0.000000,0.000000,0.000000,0.000000,0.000000,0.000000,0.000000,0.000000,1763132573.781623,0.000000
114.000000,21600.412917,34202.102924,21501.461744,11376.948521,34328.949073,33017.840447,18050.486511,15810.640551,35884.719894,33449.720854,15319.773891,2606.280459,19875.908777,30899.140942,18889.906274,24118.873372,0.018000,-0.019000,1.004000,192.000000,0.000000,0.000000,0.000000,0.000000,0.000000,0.000000,0.000000,0.000000,0.000000,1763132573.781647,0.000000
116.000000,21595.227312,34207.601453,21505.619169,11379.206047,34342.427175,33029.955093,18056.543834,15822.777548,35832.483868,33428.754917,15311.235525,2596.848023,19856.999201,30888.233291,18854.031724,24077.857921,0.015000,-0.016500,1.006000,192.000000,0.000000,48.000000,127.500000,72.000000,15.500000,64.000000,0.000000,0.000000,0.000000,1763132573.781672,0.000000
118.000000,21589.415859,34203.019345,21506.870867,11379.250750,34369.875118,33039.499288,18060.857720,15825.079778,35896.007525,33448.603266,15316.354074,2593.361150,19882.279024,30902.359593,18898.087013,24160.313506,0.015000,-0.016500,1.006000,192.000000,0.000000,0.000000,0.000000,0.000000,0.000000,0.000000,0.000000,0.000000,0.000000,1763132573.781696,0.000000
120.000000,21579.916368,34173.649153,21494.488000,11375.115678,34316.141524,33021.059098,18046.351438,15798.682368,35835.121374,33421.535304,15302.361882,2601.027799,19859.770818,30888.143884,18857.764466,24072.806427,0.015000,-0.016500,1.006000,192.000000,0.000000,0.000000,0.000000,0.000000,0.000000,0.000000,0.000000,0.000000,0.000000,1763132573.781720,0.000000
122.000000,21578.865836,34205.500389,21506.557942,11376.501486,34369.785711,33057.045407,18062.601157,15829.863051,35859.887106,33425.849190,15302.719510,2593.338799,19869.471475,30893.173026,18881.323204,24132.731454,0.015000,-0.016500,1.006000,192.000000,0.000000,0.000000,0.000000,0.000000,0.000000,0.000000,0.000000,0.000000,0.000000,1763132573.781745,0.000000
124.000000,21586.219559,34174.029133,21500.075936,11370.421811,34331.944207,33013.079526,18048.206633,15807.041920,35874.236926,33429.939560,15303.881801,2595.909249,19871.281966,30893.642413,18888.855742,24122.337892,0.015000,-0.016500,1.006000,192.000000,0.000000,0.000000,0.000000,0.000000,0.000000,0.000000,0.000000,0.000000,0.000000,1763132573.781770,0.000000
126.000000,21594.065022,34190.144740,21509.061338,11373.059317,34346.964579,33003.356517,18055.426247,15822.621086,35837.155382,33413.689841,15305.535830,2594.523441,19862.363620,30881.393657,18860.871358,24074.147531,0.016500,-0.015250,1.005000,192.000000,0.000000,72.000000,127.500000,72.000000,15.500000,48.000000,0.000000,0.000000,0.000000,1763132573.781794,0.000000
128.000000,21587.761830,34197.118485,21510.424794,11379.116640,34365.382417,33048.976427,18059.829540,15830.421845,35903.830636,33446.837478,15317.471661,2597.719741,19887.174056,30899.744439,18902.982045,24159.173567,0.016500,-0.015250,1.005000,192.000000,0.000000,0.000000,0.000000,0.000000,0.000000,0.000000,0.000000,0.000000,0.000000,1763132573.781819,0.000000
130.000000,21584.230254,34179.818234,21500.522971,11376.836762,34319.874265,33022.646072,18047.245508,15807.533658,35839.099984,33421.110621,15307.502783,2601.854813,19861.246033,30888.747381,18857.183320,24074.683973,0.016500,-0.015250,1.005000,192.000000,0.000000,0.000000,0.000000,0.000000,0.000000,0.000000,0.000000,0.000000,0.000000,1763132573.781843,0.000000
132.000000,21591.539275,34210.931863,21514.403405,11380.658910,34378.614650,33045.042520,18063.964613,15839.295487,35871.778234,33435.594551,15319.148042,2600.960744,19883.486019,30898.783314,18883.536027,24127.367035,0.016500,-0.015250,1.005000,192.000000,0.000000,0.000000,0.000000,0.000000,0.000000,0.000000,0.000000,0.000000,0.000000,1763132573.781868,0.000000
134.000000,21584.923158,34191.217624,21504.121602,11375.786230,34334.358196,33019.717994,18047.692543,15807.041920,35882.238851,33435.303978,15319.796243,2598.323238,19884.849475,30895.832884,18891.716765,24120.862677,0.016500,-0.015250,1.005000,192.000000,0.000000,0.000000,0.000000,0.000000,0.000000,0.000000,0.000000,0.000000,0.000000,1763132573.781892,0.000000
136.000000,21615.209772,34189.764761,21506.826163,11380.748317,34341.421347,33051.658637,18055.113322,15821.682313,35831.858019,33420.238903,15310.676731,2594.299924,19865.492864,30890.624927,18856.535120,24085.055183,0.017250,-0.016625,1.008500,192.000000,0.000000,72.000000,127.500000,56.000000,15.500000,80.000000,0.000000,0.000000,0.000000,1763132573.781916,0.000000
138.000000,21580.251644,34197.945499,21507.362605,11378.580198,34369.562193,33043.612009,18058.779008,15829.393665,35904.367078,33446.837478,15317.538716,2598.747921,19888.381051,30908.863951,18900.299835,24171.735248,0.017250,-0.016625,1.008500,192.000000,0.000000,0.000000,0.000000,0.000000,0.000000,0.000000,0.000000,0.000000,0.000000,1763132573.781940,0.000000
140.000000,21582.129190,34180.131159,21497.907817,11373.819277,34317.862608,33009.905578,18046.574956,15803.599751,35841.491621,33419.322481,15309.156812,2603.039456,19860.709591,30883.047686,18866.906329,24081.344793,0.017250,-0.016625,1.008500,192.000000,0.000000,0.000000,0.000000,0.000000,0.000000,0.000000,0.000000,0.000000,0.000000,1763132573.781965,0.000000
142.000000,21596.456658,34207.221473,21512.682320,11379.943655,34375.708923,33044.126099,18066.780933,15839.027266,35865.050359,33429.514877,15315.683522,2600.245488,19875.618205,30896.503436,18889.258073,24136.352436,0.017250,-0.016625,1.008500,192.000000,0.000000,0.000000,0.000000,0.000000,0.000000,0.000000,0.000000,0.000000,0.000000,1763132573.781990,0.000000
144.000000,21598.736536,34194.749200,21503.585160,11375.562713,34341.667216,33020.768526,18052.207595,15815.312066,35885.658668,33434.991054,15312.420167,2604.179395,19882.569597,30901.733744,18893.259036,24122.092023,0.017250,-0.016625,1.008500,192.000000,0.000000,0.000000,0.000000,0.000000,0.000000,0.000000,0.000000,0.000000,0.000000,1763132573.782014,0.000000
146.000000,21590.198170,34200.292432,21509.061338,11378.267274,34348.439795,33029.932741,18058.756656,15830.734769,35834.316711,33425.312749,15306.809879,2603.218270,19870.499655,30890.669631,18858.435018,24074.281642,0.019625,-0.018313,1.009250,192.000000,0.000000,88.000000,127.500000,48.000000,15.500000,72.000000,0.000000,0.000000,0.000000,1763132573.782038,0.000000
148.000000,21587.583016,34213.345851,21512.279989,11377.887294,34377.944097,33037.554686,18062.221177,15835.495691,35899.472046,33446.859830,15327.328781,2601.698351,19888.783382,30905.913521,18898.332882,24155.664343,0.019625,-0.018313,1.009250,192.000000,0.000000,0.000000,0.000000,0.000000,0.000000,0.000000,0.000000,0.000000,0.000000,1763132573.782062,0.000000
150.000000,21602.402222,34185.629688,21503.048718,11377.261445,34319.136658,33007.513941,18048.720723,15811.869897,35844.352644,33425.111583,15317.695179,2611.421360,19867.370411,30892.323660,18853.674096,24065.363296,0.019625,-0.018313,1.009250,192.000000,0.000000,0.000000,0.000000,0.000000,0.000000,0.000000,0.000000,0.000000,0.000000,1763132573.782086,0.000000
152.000000,21608.995987,34213.904645,21512.056471,11382.111774,34374.434873,33060.934610,18064.478703,15841.240089,35873.186394,33440.221362,15319.148042,2602.994752,19881.608472,30904.259491,18870.527312,24126.830593,0.019625,-0.018313,1.009250,192.000000,0.000000,0.000000,0.000000,0.000000,0.000000,0.000000,0.000000,0.000000,0.000000,1763132573.782110,0.000000
154.000000,21596.434307,34196.582043,21502.668739,11375.048622,34338.001530,33022.355500,18048.653668,15812.808670,35890.464293,33438.880257,15312.688388,2597.831499,19883.731888,30899.431515,18883.200751,24115.185334,0.019625,-0.018313,1.009250,192.000000,0.000000,0.000000,0.000000,0.000000,0.000000,0.000000,0.000000,0.000000,0.000000,1763132573.782135,0.000000
156.000000,21589.304100,34202.326441,21509.530724,11377.172038,34347.232800,33024.613026,18056.990869,15828.007856,35840.552847,33423.904589,15312.844850,2602.368903,19872.086629,30890.490817,18850.544852,24069.520720,0.021812,-0.016156,1.006625,192.000000,0.000000,96.000000,127.500000,72.000000,15.500000,48.000000,0.000000,0.000000,0.000000,1763132573.782159,0.000000
158.000000,21592.701565,34213.189389,21508.904875,11378.960178,34374.680743,33041.019206,18060.254223,15831.360618,35903.808284,33447.396272,15320.578554,2601.273668,19896.293568,30905.287672,18895.762431,24154.077369,0.021812,-0.016156,1.006625,192.000000,0.000000,0.000000,0.000000,0.000000,0.000000,0.000000,0.000000,0.000000,0.000000,1763132573.782183,0.000000
160.000000,21621.423557,34199.152493,21500.634730,11379.787192,34331.430117,33018.667462,18047.536081,15811.691083,35859.462423,33434.164039,15309.961475,2604.291153,19877.942786,30896.011698,18855.953974,24065.631517,0.021812,-0.016156,1.006625,192.000000,0.000000,0.000000,0.000000,0.000000,0.000000,0.000000,0.000000,0.000000,0.000000,1763132573.782207,0.000000
162.000000,21586.778353,34221.794811,21510.067166,11382.357643,34383.353219,33048.283523,18063.830502,15839.541357,35881.076560,33443.015330,15316.577591,2605.788720,19891.644405,30904.684175,18875.623509,24128.238753,0.021812,-0.016156,1.006625,192.000000,0.000000,0.000000,0.000000,0.000000,0.000000,0.000000,0.000000,0.000000,0.000000,1763132573.782231,0.000000
164.000000,21576.787123,34178.991220,21498.891294,11372.880503,34341.466050,33021.796706,18045.211499,15807.533658,35881.121264,33435.281627,15315.169432,2602.570069,19885.967062,30895.497608,18887.402879,24124.796584,0.021812,-0.016156,1.006625,192.000000,0.000000,0.000000,0.000000,0.000000,0.000000,0.000000,0.000000,0.000000,0.000000,1763132573.782256,0.000000
166.000000,21613.600446,34203.332270,21505.060375,11374.467477,34350.205582,33016.901674,18051.402933,15819.849470,35838.049452,33417.601397,15309.894420,2596.803319,19869.829103,30880.745456,18862.972422,24078.349659,0.021906,-0.015078,1.007313,192.000000,0.000000,88.000000,127.500000,72.000000,15.500000,64.000000,0.000000,0.000000,0.000000,1763132573.782280,0.000000
168.000000,21602.245760,34211.781229,21505.105079,11374.646291,34375.954792,33035.721843,18055.448598,15827.717284,35903.718877,33442.233019,15314.118900,2590.947162,19894.527780,30894.938814,18909.866382,24162.414570,0.021906,-0.015078,1.007313,192.000000,0.000000,0.000000,0.000000,0.000000,0.000000,0.000000,0.000000,0.000000,0.000000,1763132573.782304,0.000000
170.000000,21586.957167,34196.112656,21499.740660,11375.607416,34327.227989,33018.980386,18044.943278,15811.132289,35850.275856,33424.932769,15310.922600,2601.072502,19876.825199,30884.813474,18864.648803,24077.455589,0.021906,-0.015078,1.007313,192.000000,0.000000,0.000000,0.000000,0.000000,0.000000,0.000000,0.000000,0.000000,0.000000,1763132573.782328,0.000000
172.000000,21604.413879,34209.478999,21511.788250,11381.105945,34373.585507,33045.534259,18063.718744,15843.855243,35878.103778,33438.455574,15318.231621,2603.777063,19888.850437,30894.514131,18883.804248,24132.217363,0.021906,-0.015078,1.007313,192.000000,0.000000,0.000000,0.000000,0.000000,0.000000,0.000000,0.000000,0.000000,0.000000,1763132573.782352,0.000000
174.000000,21605.196190,34201.298261,21501.126468,11381.374166,34337.934475,33023.808363,18049.480683,15817.346074,35891.984211,33438.455574,15317.739882,2607.934488,19889.789211,30896.436381,18887.358175,24123.589590,0.021906,-0.015078,1.007313,192.000000,0.000000,0.000000,0.000000,0.000000,0.000000,0.000000,0.000000,0.000000,0.000000,1763132573.782377,0.000000
176.000000,21609.443022,34207.087363,21505.373300,11386.537419,34349.892658,33034.447793,18057.124979,15828.030208,35842.363339,33429.760746,15310.363807,2606.280459,19875.551149,30892.815398,18854.478759,24078.059087,0.021906,-0.015078,1.007313,192.000000,0.000000,0.000000,0.000000,0.000000,0.000000,0.000000,0.000000,0.000000,0.000000,1763132573.782401,0.000000
178.000000,21589.907597,34201.365316,21506.379128,11386.738585,34371.283277,33042.606180,18059.203691,15833.260516,35902.780104,33452.268952,15324.221888,2600.826633,19895.198333,30908.036936,18899.361062,24159.419436,0.014000,-0.012000,1.008000,192.000000,0.000000,56.000000,127.500000,80.000000,15.500000,64.000000,0.000000,0.000000,0.000000,1763132573.782414,0.000000
180.000000,21583.336184,34190.211796,21496.432602,11382.000015,34317.504980,33013.928892,18045.189148,15810.595847,35841.536324,33432.934693,15317.605772,2607.308639,19869.538530,30891.966032,18857.272727,24067.933746,0.014000,-0.012000,1.008000,192.000000,0.000000,0.000000,0.000000,0.000000,0.000000,0.000000,0.000000,0.000000,0.000000,1763132573.782425,0.000000
182.000000,21611.924066,34218.844380,21507.697881,11386.827992,34371.707961,33067.550727,18064.702221,15844.525796,35870.593592,33445.563429,15322.500804,2604.335857,19881.742583,30906.069983,18875.601158,24128.015235,0.014000,-0.012000,1.008000,192.000000,0.000000,0.000000,0.000000,0.000000,0.000000,0.000000,0.000000,0.000000,0.000000,1763132573.782437,0.000000
184.000000,21597.842467,34198.772514,21497.974872,11381.709442,34333.866457,33022.914293,18050.844139,15816.630818,35886.597441,33448.111528,15317.382254,2609.499110,19882.502542,30901.800800,18885.368870,24121.689692,0.014000,-0.012000,1.008000,192.000000,0.000000,0.000000,0.000000,0.000000,0.000000,0.000000,0.000000,0.000000,0.000000,1763132573.782448,0.000000
186.000000,21598.155391,34203.175807,21504.993320,11376.948521,34345.109385,33014.666499,18055.716819,15821.749368,35838.205914,33425.424507,15313.560106,2605.453444,19867.683335,30886.780427,18851.707143,24077.477941,0.014000,-0.012000,1.008000,192.000000,0.000000,0.000000,0.000000,0.000000,0.000000,0.000000,0.000000,0.000000,0.000000,1763132573.782459,0.000000
188.000000,21602.156353,34217.257406,21511.251809,11376.792059,34380.671010,33033.240799,18059.203691,15825.146833,35905.194092,33442.568295,15316.421129,2592.332970,19892.002033,30895.251738,18901.395071,24154.859681,0.020000,-0.014000,1.010000,192.000000,0.000000,80.000000,127.500000,72.000000,15.500000,72.000000,0.000000,0.000000,0.000000,1763132573.782471,0.000000
190.000000,21600.256455,34193.005764,21505.373300,11378.669605,34336.302797,33017.818095,18045.949107,15805.007911,35854.947371,33427.391461,15311.906077,2599.306714,19878.769801,30885.662840,18859.597309,24063.977488,0.020000,-0.014000,1.010000,192.000000,0.000000,0.000000,0.000000,0.000000,0.000000,0.000000,0.000000,0.000000,0.000000,1763132573.782482,0.000000
192.000000,21614.762737,34224.409965,21512.905838,11385.844515,34384.403751,33044.506078,18064.389296,15841.575365,35881.255374,33449.005598,15324.713626,2606.459273,19897.791135,30904.460657,18877.925739,24126.696483,0.020000,-0.014000,1.010000,192.000000,0.000000,0.000000,0.000000,0.000000,0.000000,0.000000,0.000000,0.000000,0.000000,1763132573.782501,0.000000
194.000000,21605.397356,34201.901758,21498.958349,11382.603512,34339.767318,33026.334110,18051.335877,15816.608467,35899.561453,33451.888973,15323.104301,2613.455369,19888.403402,30901.845503,18881.546722,24121.399119,0.020000,-0.014000,1.010000,192.000000,0.000000,0.000000,0.000000,0.000000,0.000000,0.000000,0.000000,0.000000,0.000000,1763132573.782512,0.000000
196.000000,21615.835621,34218.240883,21506.222666,11385.218666,34351.703149,33040.773337,18060.701258,15833.461682,35854.165060,33440.109603,15322.165528,2613.187148,19877.182827,30899.722087,18844.308715,24069.721886,0.020000,-0.014000,1.010000,192.000000,0.000000,0.000000,0.000000,0.000000,0.000000,0.000000,0.000000,0.000000,0.000000,1763132573.782524,0.000000
198.000000,21593.148600,34207.310880,21506.468535,11378.647253,34370.702132,33033.576075,18061.237700,15831.561784,35909.686793,33456.202859,15325.607696,2606.392217,19898.126411,30906.002928,18901.663292,24147.394198,0.018000,-0.020000,1.012000,192.000000,0.000000,72.000000,127.500000,48.000000,15.500000,80.000000,0.000000,0.000000,0.000000,1763132573.782535,0.000000
200.000000,21578.597615,34182.813368,21496.879637,11374.065146,34319.002547,33004.027069,18044.295078,15799.129403,35842.229228,33425.312749,15313.023664,2601.027799,19872.511312,30882.757113,18856.915099,24066.570290,0.018000,-0.020000,1.012000,192.000000,0.000000,0.000000,0.000000,0.000000,0.000000,0.000000,0.000000,0.000000,0.000000,1763132573.782546,0.000000
202.000000,21609.018339,34216.944482,21513.799907,11379.966006,34379.978106,33066.187270,18063.919909,15834.355752,35871.219441,33440.511935,15317.494013,2597.295057,19891.733812,30898.380983,18877.344594,24126.562372,0.018000,-0.020000,1.012000,192.000000,0.000000,0.000000,0.000000,0.000000,0.000000,0.000000,0.000000,0.000000,0.000000,1763132573.782557,0.000000
204.000000,21616.796746,34200.985336,21501.238227,11374.199256,34339.856725,33026.602331,18045.770293,15804.896153,35891.581880,33442.434185,15311.235525,2600.558412,19888.693975,30897.576320,18887.089954,24124.617770,0.018000,-0.020000,1.012000,192.000000,0.000000,0.000000,0.000000,0.000000,0.000000,0.000000,0.000000,0.000000,0.000000,1763132573.782568,0.000000
206.000000,21605.442060,34204.807485,21506.267370,11377.306149,34342.382472,33041.779165,18055.001563,15825.415054,35845.447879,33431.928865,15309.827365,2600.491357,19875.752315,30885.104046,18855.126960,24079.154322,0.018000,-0.020000,1.012000,192.000000,0.000000,0.000000,0.000000,0.000000,0.000000,0.000000,0.000000,0.000000,0.000000,1763132574.263121,0.000000
208.000000,21608.124269,34231.741337,21507.988454,11378.334329,34371.283277,33038.113479,18059.918947,15834.981601,35915.699412,33455.375845,15325.719455,2602.771235,19904.004920,30904.930044,18898.265826,24157.966573,0.014000,-0.016000,1.006000,192.000000,0.000000,56.000000,127.500000,64.000000,15.500000,56.000000,0.000000,0.000000,0.000000,1763132574.263246,0.000000
210.000000,21600.010586,34194.548034,21495.091497,11377.216742,34318.488457,33017.728688,18044.317430,15804.069138,35861.474080,33440.154307,15317.896344,2610.728456,19882.927225,30892.122494,18858.658535,24071.532377,0.014000,-0.016000,1.006000,192.000000,0.000000,0.000000,0.000000,0.000000,0.000000,0.000000,0.000000,0.000000,0.000000,1763132574.263352,0.000000
212.000000,21608.727766,34209.836627,21506.177963,11382.290588,34375.150129,33066.299029,18062.109418,15833.394627,35861.518784,33440.489583,15313.157775,2598.814976,19881.630824,30899.990308,18877.143428,24133.044378,0.014000,-0.016000,1.006000,192.000000,0.000000,0.000000,0.000000,0.000000,0.000000,0.000000,0.000000,0.000000,0.000000,1763132574.263456,0.000000
214.000000,21589.594673,34197.967851,21496.678471,11376.859114,34331.318358,33018.779220,18046.105569,15804.315007,35879.221365,33452.715987,15312.688388,2599.060845,19881.563769,30902.828980,18883.848951,24121.577933,0.014000,-0.016000,1.006000,192.000000,0.000000,0.000000,0.000000,0.000000,0.000000,0.000000,0.000000,0.000000,0.000000,1763132574.263563,0.000000
216.000000,21601.999891,34208.696688,21502.512276,11376.277968,34335.833411,33025.842372,18052.565223,15815.893211,35823.945501,33437.159173,15307.592190,2596.669209,19866.051658,30891.988384,18854.031724,24072.582909,0.014000,-0.016000,1.006000,192.000000,0.000000,0.000000,0.000000,0.000000,0.000000,0.000000,0.000000,0.000000,0.000000,1763132574.263669,0.000000
218.000000,21601.754022,34218.889084,21504.278064,11375.383899,34367.684647,33039.007549,18056.566186,15823.470452,35888.206767,33457.163984,15314.476528,2599.351418,19891.175019,30902.426648,18901.082146,24155.060846,0.012000,-0.014000,1.000000,192.000000,0.000000,48.000000,127.500000,72.000000,15.500000,32.000000,0.000000,0.000000,0.000000,1763132574.263743,0.000000
220.000000,21618.942513,34214.396383,21495.493829,11375.003919,34326.445678,32995.175778,18043.177491,15800.917542,35844.799679,33443.551772,15305.938161,2604.112340,19874.768838,30888.613270,18857.831521,24066.078552,0.012000,-0.014000,1.000000,192.000000,0.000000,0.000000,0.000000,0.000000,0.000000,0.000000,0.000000,0.000000,0.000000,1763132574.263768,0.000000
222.000000,21610.068871,34226.242808,21507.072032,11380.837724,34377.318248,33070.456454,18061.416514,15832.969944,35871.599420,33457.074577,15321.919658,2601.094854,19890.884446,30902.828980,18875.690565,24128.305808,0.012000,-0.014000,1.000000,192.000000,0.000000,0.000000,0.000000,0.000000,0.000000,0.000000,0.000000,0.000000,0.000000,1763132574.263793,0.000000
224.000000,21598.714185,34206.170941,21495.985567,11375.763878,34336.012225,33019.092145,18046.597308,15804.829097,35886.709200,33459.555621,15316.331722,2602.950049,19889.856266,30900.571454,18884.541855,24123.276666,0.012000,-0.014000,1.000000,192.000000,0.000000,0.000000,0.000000,0.000000,0.000000,0.000000,0.000000,0.000000,0.000000,1763132574.263818,0.000000
226.000000,21618.830755,34212.764706,21501.215875,11378.893123,34341.555457,33021.863761,18053.079313,15816.072025,35829.667548,33442.791813,15308.843888,2602.234793,19871.483132,30887.719201,18852.400047,24071.733543,0.012000,-0.014000,1.000000,192.000000,0.000000,0.000000,0.000000,0.000000,0.000000,0.000000,0.000000,0.000000,0.000000,1763132574.263843,0.000000
228.000000,21605.799688,34214.977528,21504.970968,11379.250750,34366.388245,33049.669331,18056.990869,15821.592906,35893.526482,33461.522575,15314.901211,2598.099720,19893.499600,30901.867855,18893.661367,24159.017105,0.024000,-0.008000,1.002000,192.000000,0.000000,96.000000,127.500000,96.000000,15.500000,40.000000,0.000000,0.000000,0.000000,1763132574.263867,0.000000
230.000000,21608.191324,34201.432371,21500.098288,11374.512181,34314.889826,33009.570302,18041.836386,15798.235333,35834.808449,33438.589685,15306.876934,2600.603116,19867.459818,30886.802779,18861.407800,24069.945403,0.024000,-0.008000,1.002000,192.000000,0.000000,0.000000,0.000000,0.000000,0.000000,0.000000,0.000000,0.000000,0.000000,1763132574.263892,0.000000
232.000000,21621.825888,34239.832668,21514.962198,11378.870771,34370.210394,33052.910334,18058.957822,15833.238165,35867.710217,33453.431243,15311.324932,2597.116243,19885.698841,30897.173988,18878.149256,24134.810166,0.024000,-0.008000,1.002000,192.000000,0.000000,0.000000,0.000000,0.000000,0.000000,0.000000,0.000000,0.000000,0.000000,1763132574.263916,0.000000
234.000000,21607.140792,34216.430392,21507.027329,11378.960178,34336.593370,33039.208715,18046.507901,15815.446176,35887.670325,33463.578935,15320.779719,2608.292116,19889.856266,30901.957262,18891.783821,24128.909305,0.024000,-0.008000,1.002000,192.000000,0.000000,0.000000,0.000000,0.000000,0.000000,0.000000,0.000000,0.000000,0.000000,1763132574.263941,0.000000
236.000000,21633.024112,34229.796735,21511.542381,11385.419832,34347.121042,33043.008511,18056.901462,15835.495691,35851.706368,33454.101795,15327.060560,2617.411627,19885.452972,30900.906730,18857.630355,24073.968717,0.024000,-0.008000,1.002000,192.000000,0.000000,0.000000,0.000000,0.000000,0.000000,0.000000,0.000000,0.000000,0.000000,1763132574.263966,0.000000
238.000000,21623.122290,34229.081479,21509.955407,11382.916437,34375.194833,33036.191229,18060.768313,15839.876633,35914.715936,33477.057037,15330.212156,2615.221157,19908.139993,30915.323605,18901.328015,24161.989887,0.016000,-0.004000,1.008000,192.000000,0.000000,64.000000,127.500000,112.000000,15.500000,64.000000,0.000000,0.000000,0.000000,1763132574.263990,0.000000
240.000000,21624.105766,34214.329328,21501.595855,11380.994187,34327.406803,32986.816226,18047.692543,15817.301371,35857.629580,33453.721816,15324.467757,2621.569052,19882.882521,30897.017526,18860.156102,24072.337040,0.016000,-0.004000,1.008000,192.000000,0.000000,0.000000,0.000000,0.000000,0.000000,0.000000,0.000000,0.000000,0.000000,1763132574.264014,0.000000
242.000000,21637.539165,34248.818070,21512.347044,11385.933922,34379.754589,33058.475919,18063.562282,15845.308107,35881.233022,33469.636258,15329.228679,2610.147311,19900.540400,30910.316814,18879.468009,24132.150308,0.016000,-0.004000,1.008000,192.000000,0.000000,0.000000,0.000000,0.000000,0.000000,0.000000,0.000000,0.000000,0.000000,1763132574.264039,0.000000
244.000000,21615.142717,34218.799677,21503.965140,11383.207009,34339.834373,33017.259302,18048.161930,15818.642475,35899.069714,33470.172700,15326.300600,2614.304735,19898.193466,30910.920311,18888.632225,24126.182392,0.016000,-0.004000,1.008000,192.000000,0.000000,0.000000,0.000000,0.000000,0.000000,0.000000,0.000000,0.000000,0.000000,1763132574.264063,0.000000
246.000000,21633.471147,34215.916302,21509.933056,11384.235189,34348.372739,33046.741253,18055.403895,15833.729903,35846.185487,33455.644066,15329.049865,2623.893633,19887.777554,30902.828980,18852.422399,24073.767552,0.016000,-0.004000,1.008000,192.000000,0.000000,0.000000,0.000000,0.000000,0.000000,0.000000,0.000000,0.000000,0.000000,1763132574.264088,0.000000
248.000000,21619.657769,34234.110622,21512.302341,11383.184657,34374.077245,33065.695532,18059.784837,15843.207043,35916.392316,33477.660534,15332.313220,2617.188110,19910.531629,30919.011643,18901.395071,24156.178433,0.017000,-0.008000,1.002000,192.000000,0.000000,72.000000,127.500000,80.000000,15.500000,16.000000,0.000000,0.000000,0.000000,1763132574.264113,0.000000
250.000000,21633.851127,34219.872560,21500.679433,11380.860076,34319.181361,33026.512924,18047.312563,15821.503499,35859.551830,33458.661551,15325.630048,2624.586537,19888.381051,30902.650166,18858.345611,24069.543072,0.017000,-0.008000,1.002000,192.000000,0.000000,0.000000,0.000000,0.000000,0.000000,0.000000,0.000000,0.000000,0.000000,1763132574.264137,0.000000
252.000000,21631.414787,34246.717006,21514.470460,11382.938788,34383.755551,33062.342770,18063.495226,15852.795941,35891.514825,33477.638182,15334.861318,2622.641936,19905.189562,30916.329433,18879.915044,24123.254314,0.017000,-0.008000,1.002000,192.000000,0.000000,0.000000,0.000000,0.000000,0.000000,0.000000,0.000000,0.000000,0.000000,1763132574.264162,0.000000
254.000000,21629.179612,34222.286549,21499.338329,11379.563675,34337.576847,33010.062040,18045.792645,15817.189612,35899.293232,33472.653743,15330.770949,2616.092875,19900.138068,30910.205055,18892.588483,24123.857811,0.017000,-0.008000,1.002000,192.000000,0.000000,0.000000,0.000000,0.000000,0.000000,0.000000,0.000000,0.000000,0.000000,1763132574.264186,0.000000
0.000000,21603.698624,34229.304997,21504.702747,11384.369300,34347.322207,33017.214598,18052.073485,15826.018551,35846.185487,33455.532307,15323.461929,2618.015125,19883.530722,30903.119553,18857.876224,24076.092133,0.017000,-0.008000,1.002000,192.000000,0.000000,0.000000,0.000000,0.000000,0.000000,0.000000,0.000000,0.000000,0.000000,1763132574.264211,0.000000
2.000000,21624.061063,34231.406061,21507.027329,11382.961140,34371.886775,33033.263151,18054.532177,15831.740598,35908.904482,33478.219328,15329.228679,2617.545738,19906.843592,30919.838657,18897.327053,24165.409704,0.017500,-0.012000,1.002000,192.000000,0.000000,72.000000,127.500000,64.000000,15.500000,40.000000,0.000000,0.000000,0.000000,1763132574.264235,0.000000
4.000000,21607.006682,34212.094153,21498.064279,11380.837724,34323.897579,33017.125191,18041.121130,15807.556010,35850.275856,33455.621714,15318.186917,2620.138540,19880.066202,30902.918387,18865.051134,24075.354525,0.017500,-0.012000,1.002000,192.000000,0.000000,0.000000,0.000000,0.000000,0.000000,0.000000,0.000000,0.000000,0.000000,1763132574.264260,0.000000
6.000000,21635.974543,34242.067843,21508.211971,11387.342082,34381.587432,33056.151337,18061.215348,15840.949516,35881.411836,33476.699409,15325.764158,2616.696372,19900.674510,30920.375099,18882.641957,24133.022026,0.017500,-0.012000,1.002000,192.000000,0.000000,0.000000,0.000000,0.000000,0.000000,0.000000,0.000000,0.000000,0.000000,1763132574.264285,0.000000
8.000000,21610.873534,34216.340985,21494.286835,11379.183695,34349.646789,33010.017337,18044.809168,15810.461737,35899.829674,33475.201842,15319.215097,2617.523386,19902.306187,30916.150620,18888.118135,24132.239715,0.017500,-0.012000,1.002000,192.000000,0.000000,0.000000,0.000000,0.000000,0.000000,0.000000,0.000000,0.000000,0.000000,1763132574.264310,0.000000
10.000000,21613.332225,34217.302110,21499.539494,11382.089422,34363.817795,33047.635323,18050.173587,15823.537507,35845.000845,33455.286438,15311.973132,2614.774122,19882.569597,30903.298366,18863.039477,24084.429334,0.017500,-0.012000,1.002000,192.000000,0.000000,0.000000,0.000000,0.000000,0.000000,0.000000,0.000000,0.000000,0.000000,1763132574.264334,0.000000
12.000000,21626.050368,34240.011482,21502.624035,11384.123431,34386.013077,33050.585753,18053.682811,15829.974810,35914.648880,33485.818921,15323.908964,2609.744979,19910.375167,30926.141849,18908.413518,24166.549643,0.016750,-0.016000,1.004000,192.000000,0.000000,64.000000,127.500000,48.000000,15.500000,56.000000,0.000000,0.000000,0.000000,1763132574.264358,0.000000
14.000000,21623.546973,34223.448840,21495.091497,11381.865905,34335.095803,33018.756869,18040.025895,15803.935028,35856.579048,33468.317505,15315.057673,2609.789683,19892.046737,30913.244893,18866.705163,24078.483770,0.016750,-0.016000,1.004000,192.000000,0.000000,0.000000,0.000000,0.000000,0.000000,0.000000,0.000000,0.000000,0.000000,1763132574.264383,0.000000
16.000000,21621.401205,34243.230133,21507.072032,11387.565599,34388.292955,33055.279619,18059.427209,15837.663810,35886.999772,33481.147406,15324.400702,2617.635145,19908.363510,30924.376061,18885.078297,24128.059939,0.016750,-0.016000,1.004000,192.000000,0.000000,0.000000,0.000000,0.000000,0.000000,0.000000,0.000000,0.000000,0.000000,1763132574.264407,0.000000
18.000000,21603.206885,34216.050412,21493.593930,11381.687091,34339.744966,33026.892904,18043.289249,15805.298484,35891.224252,33473.927793,15318.410435,2613.656534,19899.758089,30919.346919,18891.672062,24130.786852,0.016750,-0.016000,1.004000,192.000000,0.000000,0.000000,0.000000,0.000000,0.000000,0.000000,0.000000,0.000000,0.000000,1763132574.264433,0.000000
20.000000,21621.781185,34218.576159,21498.131335,11384.928094,34348.171574,33053.312666,18050.285345,15821.727016,35833.042661,33459.153290,15315.281190,2613.522424,19878.881559,30910.741497,18855.641050,24081.165979,0.016750,-0.016000,1.004000,192.000000,0.000000,0.000000,0.000000,0.000000,0.000000,0.000000,0.000000,0.000000,0.000000,1763132574.264458,0.000000
22.000000,21618.383720,34232.501296,21499.897122,11384.905742,34377.139434,33061.314590,18054.241604,15829.661885,35911.094953,33485.036610,15320.310333,2613.075389,19907.469440,30928.198210,18903.004396,24159.240622,0.017375,-0.019000,1.003000,192.000000,0.000000,72.000000,127.500000,40.000000,15.500000,40.000000,0.000000,0.000000,0.000000,1763132574.264483,0.000000
24.000000,21613.891019,34220.163133,21490.285872,11384.011672,34326.333919,33012.565435,18040.249412,15803.599751,35844.777327,33464.763578,15314.744748,2618.216290,19881.250844,30913.222541,18860.692544,24073.968717,0.017375,-0.019000,1.003000,192.000000,0.000000,0.000000,0.000000,0.000000,0.000000,0.000000,0.000000,0.000000,0.000000,1763132574.264507,0.000000
26.000000,21617.623760,34237.709253,21500.366509,11390.136050,34384.314344,33043.343788,18058.153159,15834.266345,35870.258316,33474.933621,15320.623257,2611.242546,19895.980644,30919.391622,18878.842161,24131.233887,0.017375,-0.019000,1.003000,192.000000,0.000000,0.000000,0.000000,0.000000,0.000000,0.000000,0.000000,0.000000,0.000000,1763132574.264583,0.000000
28.000000,21612.214638,34215.111639,21492.163419,11387.029158,34337.800364,33021.394375,18044.406837,15807.176031,35889.927851,33474.218365,15317.382254,2613.142444,19896.472382,30918.877532,18887.246416,24131.502108,0.017375,-0.019000,1.003000,192.000000,0.000000,0.000000,0.000000,0.000000,0.000000,0.000000,0.000000,0.000000,0.000000,1763132574.264609,0.000000
30.000000,21618.383720,34228.165058,21499.204218,11390.448974,34345.355254,33037.375872,18053.906328,15822.822252,35838.876467,33455.487604,15313.336589,2617.657497,19882.591949,30911.121477,18851.036590,24079.534302,0.017375,-0.019000,1.003000,192.000000,0.000000,0.000000,0.000000,0.000000,0.000000,0.000000,0.000000,0.000000,0.000000,1763132574.264634,0.000000
32.000000,21618.182554,34232.076613,21497.259617,11386.604474,34371.015056,33058.207698,18053.168720,15824.789205,35911.653747,33486.735342,15316.778757,2611.980154,19913.035025,30927.706471,18897.639978,24160.000582,0.018688,-0.019500,1.002500,192.000000,0.000000,80.000000,127.500000,48.000000,15.500000,40.000000,0.000000,0.000000,0.000000,1763132574.264658,0.000000
34.000000,21593.081545,34211.557712,21492.811619,11383.430527,34324.076393,33025.037709,18041.031723,15805.544353,35848.778289,33458.080406,15307.905115,2613.678886,19885.810600,30907.612253,18860.178454,24079.489598,0.018688,-0.019500,1.002500,192.000000,0.000000,0.000000,0.000000,0.000000,0.000000,0.000000,0.000000,0.000000,0.000000,1763132574.264682,0.000000
36.000000,21615.790917,34244.928866,21506.200314,11388.347910,34381.810949,33043.008511,18059.181340,15839.116673,35876.114473,33477.079389,15325.652400,2619.892671,19903.915513,30921.604445,18878.261015,24127.434090,0.018688,-0.019500,1.002500,192.000000,0.000000,0.000000,0.000000,0.000000,0.000000,0.000000,0.000000,0.000000,0.000000,1763132574.264707,0.000000
38.000000,21611.052348,34223.225322,21489.525913,11383.542285,34331.296007,33023.093107,18042.328124,15808.092452,35887.983249,33481.057999,15316.510536,2615.623488,19895.287740,30919.704547,18889.280425,24128.350512,0.018688,-0.019500,1.002500,192.000000,0.000000,0.000000,0.000000,0.000000,0.000000,0.000000,0.000000,0.000000,0.000000,1763132574.264731,0.000000
40.000000,21590.153466,34205.746258,21492.498695,11382.536457,34341.331940,33027.161125,18047.558433,15816.004970,35828.438202,33452.492470,15308.598019,2614.707066,19870.499655,30901.756096,18849.941355,24079.288433,0.018688,-0.019500,1.002500,192.000000,0.000000,0.000000,0.000000,0.000000,0.000000,0.000000,0.000000,0.000000,0.000000,1763132574.264755,0.000000
42.000000,21605.844391,34224.097040,21494.890332,11384.972797,34368.601068,33051.792747,18052.408761,15825.169185,35892.811226,33467.803415,15310.721434,2607.666267,19896.450030,30917.849352,18897.192943,24161.006410,0.018344,-0.015750,1.005250,192.000000,0.000000,72.000000,127.500000,80.000000,15.500000,64.000000,0.000000,0.000000,0.000000,1763132574.264795,0.000000
44.000000,21610.471202,34201.812351,21486.441372,11382.424698,34319.762506,33008.653880,18038.081293,15802.079833,35846.923095,33452.961856,15307.726301,2611.667229,19880.468533,30907.634605,18852.780027,24074.974546,0.018344,-0.015750,1.005250,192.000000,0.000000,0.000000,0.000000,0.000000,0.000000,0.000000,0.000000,0.000000,0.000000,1763132574.264820,0.000000
46.000000,21589.818190,34218.687918,21499.807715,11384.257541,34374.859557,33033.330206,18055.158026,15831.517080,35871.577069,33457.298095,15311.213173,2609.789683,19895.399498,30910.182704,18876.674041,24133.066730,0.018344,-0.015750,1.005250,192.000000,0.000000,0.000000,0.000000,0.000000,0.000000,0.000000,0.000000,0.000000,0.000000,1763132574.264845,0.000000
48.000000,21576.787123,34188.557767,21489.548265,11379.787192,34335.520486,33029.083375,18039.802377,15802.616275,35886.284517,33451.017255,15309.603847,2607.822729,19896.986472,30905.175913,18891.202675,24129.110471,0.018344,-0.015750,1.005250,192.000000,0.000000,0.000000,0.000000,0.000000,0.000000,0.000000,0.000000,0.000000,0.000000,1763132574.264870,0.000000
50.000000,21584.900807,34206.103886,21495.180904,11381.776498,34347.903353,33039.722805,18046.865528,15817.413129,35828.281740,33436.555676,15301.914847,2607.867433,19879.552112,30899.275052,18858.502073,24076.226244,0.018344,-0.015750,1.005250,192.000000,0.000000,0.000000,0.000000,0.000000,0.000000,0.000000,0.000000,0.000000,0.000000,1763132574.264894,0.000000
52.000000,21602.156353,34220.677223,21497.952521,11383.072899,34377.608821,33049.535221,18051.827616,15828.343133,35901.640165,33465.791758,15312.196650,2607.867433,19910.129298,30917.379965,18902.959693,24162.816902,0.019172,-0.013875,1.005625,192.000000,0.000000,80.000000,127.500000,80.000000,15.500000,56.000000,0.000000,0.000000,0.000000,1763132574.264919,0.000000
54.000000,21597.663653,34197.409057,21489.727079,11380.949483,34324.612835,33021.930816,18038.014238,15804.024435,35845.336121,33443.484717,15303.837097,2613.455369,19885.162399,30904.684175,18861.899538,24074.125180,0.019172,-0.013875,1.005625,192.000000,0.000000,0.000000,0.000000,0.000000,0.000000,0.000000,0.000000,0.000000,0.000000,1763132574.264943,0.000000
56.000000,21601.441097,34234.334139,21503.562808,11387.699710,34378.413484,33057.000703,18056.901462,15841.217737,35874.706313,33459.980304,15316.354074,2611.801340,19902.954388,30916.307082,18877.791629,24129.870430,0.019172,-0.013875,1.005625,192.000000,0.000000,0.000000,0.000000,0.000000,0.000000,0.000000,0.000000,0.000000,0.000000,1763132574.264968,0.000000
58.000000,21606.112612,34202.706421,21494.599759,11380.927131,34340.639036,33019.941511,18042.059903,15811.780490,35904.165912,33465.411778,15317.605772,2617.299869,19910.352815,30915.882399,18888.453411,24124.349549,0.019172,-0.013875,1.005625,192.000000,0.000000,0.000000,0.000000,0.000000,0.000000,0.000000,0.000000,0.000000,0.000000,1763132574.264992,0.000000
60.000000,21588.991176,34209.926034,21496.700823,11381.307111,34340.504925,33019.785049,18046.016162,15817.547240,35841.670435,33439.640217,15310.743786,2610.571994,19888.693975,30899.453866,18855.037553,24077.254424,0.019172,-0.013875,1.005625,192.000000,0.000000,0.000000,0.000000,0.000000,0.000000,0.000000,0.000000,0.000000,0.000000,1763132574.265017,0.000000
62.000000,21615.209772,34222.107735,21501.037061,11383.944617,34377.161786,33033.151392,18051.000601,15827.873746,35910.916139,33465.814110,15315.974094,2600.759578,19912.833859,30914.362480,18901.193905,24159.888823,0.019172,-0.013875,1.005625,192.000000,0.000000,0.000000,0.000000,0.000000,0.000000,0.000000,0.000000,0.000000,0.000000,1763132574.265041,0.000000
64.000000,21595.696699,34202.058220,21492.409288,11381.687091,34323.942283,33036.057119,18037.231927,15800.783432,35866.123243,33449.497336,15307.301618,2607.040418,19893.834876,30904.505361,18860.312564,24065.899738,0.022000,-0.012000,1.008000,192.000000,0.000000,88.000000,127.500000,80.000000,15.500000,64.000000,0.000000,0.000000,0.000000,1763132574.265066,0.000000
66.000000,21607.990159,34230.288473,21505.730928,11385.308073,34374.278411,33065.516718,18055.672116,15833.148758,35880.607174,33458.169813,15314.163603,2603.888822,19907.156516,30915.033032,18879.155085,24129.155174,0.022000,-0.012000,1.008000,192.000000,0.000000,0.000000,0.000000,0.000000,0.000000,0.000000,0.000000,0.000000,0.000000,1763132574.265091,0.000000
68.000000,21578.418801,34204.315746,21495.627939,11381.061242,34339.208524,33022.847238,18040.696447,15808.181859,35893.459427,33459.555621,15317.404606,2610.124959,19911.425699,30910.316814,18893.035518,24126.316503,0.022000,-0.012000,1.008000,192.000000,0.000000,0.000000,0.000000,0.000000,0.000000,0.000000,0.000000,0.000000,0.000000,1763132574.265115,0.000000
70.000000,21604.302121,34210.529531,21499.897122,11386.358605,34347.299856,33034.716014,18047.558433,15822.665789,35840.418737,33447.508031,15316.823461,2612.203671,19899.735737,30903.141904,18854.724628,24079.131970,0.022000,-0.012000,1.008000,192.000000,0.000000,0.000000,0.000000,0.000000,0.000000,0.000000,0.000000,0.000000,0.000000,1763132574.743541,0.000000
72.000000,21605.956150,34217.570331,21502.177000,11381.240056,34375.083074,33059.727616,18052.252299,15827.382008,35913.844218,33469.099816,15316.152908,2609.812034,19923.182717,30918.452849,18899.204600,24165.052076,0.022000,-0.012000,1.008000,192.000000,0.000000,0.000000,0.000000,0.000000,0.000000,0.000000,0.000000,0.000000,0.000000,1763132574.743645,0.000000
74.000000,21575.267205,34199.420714,21494.532704,11375.987396,34323.852876,33006.374002,18038.863604,15803.622103,35861.474080,33444.959932,15310.497917,2607.889784,19898.506391,30900.437343,18861.251338,24071.241805,0.024000,-0.016000,1.010000,192.000000,0.000000,96.000000,127.500000,64.000000,15.500000,72.000000,0.000000,0.000000,0.000000,1763132574.743731,0.000000
76.000000,21607.811345,34233.015386,21509.284855,11383.162306,34378.011153,33049.714035,18059.158988,15841.329496,35884.362267,33460.673208,15323.752501,2605.855776,19915.560772,30909.333337,18881.792591,24119.767442,0.024000,-0.016000,1.010000,192.000000,0.000000,0.000000,0.000000,0.000000,0.000000,0.000000,0.000000,0.000000,0.000000,1763132574.743819,0.000000
78.000000,21605.933798,34216.497447,21498.064279,11379.474268,34344.774109,33021.617892,18043.199842,15811.378158,35909.597386,33467.848118,15321.070292,2615.265860,19922.087481,30913.937797,18886.464105,24113.955988,0.024000,-0.016000,1.010000,192.000000,0.000000,0.000000,0.000000,0.000000,0.000000,0.000000,0.000000,0.000000,0.000000,1763132574.743906,0.000000
80.000000,21603.251589,34216.810371,21499.628901,11379.340157,34351.233763,33032.480840,18046.776121,15819.000103,35844.218534,33446.211630,15313.113071,2606.682790,19898.126411,30898.984480,18853.830559,24070.303031,0.024000,-0.016000,1.010000,192.000000,0.000000,0.000000,0.000000,0.000000,0.000000,0.000000,0.000000,0.000000,0.000000,1763132574.743991,0.000000
82.000000,21601.217580,34227.919188,21501.484096,11376.680300,34373.451397,33050.988084,18051.492340,15826.331476,35914.000680,33467.959877,15317.471661,2606.325162,19921.014598,30910.987367,18905.284274,24151.328105,0.024000,-0.016000,1.010000,192.000000,0.000000,0.000000,0.000000,0.000000,0.000000,0.000000,0.000000,0.000000,0.000000,1763132574.744056,0.000000
84.000000,21599.518847,34197.833740,21490.889369,11376.769707,34324.814001,33021.170857,18038.573031,15801.588094,35857.741339,33445.697540,15305.871106,2602.681828,19893.298434,30894.648241,18871.242567,24065.676220,0.022000,-0.014000,1.006000,192.000000,0.000000,88.000000,127.500000,72.000000,15.500000,56.000000,0.000000,0.000000,0.000000,1763132574.744088,0.000000
86.000000,21585.169027,34220.319595,21501.417041,11380.770669,34379.464016,33048.819965,18055.962688,15833.931069,35871.197089,33460.360284,15313.001312,2606.973363,19905.591894,30910.786201,18886.017071,24121.332064,0.022000,-0.014000,1.006000,192.000000,0.000000,0.000000,0.000000,0.000000,0.000000,0.000000,0.000000,0.000000,0.000000,1763132574.744119,0.000000
88.000000,21578.485856,34204.606319,21489.302395,11376.188561,34337.621550,33027.742270,18042.194014,15806.594885,35886.753903,33459.197993,15313.515402,2606.951011,19900.339234,30906.248797,18894.018995,24122.203782,0.022000,-0.014000,1.006000,192.000000,0.000000,0.000000,0.000000,0.000000,0.000000,0.000000,0.000000,0.000000,0.000000,1763132574.744149,0.000000
90.000000,21606.358481,34221.124258,21492.364584,11380.077765,34343.120079,33046.517735,18048.005467,15817.770757,35838.585894,33444.602304,15308.150984,2607.375694,19888.962196,30900.526750,18856.937451,24075.086305,0.022000,-0.014000,1.006000,192.000000,0.000000,0.000000,0.000000,0.000000,0.000000,0.000000,0.000000,0.000000,0.000000,1763132574.744260,0.000000
92.000000,21597.842467,34226.891008,21498.086631,11381.038890,34372.982010,33045.601314,18053.526348,15827.404359,35907.183398,33464.450653,15310.184993,2603.799415,19915.851345,30916.999986,18903.920818,24156.781931,0.022000,-0.014000,1.006000,192.000000,0.000000,0.000000,0.000000,0.000000,0.000000,0.000000,0.000000,0.000000,0.000000,1763132574.744289,0.000000
94.000000,21597.283673,34206.103886,21490.419983,11381.552980,34326.915065,33014.286520,18039.355342,15805.946685,35855.260295,33451.777214,15306.362844,2611.756636,19896.159458,30904.147733,18864.581748,24071.264156,0.018000,-0.016000,1.000000,192.000000,0.000000,72.000000,127.500000,64.000000,15.500000,32.000000,0.000000,0.000000,0.000000,1763132574.744318,0.000000
96.000000,21622.831717,34235.697596,21506.446183,11385.531591,34383.420275,33049.579924,18059.024877,15840.413075,35882.887051,33467.043455,15316.309371,2612.784816,19912.431528,30914.697756,18881.054983,24126.383558,0.018000,-0.016000,1.000000,192.000000,0.000000,0.000000,0.000000,0.000000,0.000000,0.000000,0.000000,0.000000,0.000000,1763132574.744430,0.000000
98.000000,21594.981443,34217.927959,21497.751355,11381.262407,34345.824640,33025.596502,18044.160967,15813.747443,35910.983194,33471.290287,15318.611600,2614.528252,19920.522859,30912.999024,18893.326091,24120.415642,0.018000,-0.016000,1.000000,192.000000,0.000000,0.000000,0.000000,0.000000,0.000000,0.000000,0.000000,0.000000,0.000000,1763132574.744459,0.000000
100.000000,21608.973635,34236.189334,21502.914608,11386.850344,34356.173498,33034.358386,18052.229947,15828.812519,35858.836574,33451.710159,15316.421129,2618.149235,19905.278969,30905.846465,18856.691582,24072.962889,0.018000,-0.016000,1.000000,192.000000,0.000000,0.000000,0.000000,0.000000,0.000000,0.000000,0.000000,0.000000,0.000000,1763132574.744572,0.000000
102.000000,21613.332225,34239.139764,21501.886428,11387.230323,34377.385304,33061.783977,18054.666287,15833.349923,35925.981215,33482.801435,15321.919658,2615.087046,19927.295438,30924.219599,18900.903332,24162.146349,0.018000,-0.016000,1.000000,192.000000,0.000000,0.000000,0.000000,0.000000,0.000000,0.000000,0.000000,0.000000,0.000000,1763132574.744601,0.000000
104.000000,21605.732632,34208.897854,21489.548265,11382.782326,34318.421402,33000.070810,18039.511805,15804.985560,35862.882240,33455.040569,15311.302580,2619.110360,19896.762955,30904.572416,18863.799437,24074.125180,0.020000,-0.008000,1.000000,192.000000,0.000000,80.000000,127.500000,96.000000,15.500000,32.000000,0.000000,0.000000,0.000000,1763132574.744631,0.000000
106.000000,21607.923103,34234.512953,21501.037061,11385.241018,34373.786673,33054.519660,18055.985040,15833.439330,35884.786950,33465.836461,15318.365731,2614.148273,19907.089461,30909.825076,18881.434963,24126.920000,0.020000,-0.008000,1.000000,192.000000,0.000000,0.000000,0.000000,0.000000,0.000000,0.000000,0.000000,0.000000,0.000000,1763132574.744718,0.000000
108.000000,21603.698624,34213.189389,21493.348061,11381.016538,34348.506850,33017.885151,18041.568165,15808.941818,35904.635299,33464.271839,15314.856507,2611.399008,19906.016577,30906.338204,18894.734251,24127.277628,0.020000,-0.008000,1.000000,192.000000,0.000000,0.000000,0.000000,0.000000,0.000000,0.000000,0.000000,0.000000,0.000000,1763132574.744754,0.000000
110.000000,21608.526600,34221.705404,21498.868942,11384.481059,34346.472841,33037.867610,18047.133749,15821.279981,35850.029987,33454.437072,15318.343379,2615.891709,19899.646330,30901.979614,18858.390314,24076.539168,0.020000,-0.008000,1.000000,192.000000,0.000000,0.000000,0.000000,0.000000,0.000000,0.000000,0.000000,0.000000,0.000000,1763132574.744784,0.000000
112.000000,21605.911446,34225.125220,21500.366509,11381.865905,34371.707961,33038.895790,18052.364058,15828.499595,35916.705241,33475.894746,15322.701969,2611.488415,19917.773595,30912.954320,18903.652597,24162.459274,0.020000,-0.008000,1.000000,192.000000,0.000000,0.000000,0.000000,0.000000,0.000000,0.000000,0.000000,0.000000,0.000000,1763132574.744807,0.000000
114.000000,21614.472164,34209.635462,21491.112887,11382.625864,34318.063774,33003.021241,18040.696447,15807.198382,35864.491566,33454.034740,15312.084891,2615.869357,19895.287740,30900.280881,18864.000602,24072.314688,0.022000,-0.012000,1.000000,192.000000,0.000000,88.000000,127.500000,80.000000,15.500000,32.000000,0.000000,0.000000,0.000000,1763132574.744831,0.000000
116.000000,21611.119403,34241.330235,21503.562808,11387.610303,34371.216222,33046.987122,18059.404857,15840.591888,35889.838444,33470.820900,15320.980885,2617.389276,19910.755147,30913.669576,18880.183265,24125.131860,0.022000,-0.012000,1.000000,192.000000,0.000000,0.000000,0.000000,0.000000,0.000000,0.000000,0.000000,0.000000,0.000000,1763132574.744854,0.000000
118.000000,21613.980426,34230.601398,21494.465648,11383.341120,34338.470917,33015.046479,18043.982153,15813.993313,35913.196017,33480.365095,15326.680580,2619.088008,19917.997112,30915.457715,18894.264864,24124.751881,0.022000,-0.012000,1.000000,192.000000,0.000000,0.000000,0.000000,0.000000,0.000000,0.000000,0.000000,0.000000,0.000000,1763132574.744877,0.000000
120.000000,21611.164106,34227.807430,21499.740660,11387.476192,34341.913085,33038.940494,18051.358229,15829.237202,35843.033891,33459.756787,15319.885650,2617.143407,19898.327577,30904.281843,18858.122093,24071.621784,0.022000,-0.012000,1.000000,192.000000,0.000000,0.000000,0.000000,0.000000,0.000000,0.000000,0.000000,0.000000,0.000000,1763132574.744900,0.000000
122.000000,21620.417728,34242.447822,21500.701785,11388.258503,34365.427120,33054.050273,18055.739171,15840.234261,35911.318470,33490.781008,15329.094568,2623.848930,19920.053473,30923.258474,18902.803231,24159.620602,0.022000,-0.012000,1.000000,192.000000,0.000000,0.000000,0.000000,0.000000,0.000000,0.000000,0.000000,0.000000,0.000000,1763132574.744924,0.000000
124.000000,21599.630606,34220.409002,21490.822314,11383.497582,34316.409745,33010.821999,18042.305773,15814.909734,35853.382749,33466.372903,15321.494975,2626.262918,19894.460725,30905.175913,18862.011297,24072.828778,0.020000,-0.016000,1.002000,192.000000,0.000000,80.000000,127.500000,64.000000,15.500000,40.000000,0.000000,0.000000,0.000000,1763132574.744947,0.000000
126.000000,21610.493554,34242.559581,21502.400518,11387.386785,34371.193870,33048.641151,18059.248395,15842.000048,35865.519746,33475.246546,15324.512461,2619.199767,19903.557885,30913.490762,18877.635166,24131.725625,0.020000,-0.016000,1.002000,192.000000,0.000000,0.000000,0.000000,0.000000,0.000000,0.000000,0.000000,0.000000,0.000000,1763132574.744971,0.000000
128.000000,21629.827813,34227.025119,21493.996262,11381.038890,34335.006396,32998.707354,18043.624526,15816.474356,35894.018220,33476.878223,15321.159699,2616.115226,19907.961179,30913.334300,18894.108402,24123.835459,0.020000,-0.016000,1.002000,192.000000,0.000000,0.000000,0.000000,0.000000,0.000000,0.000000,0.000000,0.000000,0.000000,1763132574.745011,0.000000
130.000000,21627.011493,34237.083404,21498.421907,11382.290588,34335.900466,33004.742325,18049.972421,15827.873746,35840.798717,33460.494394,15315.325894,2617.948069,19893.052565,30903.924215,18854.657573,24076.360354,0.020000,-0.016000,1.002000,192.000000,0.000000,0.000000,0.000000,0.000000,0.000000,0.000000,0.000000,0.000000,0.000000,1763132574.745035,0.000000
132.000000,21617.444946,34238.782136,21500.165343,11382.759974,34360.040350,33046.093052,18054.643936,15838.781397,35907.183398,33485.528348,15324.534813,2615.645840,19914.063205,30919.324567,18901.976216,24164.850910,0.020000,-0.016000,1.002000,192.000000,0.000000,0.000000,0.000000,0.000000,0.000000,0.000000,0.000000,0.000000,0.000000,1763132574.745058,0.000000
134.000000,21598.110688,34220.207837,21491.828143,11379.161343,34308.139599,32991.890072,18040.852909,15813.032188,35846.744281,33460.360284,15315.392949,2622.954860,19888.582216,30907.880474,18861.050172,24077.142665,0.018000,-0.016000,1.003000,192.000000,0.000000,64.000000,127.500000,64.000000,15.500000,48.000000,0.000000,0.000000,0.000000,1763132574.745082,0.000000
136.000000,21614.829792,34236.636369,21503.540457,11383.475230,34364.354237,33049.021131,18057.616718,15842.469435,35869.610115,33468.541022,15320.869126,2614.282383,19900.585103,30909.601558,18879.088030,24130.451576,0.018000,-0.016000,1.003000,192.000000,0.000000,0.000000,0.000000,0.000000,0.000000,0.000000,0.000000,0.000000,0.000000,1763132574.745106,0.000000
138.000000,21632.040636,34236.636369,21492.945730,11383.274064,34332.972387,33022.154334,18044.116264,15817.994275,35894.465255,33476.073560,15322.433749,2615.042343,19909.794022,30916.798820,18885.324166,24131.591515,0.018000,-0.016000,1.003000,192.000000,0.000000,0.000000,0.000000,0.000000,0.000000,0.000000,0.000000,0.000000,0.000000,1763132574.745129,0.000000
140.000000,21609.018339,34233.775346,21496.164381,11381.865905,34339.946132,33009.257377,18046.977287,15826.219717,35839.502315,33462.617810,15319.259801,2611.689581,19893.790173,30902.381945,18851.908308,24081.076572,0.018000,-0.016000,1.003000,192.000000,0.000000,0.000000,0.000000,0.000000,0.000000,0.000000,0.000000,0.000000,0.000000,1763132574.745153,0.000000
142.000000,21621.110633,34234.557657,21501.461744,11383.363471,34368.712827,33017.683985,18054.152197,15835.987429,35906.110514,33480.096874,15324.423054,2612.248374,19915.985455,30913.580169,18912.258019,24159.866471,0.018000,-0.016000,1.003000,192.000000,0.000000,0.000000,0.000000,0.000000,0.000000,0.000000,0.000000,0.000000,0.000000,1763132574.745177,0.000000
144.000000,21597.663653,34213.658776,21489.436506,11384.481059,34315.068640,33019.673290,18040.383523,15810.081757,35858.098967,33460.181470,15316.912868,2621.814921,19896.606493,30906.226445,18868.783876,24075.801560,0.019000,-0.017000,1.004500,192.000000,0.000000,80.000000,127.500000,56.000000,15.500000,56.000000,0.000000,0.000000,0.000000,1763132574.745200,0.000000
146.000000,21611.946417,34244.593590,21501.841724,11389.241980,34369.897469,33048.015302,18058.220215,15839.183729,35872.694656,33476.207671,15320.489147,2615.467026,19905.636597,30920.173934,18884.407745,24138.274686,0.019000,-0.017000,1.004500,192.000000,0.000000,0.000000,0.000000,0.000000,0.000000,0.000000,0.000000,0.000000,0.000000,1763132574.745239,0.000000
148.000000,21602.424574,34216.877427,21494.309186,11383.542285,34338.426213,33017.125191,18043.043380,15812.361635,35889.927851,33475.917098,15322.165528,2609.588517,19908.184696,30918.206980,18901.417422,24137.626486,0.019000,-0.017000,1.004500,192.000000,0.000000,0.000000,0.000000,0.000000,0.000000,0.000000,0.000000,0.000000,0.000000,1763132574.745262,0.000000
150.000000,21620.305970,34230.534343,21499.807715,11386.895047,34339.320283,33020.455601,18050.419456,15825.347999,35841.156345,33457.231040,15318.030455,2616.361095,19894.796001,30911.210884,18860.357268,24080.718944,0.019000,-0.017000,1.004500,192.000000,0.000000,0.000000,0.000000,0.000000,0.000000,0.000000,0.000000,0.000000,0.000000,1763132574.745281,0.000000
152.000000,21628.553763,34249.510974,21504.054547,11384.168134,34368.846937,33022.310796,18056.387372,15834.601621,35913.955976,33483.695505,15330.279211,2612.583651,19923.562696,30923.727861,18904.121984,24161.453445,0.019000,-0.017000,1.004500,192.000000,0.000000,0.000000,0.000000,0.000000,0.000000,0.000000,0.000000,0.000000,0.000000,1763132574.745293,0.000000
154.000000,21613.309874,34214.083459,21495.605587,11380.457745,34316.074469,33004.541159,18044.719761,15807.779528,35854.187412,33458.192165,15320.667961,2612.650706,19899.847496,30906.315852,18863.866492,24070.101866,0.018500,-0.016500,1.003250,192.000000,0.000000,72.000000,127.500000,64.000000,15.500000,40.000000,0.000000,0.000000,0.000000,1763132574.745306,0.000000
156.000000,21598.043632,34242.179601,21505.283893,11383.251713,34366.343542,33034.403090,18060.835369,15835.875670,35871.018275,33468.898650,15322.992542,2606.995715,19909.190525,30915.435364,18877.635166,24123.969570,0.018500,-0.016500,1.003250,192.000000,0.000000,0.000000,0.000000,0.000000,0.000000,0.000000,0.000000,0.000000,0.000000,1763132574.745317,0.000000
158.000000,21602.044595,34222.398308,21491.448163,11377.641425,34324.434021,33023.517790,18044.295078,15806.147850,35890.374886,33468.295153,15316.197612,2611.309601,19911.380996,30914.764811,18889.570998,24127.009407,0.018500,-0.016500,1.003250,192.000000,0.000000,0.000000,0.000000,0.000000,0.000000,0.000000,0.000000,0.000000,0.000000,1763132574.745330,0.000000
160.000000,21617.377891,34232.344834,21494.465648,11381.061242,34329.977254,33034.000758,18048.720723,15814.105071,35833.579103,33452.537173,15309.872068,2610.549642,19890.549170,30906.360555,18853.092951,24077.232072,0.018500,-0.016500,1.003250,192.000000,0.000000,0.000000,0.000000,0.000000,0.000000,0.000000,0.000000,0.000000,0.000000,1763132574.745342,0.000000
162.000000,21620.954170,34249.309808,21498.533666,11382.268236,34363.996609,33044.975465,18052.565223,15821.838775,35900.388467,33472.229060,15314.856507,2601.094854,19917.438318,30920.062175,18899.629283,24165.633221,0.018500,-0.016500,1.003250,192.000000,0.000000,0.000000,0.000000,0.000000,0.000000,0.000000,0.000000,0.000000,0.000000,1763132574.745354,0.000000
164.000000,21604.168010,34222.621825,21487.871884,11380.971835,34317.169704,32995.868682,18039.221232,15799.755251,35848.063034,33452.492470,15314.029493,2604.984058,19895.064222,30906.248797,18862.860663,24079.221377,0.015250,-0.013250,1.005625,192.000000,0.000000,48.000000,127.500000,88.000000,15.500000,64.000000,0.000000,0.000000,0.000000,1763132574.745366,0.000000
166.000000,21640.444892,34241.933732,21501.260579,11387.051509,34368.444606,33026.267055,18058.086104,15837.328534,35870.034798,33469.680961,15318.723359,2609.610869,19910.509278,30914.764811,18879.266844,24131.345645,0.015250,-0.013250,1.005625,192.000000,0.000000,0.000000,0.000000,0.000000,0.000000,0.000000,0.000000,0.000000,0.000000,1763132574.745378,0.000000
168.000000,21594.713222,34220.543113,21489.257692,11379.809544,34328.166762,33013.146581,18041.076427,15802.973903,35885.099874,33469.971534,15314.118900,2610.147311,19910.822202,30916.441192,18894.421326,24141.470986,0.015250,-0.013250,1.005625,192.000000,0.000000,0.000000,0.000000,0.000000,0.000000,0.000000,0.000000,0.000000,0.000000,1763132574.745390,0.000000
170.000000,21610.962941,34237.463383,21497.796058,11382.156477,34341.510754,33028.435174,18049.055999,15817.994275,35835.255484,33452.268952,15315.080025,2607.107473,19897.612321,30906.829942,18861.050172,24087.759744,0.015250,-0.013250,1.005625,192.000000,0.000000,0.000000,0.000000,0.000000,0.000000,0.000000,0.000000,0.000000,0.000000,1763132574.745402,0.000000
172.000000,21624.821022,34245.621770,21497.840762,11383.318768,34370.590373,33065.784939,18053.168720,15826.398531,35913.285424,33480.923889,15322.053769,2606.392217,19925.395539,30927.080623,18908.525277,24169.455370,0.015250,-0.013250,1.005625,192.000000,0.000000,0.000000,0.000000,0.000000,0.000000,0.000000,0.000000,0.000000,0.000000,1763132574.745414,0.000000
174.000000,21608.370138,34227.360395,21486.128448,11383.162306,34315.873303,33034.358386,18037.544851,15802.169240,35860.445900,33459.041531,15310.989655,2613.589479,19902.194429,30911.881436,18865.408762,24088.564406,0.014625,-0.012625,1.004812,192.000000,0.000000,56.000000,127.500000,80.000000,15.500000,48.000000,0.000000,0.000000,0.000000,1763132574.745426,0.000000
176.000000,21617.444946,34251.276761,21496.790230,11387.856172,34367.282315,33066.030808,18056.700296,15836.635630,35874.393389,33473.704275,15323.216060,2614.975287,19911.246885,30922.789088,18879.244492,24139.325218,0.014625,-0.012625,1.004812,192.000000,0.000000,0.000000,0.000000,0.000000,0.000000,0.000000,0.000000,0.000000,0.000000,1763132574.745438,0.000000
178.000000,21610.180630,34225.438145,21486.396669,11382.312939,34336.235742,33024.054232,18041.612869,15810.908772,35895.962822,33476.922927,15319.863298,2609.901441,19915.247847,30920.240989,18890.196847,24141.225116,0.014625,-0.012625,1.004812,192.000000,0.000000,0.000000,0.000000,0.000000,0.000000,0.000000,0.000000,0.000000,0.000000,1763132574.745450,0.000000
180.000000,21609.532429,34239.162116,21493.549227,11385.196314,34342.740100,33021.796706,18047.312563,15823.202231,35841.156345,33461.120243,15313.090719,2617.769255,19899.333405,30912.306119,18860.916062,24082.305918,0.014625,-0.012625,1.004812,192.000000,0.000000,0.000000,0.000000,0.000000,0.000000,0.000000,0.000000,0.000000,0.000000,1763132574.745462,0.000000
182.000000,21613.242819,34244.303017,21493.571579,11383.877562,34364.086016,33033.330206,18050.911194,15830.310086,35909.798552,33483.494339,15322.120824,2614.192976,19925.976685,30923.817268,18905.485440,24169.231852,0.014625,-0.012625,1.004812,192.000000,0.000000,0.000000,0.000000,0.000000,0.000000,0.000000,0.000000,0.000000,0.000000,1763132574.745474,0.000000
184.000000,21618.920162,34227.248636,21485.547302,11381.374166,34315.940358,33000.137866,18037.276630,15804.471469,35860.758824,33462.707217,15312.598981,2615.511729,19903.557885,30910.786201,18862.994774,24084.697555,0.012313,-0.013313,1.004406,192.000000,0.000000,40.000000,127.500000,72.000000,15.500000,48.000000,0.000000,0.000000,0.000000,1763132574.745486,0.000000
186.000000,21645.898717,34257.512898,21495.538532,11385.755108,34376.267716,33060.308762,18054.487473,15834.892194,35883.758769,33478.912232,15314.901211,2613.120093,19918.354740,30921.291521,18879.579768,24133.960799,0.012313,-0.013313,1.004406,192.000000,0.000000,0.000000,0.000000,0.000000,0.000000,0.000000,0.000000,0.000000,0.000000,1763132574.745498,0.000000
188.000000,21606.894923,34244.772404,21486.776648,11380.189524,34342.360120,33041.622703,18039.511805,15807.556010,35904.210616,33481.482682,15312.911905,2608.225060,19918.645313,30923.526695,18892.521428,24138.431148,0.012313,-0.013313,1.004406,192.000000,0.000000,0.000000,0.000000,0.000000,0.000000,0.000000,0.000000,0.000000,0.000000,1763132574.745510,0.000000
190.000000,21598.490667,34233.194200,21489.302395,11380.278931,34350.965542,33029.262189,18044.004505,15817.524888,35843.413871,33460.874374,15314.588286,2609.677924,19902.328539,30912.529637,18860.938413,24079.355488,0.012313,-0.013313,1.004406,192.000000,0.000000,0.000000,0.000000,0.000000,0.000000,0.000000,0.000000,0.000000,0.000000,1763132575.222940,0.000000
192.000000,21606.045557,34240.503221,21490.151762,11383.184657,34377.832339,33047.300046,18049.815959,15828.924278,35909.686793,33491.786837,15319.148042,2606.727494,19924.501470,30927.661768,18905.708957,24166.370829,0.012313,-0.013313,1.004406,192.000000,0.000000,0.000000,0.000000,0.000000,0.000000,0.000000,0.000000,0.000000,0.000000,1763132575.223014,0.000000
194.000000,21607.565475,34221.146610,21482.239244,11379.854248,34327.496210,33004.094124,18035.622601,15804.583228,35859.015388,33460.673208,15312.174298,2612.896575,19897.880542,30910.495628,18866.235777,24086.217473,0.014156,-0.014656,1.005203,192.000000,0.000000,64.000000,127.500000,64.000000,15.500000,56.000000,0.000000,0.000000,0.000000,1763132575.223068,0.000000
196.000000,21639.372008,34254.271895,21495.762050,11386.000977,34384.806083,33052.619762,18055.538005,15838.759045,35881.791816,33475.537118,15319.036283,2620.563223,19914.666702,30923.414936,18880.831466,24136.531250,0.014156,-0.014656,1.005203,192.000000,0.000000,0.000000,0.000000,0.000000,0.000000,0.000000,0.000000,0.000000,0.000000,1763132575.223117,0.000000
198.000000,21623.904601,34232.836572,21480.719326,11381.351814,34343.075376,33035.855953,18038.036589,15804.359711,35901.908386,33479.560432,15310.542620,2617.098703,19913.571467,30921.895018,18894.108402,24140.509861,0.014156,-0.014656,1.005203,192.000000,0.000000,0.000000,0.000000,0.000000,0.000000,0.000000,0.000000,0.000000,0.000000,1763132575.223166,0.000000
200.000000,21591.360461,34239.095061,21485.547302,11384.257541,34347.389263,33036.168878,18042.573994,15815.870859,35848.800641,33461.813147,15307.212211,2612.516595,19898.640501,30911.412050,18856.401009,24090.039622,0.014156,-0.014656,1.005203,192.000000,0.000000,0.000000,0.000000,0.000000,0.000000,0.000000,0.000000,0.000000,0.000000,1763132575.223217,0.000000
202.000000,21604.480935,34250.293285,21491.984605,11383.810506,34373.294934,33055.637247,18048.407799,15823.939839,35909.105648,33484.254299,15320.757368,2607.710970,19925.306132,30926.208905,18902.020920,24173.813960,0.014156,-0.014656,1.005203,192.000000,0.000000,0.000000,0.000000,0.000000,0.000000,0.000000,0.000000,0.000000,0.000000,1763132575.223231,0.000000
204.000000,21609.979464,34233.060090,21481.076954,11383.855210,34323.361137,33029.776279,18034.974400,15799.554086,35854.969723,33465.255316,15306.675769,2611.287249,19902.328539,30915.591826,18862.793608,24085.792790,0.014156,-0.014656,1.005203,192.000000,0.000000,0.000000,0.000000,0.000000,0.000000,0.000000,0.000000,0.000000,0.000000,1763132575.223243,0.000000
206.000000,21635.460452,34273.583802,21497.796058,11388.727890,34382.615612,33060.219355,18053.928680,15838.781397,35887.849139,33489.663421,15318.701007,2617.098703,19919.695845,30930.232219,18874.528274,24140.442805,0.012000,-0.010000,1.008000,192.000000,0.000000,48.000000,127.500000,88.000000,15.500000,64.000000,0.000000,0.000000,0.000000,1763132575.223256,0.000000
208.000000,21597.484839,34219.291415,21484.742640,11376.970873,34337.196867,33009.436191,18035.332028,15802.951551,35902.355421,33472.027895,15313.269533,2607.040418,19919.941714,30917.759945,18902.669120,24132.440881,0.012000,-0.010000,1.008000,192.000000,0.000000,0.000000,0.000000,0.000000,0.000000,0.000000,0.000000,0.000000,0.000000,1763132575.223269,0.000000
210.000000,21602.044595,34223.538247,21487.938939,11379.898951,34342.561286,33020.187380,18040.361171,15812.965132,35841.357510,33448.245638,15304.060615,2601.631296,19898.171115,30903.410125,18866.012259,24085.412810,0.012000,-0.010000,1.008000,192.000000,0.000000,0.000000,0.000000,0.000000,0.000000,0.000000,0.000000,0.000000,0.000000,1763132575.223281,0.000000
212.000000,21608.571304,34234.781174,21492.453991,11380.882428,34377.072379,33055.927820,18047.424322,15823.693970,35915.945281,33470.619735,15315.974094,2599.977267,19926.758996,30923.638454,18909.776975,24174.216291,0.012000,-0.010000,1.008000,192.000000,0.000000,0.000000,0.000000,0.000000,0.000000,0.000000,0.000000,0.000000,0.000000,1763132575.223293,0.000000
214.000000,21596.613121,34218.598511,21485.189675,11377.283797,34326.937416,33027.004662,18034.683828,15799.218810,35869.677170,33452.000731,15309.492088,2612.270726,19913.884391,30913.691928,18873.678908,24083.781133,0.012000,-0.010000,1.008000,192.000000,0.000000,0.000000,0.000000,0.000000,0.000000,0.000000,0.000000,0.000000,0.000000,1763132575.223306,0.000000
216.000000,21599.205923,34235.719947,21494.130372,11382.961140,34383.062647,33067.327209,18051.715857,15832.522909,35889.637278,33460.181470,15316.577591,2606.638087,19924.389711,30922.118535,18890.330957,24135.793642,0.012000,-0.010000,1.000000,192.000000,0.000000,48.000000,127.500000,88.000000,15.500000,32.000000,0.000000,0.000000,0.000000,1763132575.223318,0.000000
218.000000,21589.058231,34219.961967,21484.832047,11379.966006,34342.874210,33023.942473,18036.963706,15806.840754,35909.172703,33463.444825,15312.330760,2605.699313,19926.468423,30922.342053,18899.852800,24140.286343,0.012000,-0.010000,1.000000,192.000000,0.000000,0.000000,0.000000,0.000000,0.000000,0.000000,0.000000,0.000000,0.000000,1763132575.223330,0.000000
220.000000,21599.585903,34227.136877,21489.101230,11380.860076,34344.192963,33024.478915,18042.641049,15818.664827,35856.981380,33450.592572,15313.247182,2606.571031,19906.977702,30911.680271,18859.105570,24086.865674,0.012000,-0.010000,1.000000,192.000000,0.000000,0.000000,0.000000,0.000000,0.000000,0.000000,0.000000,0.000000,0.000000,1763132575.223342,0.000000
222.000000,21608.973635,34246.269971,21495.784401,11384.950445,34386.661278,33052.485651,18050.441808,15832.142929,35924.438944,33478.353438,15324.825385,2609.499110,19932.682208,30930.679253,18907.430042,24170.170625,0.012000,-0.010000,1.000000,192.000000,0.000000,0.000000,0.000000,0.000000,0.000000,0.000000,0.000000,0.000000,0.000000,1763132575.223355,0.000000
224.000000,21604.816211,34222.890046,21484.317956,11382.178829,34329.530219,33013.079526,18034.929697,15802.459812,35877.902612,33464.473005,15315.527059,2616.763427,19914.174964,30925.203076,18871.667251,24077.544996,0.012000,-0.010000,1.000000,192.000000,0.000000,0.000000,0.000000,0.000000,0.000000,0.000000,0.000000,0.000000,0.000000,1763132575.223367,0.000000
226.000000,21622.675255,34259.055169,21492.185771,11387.185620,34380.335734,33045.355445,18050.732380,15832.165281,35887.625621,33472.586688,15311.503745,2610.236717,19919.941714,30925.158373,18885.525332,24139.213459,0.012000,-0.006000,1.002000,192.000000,0.000000,48.000000,127.500000,104.000000,15.500000,40.000000,0.000000,0.000000,0.000000,1763132575.223380,0.000000
228.000000,21603.184533,34247.700482,21482.485113,11383.698748,34346.495193,33042.494421,18036.628429,15807.108975,35925.087145,33482.823787,15311.950780,2610.348476,19932.749263,30930.813364,18898.981082,24140.956895,0.012000,-0.006000,1.002000,192.000000,0.000000,0.000000,0.000000,0.000000,0.000000,0.000000,0.000000,0.000000,0.000000,1763132575.223392,0.000000
230.000000,21597.529542,34239.475040,21484.832047,11385.129259,34346.338731,33039.499288,18041.456406,15816.340246,35871.062979,33469.144519,15311.056711,2611.622526,19913.303246,30920.330396,18862.078352,24086.552749,0.012000,-0.006000,1.002000,192.000000,0.000000,0.000000,0.000000,0.000000,0.000000,0.000000,0.000000,0.000000,0.000000,1763132575.223405,0.000000
232.000000,21603.318644,34252.729625,21489.905893,11387.319730,34381.430969,33067.282506,18046.440845,15821.637609,35925.489476,33489.797531,15319.796243,2613.790645,19939.097159,30938.368254,18908.055891,24176.183245,0.012000,-0.006000,1.002000,192.000000,0.000000,0.000000,0.000000,0.000000,0.000000,0.000000,0.000000,0.000000,0.000000,1763132575.223417,0.000000
234.000000,21578.307042,34224.432316,21483.870922,11386.135088,34329.887847,33054.877288,18033.521537,15793.496763,35863.038702,33466.127034,15308.396853,2609.968497,19918.354740,30928.824059,18872.449562,24096.923959,0.012000,-0.006000,1.002000,192.000000,0.000000,0.000000,0.000000,0.000000,0.000000,0.000000,0.000000,0.000000,0.000000,1763132575.223430,0.000000
236.000000,21608.146621,34256.104738,21498.198390,11391.655969,34390.438722,33068.713018,18053.414590,15827.538470,35894.129979,33479.091046,15317.605772,2611.041380,19930.849365,30941.318684,18890.621530,24144.667285,0.012000,-0.006000,1.004000,192.000000,0.000000,48.000000,127.500000,104.000000,15.500000,48.000000,0.000000,0.000000,0.000000,1763132575.223442,0.000000
238.000000,21611.320568,34241.151421,21487.178980,11387.297378,34355.681760,33046.517735,18038.170700,15802.839792,35919.186284,33488.992869,15318.969228,2619.467988,19937.934868,30939.441137,18902.266789,24149.227041,0.012000,-0.006000,1.004000,192.000000,0.000000,0.000000,0.000000,0.000000,0.000000,0.000000,0.000000,0.000000,0.000000,1763132575.223455,0.000000
