Sample Index, EXG Channel 0, EXG Channel 1, EXG Channel 2, EXG Channel 3, EXG Channel 4, EXG Channel 5, EXG Channel 6, EXG Channel 7, EXG Channel 8, EXG Channel 9, EXG Channel 10, EXG Channel 11, EXG Channel 12, EXG Channel 13, EXG Channel 14, EXG Channel 15, Accel Channel 0, Accel Channel 1, Accel Channel 2, Not Used, Digital Channel 0 (D11), Digital Channel 1 (D12), Digital Channel 2 (D13), Digital Channel 3 (D17), Not Used, Digital Channel 4 (D18), Analog Channel 0, Analog Channel 1, Analog Channel 2, Timestamp, Marker Channel, Timestamp (Formatted)
100.000000,17695.585513,34761.835308,20506.138564,10612.205936,33139.992731,28336.804013,15988.426326,16237.938850,33932.876162,30635.055081,9784.833763,5846.590501,20440.536194,31707.603539,18964.985784,26713.128592,0.020000,-0.015000,1.008000,192.000000,0.000000,0.000000,0.000000,0.000000,0.000000,0.000000,0.000000,0.000000,0.000000,1763130956.493316,0.000000
102.000000,17711.276437,34789.104437,20520.130756,10618.263259,33172.492167,28373.840853,16000.183344,16263.844522,33940.542810,30648.734349,9787.761842,5845.919948,20449.678057,31722.914484,18970.752534,26748.377293,0.020000,-0.015000,1.008000,192.000000,0.000000,0.000000,0.000000,0.000000,0.000000,0.000000,0.000000,0.000000,0.000000,1763130956.493430,0.000000
104.000000,17715.165641,34790.981983,20517.515602,10615.536346,33156.041283,28361.189766,15992.404937,16252.758056,33973.422226,30665.431102,9793.841516,5852.156085,20461.278613,31728.368310,18985.325871,26760.201366,0.020000,-0.015000,1.008000,192.000000,0.000000,0.000000,0.000000,0.000000,0.000000,0.000000,0.000000,0.000000,0.000000,1763130956.493515,0.000000
106.000000,17719.837155,34793.038344,20519.795480,10616.206898,33155.527193,28351.332647,15994.394242,16256.602556,33938.598208,30653.964657,9797.596609,5856.849951,20446.548813,31720.120516,18958.794350,26708.837057,0.020000,-0.015000,1.008000,192.000000,0.000000,0.000000,0.000000,0.000000,0.000000,0.000000,0.000000,0.000000,0.000000,1763130956.493603,0.000000
108.000000,17722.072330,34801.956690,20522.187116,10614.083483,33176.247260,28358.015818,15999.311626,16263.531597,33980.843005,30671.778997,9796.702540,5849.093896,20468.207654,31728.860048,18994.154810,26779.513273,0.020000,-0.013500,1.007000,192.000000,0.000000,80.000000,127.500000,80.000000,15.500000,56.000000,0.000000,0.000000,0.000000,1763130956.493688,0.000000
110.000000,17711.611713,34788.657402,20513.268770,10614.843442,33146.161812,28336.602847,15988.582789,16242.520957,33947.337740,30654.322285,9792.232191,5852.044326,20446.034723,31719.874647,18973.032412,26715.430822,0.020000,-0.013500,1.007000,192.000000,0.000000,0.000000,0.000000,0.000000,0.000000,0.000000,0.000000,0.000000,0.000000,1763130956.493774,0.000000
112.000000,17723.748711,34816.060640,20522.880020,10622.063055,33182.148121,28368.297621,16001.099765,16265.453847,33951.137537,30673.611840,9795.093214,5858.682794,20453.097874,31726.781336,18974.351165,26748.220831,0.020000,-0.013500,1.007000,192.000000,0.000000,0.000000,0.000000,0.000000,0.000000,0.000000,0.000000,0.000000,0.000000,1763130956.493847,0.000000
114.000000,17734.164624,34806.225873,20516.085090,10617.927983,33162.411530,28350.013894,15992.181419,16250.277013,33975.433883,30681.189082,9796.456670,5858.325167,20459.535177,31734.023301,18985.996423,26759.687276,0.020000,-0.013500,1.007000,192.000000,0.000000,0.000000,0.000000,0.000000,0.000000,0.000000,0.000000,0.000000,0.000000,1763130956.493886,0.000000
116.000000,17725.156871,34810.450352,20520.041349,10618.464424,33157.538850,28348.248106,15996.137678,16256.535501,33940.967493,30665.252288,9796.568429,5860.806210,20444.514804,31720.724013,18956.022734,26708.166505,0.020000,-0.013500,1.007000,192.000000,0.000000,0.000000,0.000000,0.000000,0.000000,0.000000,0.000000,0.000000,0.000000,1763130956.493914,0.000000
118.000000,17717.266705,34817.982890,20519.259038,10614.932849,33175.286135,28364.631935,15999.624550,16262.414010,33981.737075,30682.239614,9795.964932,5853.094858,20463.580842,31732.793955,18989.796220,26779.334459,0.017000,-0.012750,1.007500,192.000000,0.000000,56.000000,127.500000,80.000000,15.500000,64.000000,0.000000,0.000000,0.000000,1763130956.493944,0.000000
120.000000,17712.483431,34795.139408,20508.038462,10612.988247,33143.792527,28343.777757,15989.655672,16245.270222,33939.492278,30662.190099,9789.617037,5852.670175,20436.021142,31715.426650,18966.326888,26713.933255,0.017000,-0.012750,1.007500,192.000000,0.000000,0.000000,0.000000,0.000000,0.000000,0.000000,0.000000,0.000000,0.000000,1763130956.493966,0.000000
122.000000,17734.030513,34820.083954,20517.895581,10613.234116,33169.877013,28366.062446,16001.211524,16265.565606,33949.394101,30667.621573,9793.528592,5853.407783,20446.884089,31725.954321,18963.197644,26748.913735,0.017000,-0.012750,1.007500,192.000000,0.000000,0.000000,0.000000,0.000000,0.000000,0.000000,0.000000,0.000000,0.000000,1763130956.493987,0.000000
124.000000,17711.656417,34800.503826,20509.200753,10605.142785,33159.036417,28332.624237,15988.962768,16245.381981,33969.443616,30670.326134,9788.834725,5848.155123,20450.862700,31722.221580,18986.935197,26757.452101,0.017000,-0.012750,1.007500,192.000000,0.000000,0.000000,0.000000,0.000000,0.000000,0.000000,0.000000,0.000000,0.000000,1763130956.494037,0.000000
126.000000,17719.859507,34803.074277,20511.391224,10609.210802,33156.398911,28336.446385,15992.159068,16252.579242,33924.516609,30651.885945,9788.767670,5849.272710,20429.159156,31708.050574,18963.689383,26706.803048,0.017000,-0.012750,1.007500,192.000000,0.000000,0.000000,0.000000,0.000000,0.000000,0.000000,0.000000,0.000000,0.000000,1763130956.494059,0.000000
128.000000,17729.135481,34823.794344,20518.990817,10610.730721,33189.568900,28352.651400,15998.641074,16264.738591,33976.126787,30685.122989,9794.936752,5851.753754,20456.048305,31733.397452,18991.249083,26778.328631,0.014500,-0.015375,1.006750,192.000000,0.000000,48.000000,127.500000,56.000000,15.500000,56.000000,0.000000,0.000000,0.000000,1763130956.494081,0.000000
130.000000,17717.579629,34804.661251,20511.257113,10606.953276,33156.331856,28321.381309,15987.286387,16242.833882,33947.203630,30665.766378,9791.829859,5852.916044,20442.324333,31719.181743,18979.402659,26711.586322,0.014500,-0.015375,1.006750,192.000000,0.000000,0.000000,0.000000,0.000000,0.000000,0.000000,0.000000,0.000000,0.000000,1763130956.494103,0.000000
132.000000,17725.089815,34822.319129,20520.913067,10611.825956,33182.237528,28386.737810,16001.010358,16262.682231,33949.461156,30674.103579,9790.376996,5853.094858,20448.448711,31733.531563,18979.313252,26751.998276,0.014500,-0.015375,1.006750,192.000000,0.000000,0.000000,0.000000,0.000000,0.000000,0.000000,0.000000,0.000000,0.000000,1763130956.494124,0.000000
134.000000,17715.098585,34811.612643,20514.431061,10610.216631,33163.864394,28362.217946,15991.063832,16249.941736,33973.489281,30675.623497,9790.153478,5850.636166,20452.047342,31731.899885,18985.750554,26767.242165,0.014500,-0.015375,1.006750,192.000000,0.000000,0.000000,0.000000,0.000000,0.000000,0.000000,0.000000,0.000000,0.000000,1763130956.494145,0.000000
136.000000,17718.406644,34810.092725,20517.828526,10610.462500,33168.424150,28349.075121,15991.197943,16250.791103,33936.407737,30664.425273,9792.813336,5854.212446,20433.137766,31720.031109,18967.176255,26714.469697,0.014500,-0.015375,1.006750,192.000000,0.000000,0.000000,0.000000,0.000000,0.000000,0.000000,0.000000,0.000000,0.000000,1763130956.494166,0.000000
138.000000,17726.699141,34826.811829,20523.081186,10614.038779,33186.126731,28369.728132,15998.506963,16260.290594,33981.200633,30684.810064,9794.288551,5848.110419,20462.060924,31740.840583,18998.423993,26785.883520,0.016250,-0.014688,1.008375,192.000000,0.000000,72.000000,127.500000,72.000000,15.500000,72.000000,0.000000,0.000000,0.000000,1763130956.494186,0.000000
140.000000,17724.463966,34811.590291,20516.979160,10612.228288,33161.137481,28353.590173,15988.448678,16246.566623,33951.942200,30666.235765,9795.383787,5856.179399,20446.772331,31727.474240,18975.245234,26720.392909,0.016250,-0.014688,1.008375,192.000000,0.000000,0.000000,0.000000,0.000000,0.000000,0.000000,0.000000,0.000000,0.000000,1763130956.494207,0.000000
142.000000,17729.649571,34826.521257,20525.472823,10614.307000,33183.332763,28369.191691,16002.463222,16267.085524,33952.456290,30674.327096,9799.921191,5856.291158,20458.797569,31735.118536,18979.715583,26752.065331,0.016250,-0.014688,1.008375,192.000000,0.000000,0.000000,0.000000,0.000000,0.000000,0.000000,0.000000,0.000000,0.000000,1763130956.494228,0.000000
144.000000,17730.253068,34813.758411,20518.610837,10609.881355,33165.093740,28344.515365,15994.818925,16253.339202,33976.752636,30677.970431,9797.149574,5853.497190,20458.596403,31732.369272,18994.713604,26757.899136,0.016250,-0.014688,1.008375,192.000000,0.000000,0.000000,0.000000,0.000000,0.000000,0.000000,0.000000,0.000000,0.000000,1763130956.494249,0.000000
146.000000,17723.078158,34817.379393,20522.388282,10611.624791,33163.484414,28350.460929,15997.188210,16255.753190,33936.675958,30659.507890,9795.652008,5853.161914,20442.033761,31721.260455,18965.164598,26708.881761,0.016250,-0.014688,1.008375,192.000000,0.000000,0.000000,0.000000,0.000000,0.000000,0.000000,0.000000,0.000000,0.000000,1763130956.494270,0.000000
148.000000,17722.631123,34822.676757,20527.484480,10614.374055,33186.439656,28362.530871,16000.451565,16266.862007,33976.104435,30693.549596,9799.429452,5851.239664,20464.474912,31734.962074,18994.467735,26777.792189,0.016125,-0.014344,1.009187,192.000000,0.000000,64.000000,127.500000,72.000000,15.500000,72.000000,0.000000,0.000000,0.000000,1763130956.494290,0.000000
150.000000,17717.892554,34809.645690,20519.370797,10615.893974,33149.536925,28351.019722,15990.616797,16250.656992,33947.471851,30670.773169,9801.463461,5855.642957,20450.125092,31735.073833,18966.684516,26717.308368,0.016125,-0.014344,1.009187,192.000000,0.000000,0.000000,0.000000,0.000000,0.000000,0.000000,0.000000,0.000000,0.000000,1763130956.494312,0.000000
152.000000,17717.914905,34823.816696,20526.880983,10617.905631,33178.437731,28370.622202,16001.189172,16265.185626,33956.569011,30682.127855,9800.859964,5858.056946,20456.048305,31742.919295,18965.052839,26753.629953,0.016125,-0.014344,1.009187,192.000000,0.000000,0.000000,0.000000,0.000000,0.000000,0.000000,0.000000,0.000000,0.000000,1763130956.494333,0.000000
154.000000,17725.045112,34813.825466,20518.677893,10613.681151,33163.350304,28346.303504,15990.259169,16247.460693,33976.529119,30683.804236,9794.467365,5852.245492,20457.277651,31745.892077,18985.348223,26762.213023,0.016125,-0.014344,1.009187,192.000000,0.000000,0.000000,0.000000,0.000000,0.000000,0.000000,0.000000,0.000000,0.000000,1763130956.494354,0.000000
156.000000,17701.911056,34803.230739,20518.052044,10607.556773,33158.142347,28345.543545,15989.432155,16244.890242,33929.210476,30658.233840,9793.014502,5850.367945,20439.820938,31730.558780,18968.427952,26707.428897,0.016125,-0.014344,1.009187,192.000000,0.000000,0.000000,0.000000,0.000000,0.000000,0.000000,0.000000,0.000000,0.000000,1763130956.494374,0.000000
158.000000,17714.338626,34818.452277,20517.940285,10610.104872,33179.756484,28364.162548,15997.121155,16254.166216,33965.442653,30680.540881,9789.661740,5844.467085,20452.404970,31744.998007,19001.128554,26784.877692,0.016063,-0.014172,1.007594,192.000000,0.000000,64.000000,127.500000,72.000000,15.500000,56.000000,0.000000,0.000000,0.000000,1763130956.494395,0.000000
160.000000,17718.294885,34799.766219,20510.564209,10607.333256,33149.760443,28341.542583,15984.246550,16238.140015,33939.984016,30666.056951,9786.241923,5851.552588,20443.419569,31726.580170,18974.932310,26723.589209,0.016063,-0.014172,1.007594,192.000000,0.000000,0.000000,0.000000,0.000000,0.000000,0.000000,0.000000,0.000000,0.000000,1763130956.494416,0.000000
162.000000,17711.499955,34825.470725,20520.510736,10606.372131,33181.745789,28351.980847,15994.550704,16253.607423,33945.326083,30663.173576,9786.621903,5840.779047,20448.046380,31727.563647,18981.302557,26757.474453,0.016063,-0.014172,1.007594,192.000000,0.000000,0.000000,0.000000,0.000000,0.000000,0.000000,0.000000,0.000000,0.000000,1763130956.494437,0.000000
164.000000,17704.950894,34801.643765,20515.146317,10610.641314,33166.501900,28326.902190,15987.934588,16244.577318,33970.471796,30675.109407,9790.555810,5844.489437,20455.690677,31733.129231,18996.345281,26764.403494,0.016063,-0.014172,1.007594,192.000000,0.000000,0.000000,0.000000,0.000000,0.000000,0.000000,0.000000,0.000000,0.000000,1763130956.494457,0.000000
166.000000,17710.337664,34807.030536,20517.761471,10617.860927,33163.931449,28335.440556,15991.689681,16249.807626,33934.619598,30659.776111,9793.439185,5853.050155,20442.503147,31717.348900,18964.583452,26712.167467,0.016063,-0.014172,1.007594,192.000000,0.000000,0.000000,0.000000,0.000000,0.000000,0.000000,0.000000,0.000000,0.000000,1763130956.494478,0.000000
168.000000,17720.865336,34815.390088,20517.202677,10619.537308,33185.836158,28357.881708,15998.216390,16254.769713,33975.478587,30683.603070,9794.266199,5848.758620,20461.569185,31742.382853,18990.153848,26787.135218,0.016063,-0.014172,1.007594,192.000000,0.000000,0.000000,0.000000,0.000000,0.000000,0.000000,0.000000,0.000000,0.000000,1763130956.494499,0.000000
170.000000,17693.551504,34786.556338,20505.266846,10613.010599,33149.805146,28324.309388,15984.045384,16231.009809,33939.402871,30658.703227,9784.722004,5844.578844,20442.033761,31727.295426,18969.277319,26722.024586,0.018000,-0.016000,1.016000,192.000000,0.000000,72.000000,127.500000,64.000000,15.500000,96.000000,0.000000,0.000000,0.000000,1763130956.494521,0.000000
172.000000,17697.731280,34808.416344,20515.101613,10611.155404,33183.221004,28381.731019,15996.428251,16251.506359,33937.167697,30663.933535,9783.157382,5842.589538,20444.760674,31733.308045,18974.194702,26755.440444,0.018000,-0.016000,1.016000,192.000000,0.000000,0.000000,0.000000,0.000000,0.000000,0.000000,0.000000,0.000000,0.000000,1763130956.494542,0.000000
174.000000,17698.223018,34798.827445,20508.351387,10606.640352,33165.451368,28358.999295,15987.264036,16239.659934,33960.704084,30680.362067,9784.096156,5844.668251,20449.298078,31738.538353,18988.321005,26765.521081,0.018000,-0.016000,1.016000,192.000000,0.000000,0.000000,0.000000,0.000000,0.000000,0.000000,0.000000,0.000000,0.000000,1763130956.494563,0.000000
176.000000,17702.469850,34805.980004,20511.659445,10612.764730,33164.557298,28357.837004,15990.974425,16244.487911,33918.861618,30656.557459,9784.431432,5848.915082,20433.338932,31733.665673,18957.632060,26714.223828,0.018000,-0.016000,1.016000,192.000000,0.000000,0.000000,0.000000,0.000000,0.000000,0.000000,0.000000,0.000000,0.000000,1763130956.494584,0.000000
178.000000,17711.388196,34819.927492,20513.671102,10612.608267,33183.958612,28370.979830,15995.154201,16251.439303,33968.124863,30683.759532,9785.861943,5846.456390,20454.997773,31742.315798,18987.359880,26782.754276,0.018000,-0.016000,1.016000,192.000000,0.000000,0.000000,0.000000,0.000000,0.000000,0.000000,0.000000,0.000000,0.000000,1763130956.494604,0.000000
180.000000,17692.053937,34795.429980,20505.602122,10609.523727,33152.152080,28339.396815,15983.397184,16233.870832,33939.894609,30657.853861,9784.744356,5846.232873,20430.388502,31719.382908,18965.924557,26724.125650,0.020000,-0.016000,1.014000,192.000000,0.000000,80.000000,127.500000,64.000000,15.500000,88.000000,0.000000,0.000000,0.000000,1763130956.494626,0.000000
182.000000,17705.219114,34820.285120,20516.062738,10614.910497,33187.669002,28370.353981,15995.444774,16253.942699,33949.729377,30664.045294,9790.824031,5846.121114,20447.532290,31726.155487,18971.043106,26756.580383,0.020000,-0.016000,1.014000,192.000000,0.000000,0.000000,0.000000,0.000000,0.000000,0.000000,0.000000,0.000000,0.000000,1763130956.494647,0.000000
184.000000,17708.214248,34805.197693,20510.452451,10617.950334,33165.652533,28356.138272,15987.509905,16242.722123,33975.456235,30675.444683,9785.705481,5848.602158,20450.460368,31737.152545,18982.531903,26766.258689,0.020000,-0.016000,1.014000,192.000000,0.000000,0.000000,0.000000,0.000000,0.000000,0.000000,0.000000,0.000000,0.000000,1763130956.494668,0.000000
186.000000,17705.286170,34809.377469,20511.950017,10620.677247,33166.233679,28359.960420,15989.007472,16244.577318,33935.558371,30663.575907,9789.661740,5854.055983,20443.553679,31732.257513,18946.769112,26716.995444,0.020000,-0.016000,1.014000,192.000000,0.000000,0.000000,0.000000,0.000000,0.000000,0.000000,0.000000,0.000000,0.000000,1763130956.494689,0.000000
188.000000,17707.901324,34816.306510,20515.548648,10617.391541,33186.618470,28378.020630,15992.896675,16249.874681,33973.668095,30679.311535,9783.559714,5846.836370,20458.551700,31750.161260,18987.918674,26782.642517,0.020000,-0.016000,1.014000,192.000000,0.000000,0.000000,0.000000,0.000000,0.000000,0.000000,0.000000,0.000000,0.000000,1763130956.494710,0.000000
190.000000,17689.483486,34794.066524,20507.122041,10614.932849,33150.967437,28349.656266,15982.883094,16237.983553,33952.702159,30663.240631,9785.817240,5857.051117,20441.899650,31742.919295,18957.967336,26724.706796,0.018000,-0.018000,1.008000,192.000000,0.000000,72.000000,127.500000,56.000000,15.500000,64.000000,0.000000,0.000000,0.000000,1763130956.494731,0.000000
192.000000,17695.585513,34800.570881,20512.821735,10606.953276,33174.190900,28340.514402,15992.136716,16249.002963,33946.577781,30667.085131,9786.554848,5846.746963,20439.865642,31735.163240,18969.478484,26754.412264,0.018000,-0.018000,1.008000,192.000000,0.000000,0.000000,0.000000,0.000000,0.000000,0.000000,0.000000,0.000000,0.000000,1763130956.494752,0.000000
194.000000,17683.202646,34788.366829,20504.283369,10604.852212,33156.801242,28325.784603,15984.961806,16234.630792,33963.967438,30665.878137,9781.413946,5838.990908,20434.948258,31731.832830,18995.898246,26762.548299,0.018000,-0.018000,1.008000,192.000000,0.000000,0.000000,0.000000,0.000000,0.000000,0.000000,0.000000,0.000000,0.000000,1763130956.494773,0.000000
196.000000,17674.641928,34786.981021,20503.948093,10607.981456,33154.901344,28361.703856,15986.369966,16232.395617,33919.040432,30646.700340,9776.273045,5836.979251,20413.557638,31712.207998,18962.594147,26723.410395,0.018000,-0.018000,1.008000,192.000000,0.000000,0.000000,0.000000,0.000000,0.000000,0.000000,0.000000,0.000000,0.000000,1763130956.494794,0.000000
198.000000,17682.956777,34811.679698,20509.044291,10610.842480,33188.317202,28396.438467,15992.203771,16247.460693,33963.453348,30661.363084,9781.838629,5839.415591,20442.413740,31734.447984,18992.746650,26789.705669,0.018000,-0.018000,1.008000,192.000000,0.000000,0.000000,0.000000,0.000000,0.000000,0.000000,0.000000,0.000000,0.000000,1763130956.494806,0.000000
200.000000,17696.591341,34788.947974,20500.707090,10610.507203,33151.995617,28363.626106,15980.647919,16232.820300,33941.570990,30652.936477,9781.190429,5850.636166,20427.952162,31733.553914,18967.869159,26726.696101,0.024000,-0.008000,1.010000,192.000000,0.000000,96.000000,127.500000,96.000000,15.500000,72.000000,0.000000,0.000000,0.000000,1763130956.494816,0.000000
202.000000,17702.738071,34824.330786,20511.771203,10618.889108,33178.750656,28389.710592,15995.824754,16258.882434,33951.808089,30677.054009,9786.264275,5855.844123,20443.039589,31735.923199,18968.383249,26758.659096,0.024000,-0.008000,1.010000,192.000000,0.000000,0.000000,0.000000,0.000000,0.000000,0.000000,0.000000,0.000000,0.000000,1763130956.494827,0.000000
204.000000,17694.959664,34802.627242,20506.049157,10611.915363,33165.831347,28366.017743,15987.576960,16241.001039,33982.832311,30681.144378,9791.159307,5852.692527,20452.315563,31742.695778,18982.151923,26770.214947,0.024000,-0.008000,1.010000,192.000000,0.000000,0.000000,0.000000,0.000000,0.000000,0.000000,0.000000,0.000000,0.000000,1763130956.494837,0.000000
206.000000,17688.276492,34791.876053,20511.368872,10609.188450,33166.345437,28368.051752,15988.381623,16237.827091,33936.586551,30641.648846,9784.543191,5843.461256,20434.076540,31724.210885,18958.526130,26716.816630,0.024000,-0.008000,1.010000,192.000000,0.000000,0.000000,0.000000,0.000000,0.000000,0.000000,0.000000,0.000000,0.000000,1763130956.494848,0.000000
208.000000,17685.840152,34798.805094,20518.543782,10610.462500,33192.742848,28378.869996,15994.796573,16250.411123,33990.074276,30664.939364,9787.717138,5839.504998,20465.301927,31739.454775,18990.243255,26783.536587,0.024000,-0.008000,1.010000,192.000000,0.000000,0.000000,0.000000,0.000000,0.000000,0.000000,0.000000,0.000000,0.000000,1763130956.494858,0.000000
210.000000,17677.815876,34773.726436,20513.067605,10607.959105,33155.884821,28352.360827,15985.453544,16235.502510,33962.872203,30649.181384,9792.075728,5847.395163,20461.368020,31734.850315,18965.455170,26717.531886,0.024000,-0.014000,1.000000,192.000000,0.000000,96.000000,127.500000,72.000000,15.500000,32.000000,0.000000,0.000000,0.000000,1763130956.494868,0.000000
212.000000,17679.156980,34785.058771,20520.086052,10607.780291,33184.383295,28373.036191,15997.992873,16252.221614,33961.173470,30644.509869,9791.785156,5842.053097,20446.973496,31728.994158,18973.792371,26748.913735,0.024000,-0.014000,1.000000,192.000000,0.000000,0.000000,0.000000,0.000000,0.000000,0.000000,0.000000,0.000000,0.000000,1763130956.494877,0.000000
214.000000,17677.882931,34773.413512,20509.357215,10606.997980,33170.994600,28354.283077,15989.007472,16239.995210,33982.295869,30649.203735,9788.566505,5843.125980,20454.774255,31738.516002,18991.114973,26764.850529,0.024000,-0.014000,1.000000,192.000000,0.000000,0.000000,0.000000,0.000000,0.000000,0.000000,0.000000,0.000000,0.000000,1763130956.494887,0.000000
216.000000,17694.155001,34777.302715,20509.044291,10606.483889,33163.126786,28351.131481,15988.739251,16235.413103,33936.743013,30630.875305,9781.525705,5842.008393,20433.204822,31719.092336,18960.135455,26713.195647,0.024000,-0.014000,1.000000,192.000000,0.000000,0.000000,0.000000,0.000000,0.000000,0.000000,0.000000,0.000000,0.000000,1763130956.494896,0.000000
218.000000,17665.433009,34786.779855,20513.447584,10605.075729,33186.171435,28366.800054,15993.433117,16243.102103,33980.261860,30651.617724,9779.871676,5833.112399,20456.584746,31734.515039,18988.365708,26784.721230,0.024000,-0.014000,1.000000,192.000000,0.000000,0.000000,0.000000,0.000000,0.000000,0.000000,0.000000,0.000000,0.000000,1763130956.494906,0.000000
220.000000,17670.015117,34779.627297,20508.843125,10602.214706,33159.192879,28332.758347,15982.257245,16228.886393,33955.026740,30638.452546,9784.051452,5836.196939,20443.754845,31727.541295,18967.042144,26715.587284,0.016000,-0.012000,1.000000,192.000000,0.000000,64.000000,127.500000,80.000000,15.500000,32.000000,0.000000,0.000000,0.000000,1763130956.494916,0.000000
222.000000,17682.934425,34801.263786,20518.387320,10604.293418,33187.669002,28369.616374,15994.863629,16244.599670,33961.240525,30645.873326,9787.963007,5833.850006,20450.840348,31725.999025,18973.345336,26748.578459,0.016000,-0.012000,1.000000,192.000000,0.000000,0.000000,0.000000,0.000000,0.000000,0.000000,0.000000,0.000000,0.000000,1763130956.974291,0.000000
224.000000,17679.156980,34782.175396,20511.435927,10604.248715,33171.128711,28360.809786,15987.264036,16234.586088,33983.726380,30651.528317,9786.934827,5827.904442,20459.490473,31726.177839,18993.730127,26761.073084,0.016000,-0.012000,1.000000,192.000000,0.000000,0.000000,0.000000,0.000000,0.000000,0.000000,0.000000,0.000000,0.000000,1763130956.974337,0.000000
226.000000,17675.156018,34779.135559,20513.648750,10608.339084,33169.362923,28375.427827,15990.058004,16237.000076,33939.961665,30631.881134,9786.800717,5839.236777,20441.229098,31723.093298,18961.454208,26715.319063,0.016000,-0.012000,1.000000,192.000000,0.000000,0.000000,0.000000,0.000000,0.000000,0.000000,0.000000,0.000000,0.000000,1763130956.974377,0.000000
228.000000,17699.407661,34808.550454,20518.521430,10617.592706,33199.269557,28389.464723,15998.082280,16254.300327,33989.403723,30667.420407,9790.801679,5843.751829,20467.939433,31750.876516,18990.332662,26782.620166,0.016000,-0.012000,1.000000,192.000000,0.000000,0.000000,0.000000,0.000000,0.000000,0.000000,0.000000,0.000000,0.000000,1763130956.974423,0.000000
230.000000,17683.359108,34784.812902,20509.223105,10614.195241,33158.701141,28353.567821,15984.045384,16236.642449,33960.659380,30654.456395,9790.376996,5853.854818,20454.506034,31742.874592,18970.171388,26723.298636,0.016000,-0.014000,1.000000,192.000000,0.000000,64.000000,127.500000,72.000000,15.500000,32.000000,0.000000,0.000000,0.000000,1763130956.974465,0.000000
232.000000,17689.997576,34807.768143,20520.331922,10615.357532,33193.122827,28382.066295,15997.478783,16261.564644,33959.899421,30660.737236,9795.719063,5851.820809,20455.131883,31746.339112,18979.849694,26755.798072,0.016000,-0.014000,1.000000,192.000000,0.000000,0.000000,0.000000,0.000000,0.000000,0.000000,0.000000,0.000000,0.000000,1763130956.974497,0.000000
234.000000,17690.198742,34797.218120,20513.000549,10610.864831,33169.251164,28365.034266,15990.035652,16250.142902,33986.162720,30666.973372,9798.378920,5852.312547,20456.897671,31747.523755,18991.427897,26763.598831,0.016000,-0.014000,1.000000,192.000000,0.000000,0.000000,0.000000,0.000000,0.000000,0.000000,0.000000,0.000000,0.000000,1763130956.974530,0.000000
236.000000,17703.274513,34800.839102,20515.325131,10608.830823,33164.445539,28370.175167,15990.594446,16247.348934,33941.906266,30644.554573,9794.333255,5848.870379,20441.027932,31727.965978,18958.570833,26707.317139,0.016000,-0.014000,1.000000,192.000000,0.000000,0.000000,0.000000,0.000000,0.000000,0.000000,0.000000,0.000000,0.000000,1763130956.974560,0.000000
238.000000,17688.611768,34808.908082,20519.214334,10607.042683,33188.630127,28396.371412,15995.712995,16256.870777,33986.207424,30666.883965,9798.088348,5841.851931,20468.855854,31744.528621,18988.365708,26777.255747,0.016000,-0.014000,1.000000,192.000000,0.000000,0.000000,0.000000,0.000000,0.000000,0.000000,0.000000,0.000000,0.000000,1763130956.974606,0.000000
240.000000,17690.377556,34792.345439,20513.536991,10606.260372,33163.640876,28370.353981,15985.006509,16242.319792,33963.229831,30649.002570,9800.323522,5847.842198,20450.505072,31730.357615,18967.422124,26711.876894,0.016000,-0.013000,1.006000,192.000000,0.000000,64.000000,127.500000,80.000000,15.500000,80.000000,0.000000,0.000000,0.000000,1763130956.974638,0.000000
242.000000,17697.463059,34816.731193,20523.818794,10609.009637,33190.485321,28383.116827,15998.618722,16260.067077,33969.868299,30653.875250,9802.938676,5848.311585,20462.150331,31737.621932,18970.394906,26744.264572,0.016000,-0.013000,1.006000,192.000000,0.000000,0.000000,0.000000,0.000000,0.000000,0.000000,0.000000,0.000000,0.000000,1763130956.974669,0.000000
244.000000,17694.825553,34782.600079,20510.519506,10599.219572,33173.274478,28348.650437,15986.280559,16242.632716,33992.443561,30658.546765,9799.831784,5843.997698,20467.559453,31739.655940,18987.203418,26758.614392,0.016000,-0.013000,1.006000,192.000000,0.000000,0.000000,0.000000,0.000000,0.000000,0.000000,0.000000,0.000000,0.000000,1763130956.974702,0.000000
246.000000,17686.957739,34781.594250,20508.418442,10602.929962,33175.464949,28357.881708,15986.235855,16238.184719,33944.700234,30632.730500,9791.248714,5838.521521,20446.437054,31723.585036,18964.829321,26705.439592,0.016000,-0.013000,1.006000,192.000000,0.000000,0.000000,0.000000,0.000000,0.000000,0.000000,0.000000,0.000000,0.000000,1763130956.974732,0.000000
248.000000,17673.703155,34787.159835,20509.223105,10607.824994,33180.136464,28391.364621,15989.365100,16243.437379,33981.066523,30652.690608,9785.705481,5832.441846,20458.261127,31740.393548,18987.896322,26786.598776,0.016000,-0.013000,1.006000,192.000000,0.000000,0.000000,0.000000,0.000000,0.000000,0.000000,0.000000,0.000000,0.000000,1763130956.974742,0.000000
250.000000,17668.003460,34772.318276,20505.311549,10608.137918,33151.079196,28361.837967,15980.692623,16228.931097,33947.427147,30638.407843,9780.206952,5840.466123,20436.356418,31733.598618,18966.282185,26725.131479,0.017000,-0.010500,1.007000,192.000000,0.000000,72.000000,127.500000,96.000000,15.500000,64.000000,0.000000,0.000000,0.000000,1763130956.974752,0.000000
252.000000,17680.587492,34801.666117,20512.084128,10609.501375,33178.750656,28371.985659,15992.695510,16245.761960,33950.019950,30643.280523,9787.761842,5839.057963,20444.760674,31738.001911,18971.870121,26750.791282,0.017000,-0.010500,1.007000,192.000000,0.000000,0.000000,0.000000,0.000000,0.000000,0.000000,0.000000,0.000000,0.000000,1763130956.974763,0.000000
254.000000,17674.910149,34784.589384,20504.842163,10606.953276,33156.868298,28361.189766,15984.984158,16236.485986,33976.082084,30660.066683,9786.621903,5842.857759,20448.180491,31739.454775,18985.035298,26767.666849,0.017000,-0.010500,1.007000,192.000000,0.000000,0.000000,0.000000,0.000000,0.000000,0.000000,0.000000,0.000000,0.000000,1763130956.974774,0.000000
0.000000,17679.045222,34787.606870,20506.138564,10607.042683,33150.967437,28366.755350,15986.101745,16237.760036,33936.966531,30640.039520,9785.794888,5842.053097,20432.400159,31731.497554,18956.112141,26720.705834,0.017000,-0.010500,1.007000,192.000000,0.000000,0.000000,0.000000,0.000000,0.000000,0.000000,0.000000,0.000000,0.000000,1763130956.974785,0.000000
2.000000,17697.172486,34803.655422,20512.978198,10606.662703,33179.197690,28378.110037,15994.058966,16250.925213,33984.955726,30665.609916,9790.980493,5842.097800,20458.417589,31749.691874,18984.789429,26788.185750,0.017000,-0.010500,1.007000,192.000000,0.000000,0.000000,0.000000,0.000000,0.000000,0.000000,0.000000,0.000000,0.000000,1763130956.974794,0.000000
4.000000,17676.519475,34786.176358,20502.115250,10605.008674,33145.558315,28357.009990,15982.525466,16231.389789,33960.301752,30641.067701,9787.873600,5839.773219,20440.312676,31732.235161,18961.230691,26718.157735,0.015500,-0.009250,1.008500,192.000000,0.000000,56.000000,127.500000,96.000000,15.500000,72.000000,0.000000,0.000000,0.000000,1763130956.974804,0.000000
6.000000,17686.845981,34803.543663,20512.978198,10608.562602,33180.762313,28381.373391,15994.640111,16251.662821,33956.725473,30646.745044,9787.895952,5838.543873,20455.556566,31732.570437,18967.198606,26746.969133,0.015500,-0.009250,1.008500,192.000000,0.000000,0.000000,0.000000,0.000000,0.000000,0.000000,0.000000,0.000000,0.000000,1763130956.974814,0.000000
8.000000,17692.858600,34793.753599,20507.099689,10606.618000,33166.680713,28358.775778,15987.174629,16241.850405,33991.817712,30658.613820,9790.645217,5843.371849,20454.170758,31737.912504,18984.476505,26759.821386,0.015500,-0.009250,1.008500,192.000000,0.000000,0.000000,0.000000,0.000000,0.000000,0.000000,0.000000,0.000000,0.000000,1763130956.974823,0.000000
10.000000,17692.836248,34797.039306,20510.452451,10610.842480,33162.500937,28363.179071,15990.035652,16242.967992,33949.572915,30645.202773,9792.209839,5847.529274,20441.117339,31730.827001,18955.195720,26705.081964,0.015500,-0.009250,1.008500,192.000000,0.000000,0.000000,0.000000,0.000000,0.000000,0.000000,0.000000,0.000000,0.000000,1763130956.974833,0.000000
12.000000,17706.269646,34804.728306,20511.726500,10608.406139,33182.639859,28376.992449,15994.506001,16247.684210,33994.231700,30664.157053,9793.528592,5840.153198,20468.274709,31750.943571,18978.933272,26781.703744,0.015500,-0.009250,1.008500,192.000000,0.000000,0.000000,0.000000,0.000000,0.000000,0.000000,0.000000,0.000000,0.000000,1763130956.974844,0.000000
14.000000,17688.544713,34787.897442,20506.496192,10611.982419,33152.509708,28351.936144,15986.079393,16237.469463,33964.548584,30648.980218,9787.963007,5844.467085,20440.491490,31736.861972,18964.426990,26715.073194,0.020750,-0.009625,1.007250,192.000000,0.000000,104.000000,127.500000,88.000000,15.500000,56.000000,0.000000,0.000000,0.000000,1763130956.974853,0.000000
16.000000,17684.655510,34802.135504,20513.335826,10611.624791,33177.566013,28372.969135,15996.472954,16251.618117,33960.838194,30654.858727,9797.484851,5844.355326,20446.928793,31742.181688,18960.269566,26744.845718,0.020750,-0.009625,1.007250,192.000000,0.000000,0.000000,0.000000,0.000000,0.000000,0.000000,0.000000,0.000000,0.000000,1763130956.974863,0.000000
18.000000,17680.498085,34787.159835,20508.083166,10602.125299,33167.038341,28343.107205,15985.028861,16235.234289,33984.821616,30654.702265,9789.862906,5836.465160,20449.186319,31745.892077,18985.124705,26758.726151,0.020750,-0.009625,1.007250,192.000000,0.000000,0.000000,0.000000,0.000000,0.000000,0.000000,0.000000,0.000000,0.000000,1763130956.974873,0.000000
20.000000,17677.413544,34790.534948,20510.564209,10602.706445,33162.947972,28337.474565,15987.129925,16237.648277,33935.245447,30631.210581,9784.967874,5833.917062,20429.315618,31722.981539,18960.873063,26702.667976,0.020750,-0.009625,1.007250,192.000000,0.000000,0.000000,0.000000,0.000000,0.000000,0.000000,0.000000,0.000000,0.000000,1763130956.974883,0.000000
22.000000,17688.231789,34792.054867,20515.615704,10603.868735,33184.718571,28382.088647,15994.170725,16247.795969,33988.241433,30661.027808,9791.181659,5835.593442,20450.862700,31733.285693,18986.756383,26774.193558,0.020750,-0.009625,1.007250,192.000000,0.000000,0.000000,0.000000,0.000000,0.000000,0.000000,0.000000,0.000000,0.000000,1763130956.974893,0.000000
24.000000,17680.051050,34772.430035,20504.685700,10600.493622,33156.488318,28340.670865,15982.614873,16227.120605,33962.402816,30638.877230,9786.912475,5838.186245,20447.152310,31720.768716,18966.170426,26710.111107,0.020375,-0.010813,1.005625,192.000000,0.000000,80.000000,127.500000,80.000000,15.500000,48.000000,0.000000,0.000000,0.000000,1763130956.974902,0.000000
26.000000,17687.516533,34795.497035,20511.570038,10602.751148,33177.968344,28385.575519,15994.818925,16243.683248,33959.295924,30641.604142,9785.191391,5831.994812,20440.402083,31730.067042,18967.176255,26744.510441,0.020375,-0.010813,1.005625,192.000000,0.000000,0.000000,0.000000,0.000000,0.000000,0.000000,0.000000,0.000000,0.000000,1763130956.974912,0.000000
28.000000,17677.435896,34782.980059,20505.356253,10603.734625,33160.623391,28372.946784,15987.912236,16238.877623,33982.988773,30657.026846,9784.900818,5835.772256,20440.983229,31738.605409,18981.637833,26759.888442,0.020375,-0.010813,1.005625,192.000000,0.000000,0.000000,0.000000,0.000000,0.000000,0.000000,0.000000,0.000000,0.000000,1763130956.974922,0.000000
30.000000,17678.307614,34780.856643,20507.725538,10601.991189,33148.933428,28361.927374,15990.952073,16238.989382,33937.391214,30638.430195,9786.219571,5840.510826,20419.056167,31725.194362,18952.871138,26703.182066,0.020375,-0.010813,1.005625,192.000000,0.000000,0.000000,0.000000,0.000000,0.000000,0.000000,0.000000,0.000000,0.000000,1763130956.974932,0.000000
32.000000,17669.098695,34786.176358,20509.848953,10601.834727,33167.395969,28368.722304,15995.489478,16244.242042,33980.083046,30655.775148,9786.264275,5834.207634,20443.017238,31741.734653,18977.994499,26771.734866,0.020375,-0.010813,1.005625,192.000000,0.000000,0.000000,0.000000,0.000000,0.000000,0.000000,0.000000,0.000000,0.000000,1763130956.974941,0.000000
34.000000,17664.650698,34766.283305,20498.606026,10596.984398,33134.382443,28335.775833,15981.296120,16221.040931,33948.388272,30628.438965,9778.709385,5831.525425,20424.711159,31724.456754,18957.006211,26711.698081,0.017188,-0.011406,1.002813,192.000000,0.000000,56.000000,127.500000,80.000000,15.500000,32.000000,0.000000,0.000000,0.000000,1763130956.974951,0.000000
36.000000,17681.950948,34788.523291,20507.569076,10605.723930,33162.635048,28368.409380,15996.137678,16241.157501,33955.272610,30643.034654,9778.798792,5831.950108,20432.131938,31732.145754,18960.470731,26740.464776,0.017188,-0.011406,1.002813,192.000000,0.000000,0.000000,0.000000,0.000000,0.000000,0.000000,0.000000,0.000000,0.000000,1763130956.974960,0.000000
38.000000,17681.168637,34787.785684,20499.813020,10604.449881,33143.926638,28349.835080,15989.543914,16232.417969,33980.820654,30653.562326,9779.201124,5832.195977,20436.959915,31746.406167,18975.625214,26754.211098,0.017188,-0.011406,1.002813,192.000000,0.000000,0.000000,0.000000,0.000000,0.000000,0.000000,0.000000,0.000000,0.000000,1763130956.974970,0.000000
40.000000,17679.335794,34779.828463,20503.568113,10607.422663,33134.628312,28345.074158,15991.555571,16236.307172,33932.004444,30637.245552,9781.704519,5836.800437,20420.754900,31723.026243,18946.769112,26699.248159,0.017188,-0.011406,1.002813,192.000000,0.000000,0.000000,0.000000,0.000000,0.000000,0.000000,0.000000,0.000000,0.000000,1763130956.974980,0.000000
42.000000,17686.868332,34794.155931,20510.251285,10609.881355,33166.457196,28366.442426,15997.657597,16248.712391,33974.629220,30659.418483,9786.063109,5838.588576,20440.983229,31741.019397,18977.413354,26768.918546,0.017188,-0.011406,1.002813,192.000000,0.000000,0.000000,0.000000,0.000000,0.000000,0.000000,0.000000,0.000000,0.000000,1763130956.974989,0.000000
44.000000,17694.602036,34779.359076,20500.215352,10607.445014,33126.559332,28344.649475,15985.565303,16232.552079,33952.746863,30643.682855,9786.264275,5843.930643,20422.766557,31732.659844,18945.003324,26711.519267,0.015594,-0.012703,1.002406,192.000000,0.000000,56.000000,127.500000,72.000000,15.500000,40.000000,0.000000,0.000000,0.000000,1763130956.974999,0.000000
46.000000,17688.120030,34791.674887,20514.252247,10604.271067,33162.567993,28364.967211,15997.121155,16250.075847,33953.573877,30643.280523,9784.252618,5836.688678,20430.209688,31728.457717,18956.447417,26737.670808,0.015594,-0.012703,1.002406,192.000000,0.000000,0.000000,0.000000,0.000000,0.000000,0.000000,0.000000,0.000000,0.000000,1763130956.975008,0.000000
48.000000,17673.591396,34778.442654,20504.350424,10598.481965,33148.642856,28325.292864,15987.398146,16237.156539,33975.478587,30645.783919,9788.812374,5834.989945,20438.166909,31729.776469,18980.117915,26747.237354,0.015594,-0.012703,1.002406,192.000000,0.000000,0.000000,0.000000,0.000000,0.000000,0.000000,0.000000,0.000000,0.000000,1763130956.975018,0.000000
50.000000,17676.363012,34771.558317,20505.691529,10598.616075,33144.798356,28349.678618,15988.649844,16234.831957,33924.136630,30616.927817,9780.631635,5830.474893,20412.685920,31710.263397,18958.459074,26695.403659,0.015594,-0.012703,1.002406,192.000000,0.000000,0.000000,0.000000,0.000000,0.000000,0.000000,0.000000,0.000000,0.000000,1763130956.975027,0.000000
52.000000,17681.190989,34793.977117,20510.586561,10604.405177,33170.569917,28387.877749,15997.679949,16252.735705,33971.991714,30654.322285,9785.928999,5835.436980,20440.916174,31736.191420,18980.721412,26764.828177,0.015594,-0.012703,1.002406,192.000000,0.000000,0.000000,0.000000,0.000000,0.000000,0.000000,0.000000,0.000000,0.000000,1763130956.975037,0.000000
54.000000,17675.938329,34773.637029,20500.818849,10597.565543,33133.041338,28340.447347,15983.732460,16228.908745,33945.035511,30634.608046,9781.905685,5835.638146,20415.815165,31726.423708,18964.538749,26706.825400,0.015594,-0.012703,1.002406,192.000000,0.000000,0.000000,0.000000,0.000000,0.000000,0.000000,0.000000,0.000000,0.000000,1763130956.975046,0.000000
56.000000,17681.302748,34796.480512,20511.838259,10601.007712,33163.260897,28363.670810,15996.316492,16249.673516,33949.841136,30633.937494,9785.616074,5829.759637,20425.448766,31723.428574,18971.914824,26736.374406,0.012000,-0.016000,1.006000,192.000000,0.000000,48.000000,127.500000,64.000000,15.500000,56.000000,0.000000,0.000000,0.000000,1763130956.975056,0.000000
58.000000,17682.442687,34777.168605,20504.439831,10602.795852,33142.809050,28347.175222,15989.812134,16241.001039,33980.150101,30649.471956,9789.907609,5836.979251,20431.260220,31739.208906,18981.838999,26752.758235,0.012000,-0.016000,1.006000,192.000000,0.000000,0.000000,0.000000,0.000000,0.000000,0.000000,0.000000,0.000000,0.000000,1763130956.975066,0.000000
60.000000,17681.705079,34774.531099,20503.836334,10602.080596,33137.936370,28344.783586,15988.247512,16239.034085,33934.060804,30625.130907,9784.923170,5834.699373,20411.993016,31722.355690,18950.680667,26704.500819,0.012000,-0.016000,1.006000,192.000000,0.000000,0.000000,0.000000,0.000000,0.000000,0.000000,0.000000,0.000000,0.000000,1763130956.975076,0.000000
62.000000,17694.780850,34788.769160,20510.564209,10602.997017,33163.238545,28369.996353,15995.444774,16250.947565,33982.161758,30648.175555,9790.332292,5834.989945,20437.071674,31731.966940,18978.910920,26776.071105,0.012000,-0.016000,1.006000,192.000000,0.000000,0.000000,0.000000,0.000000,0.000000,0.000000,0.000000,0.000000,0.000000,1763130956.975085,0.000000
64.000000,17682.621501,34771.446558,20504.372776,10597.520840,33131.454364,28334.054748,15984.604178,16232.172100,33960.569973,30629.333035,9786.644255,5833.291213,20433.763615,31720.031109,18962.460037,26708.412374,0.012000,-0.016000,1.006000,192.000000,0.000000,0.000000,0.000000,0.000000,0.000000,0.000000,0.000000,0.000000,0.000000,1763130956.975095,0.000000
66.000000,17697.910094,34793.843006,20515.548648,10601.588857,33169.027647,28366.576536,15999.132812,16254.210920,33957.574839,30638.921933,9792.768633,5832.687716,20433.562450,31726.110783,18963.354106,26732.552258,0.012000,-0.018000,1.006000,192.000000,0.000000,48.000000,127.500000,56.000000,15.500000,56.000000,0.000000,0.000000,0.000000,1763130956.975104,0.000000
68.000000,17696.971321,34784.835253,20508.440794,10596.783232,33148.553449,28352.696103,15988.381623,16242.409199,33989.403723,30649.069625,9796.121394,5834.699373,20441.787892,31734.984426,18980.184970,26746.320933,0.012000,-0.018000,1.006000,192.000000,0.000000,0.000000,0.000000,0.000000,0.000000,0.000000,0.000000,0.000000,0.000000,1763130956.975114,0.000000
70.000000,17683.761440,34773.391160,20507.300855,10599.085462,33135.343568,28340.872030,15988.649844,16238.587050,33939.760499,30624.795631,9787.828897,5832.352439,20421.224287,31716.924216,18954.949850,26698.644662,0.012000,-0.018000,1.006000,192.000000,0.000000,0.000000,0.000000,0.000000,0.000000,0.000000,0.000000,0.000000,0.000000,1763130956.975124,0.000000
72.000000,17693.976187,34790.043210,20512.732329,10602.393520,33160.221059,28357.680542,15998.775184,16253.070981,33986.006258,30648.667294,9791.382824,5832.330088,20444.783025,31736.392586,18977.480409,26769.544395,0.012000,-0.018000,1.006000,192.000000,0.000000,0.000000,0.000000,0.000000,0.000000,0.000000,0.000000,0.000000,0.000000,1763130956.975134,0.000000
74.000000,17694.490277,34772.206518,20505.423308,10600.940657,33130.180315,28348.918658,15987.755774,16237.894146,33958.290095,30636.083261,9790.309941,5840.622585,20429.025046,31726.490763,18958.347316,26708.099450,0.012000,-0.018000,1.006000,192.000000,0.000000,0.000000,0.000000,0.000000,0.000000,0.000000,0.000000,0.000000,0.000000,1763130956.975162,0.000000
76.000000,17699.206495,34792.792474,20514.274599,10604.606343,33162.724455,28380.613432,15999.646902,16255.887300,33962.939258,30642.855840,9792.634522,5839.840274,20440.267973,31733.196286,18965.879853,26739.526002,0.018000,-0.012000,1.008000,192.000000,0.000000,72.000000,127.500000,80.000000,15.500000,64.000000,0.000000,0.000000,0.000000,1763130956.975172,0.000000
78.000000,17694.713795,34788.165663,20507.144392,10602.237058,33148.665207,28349.455100,15990.661501,16245.538443,33994.097590,30651.662427,9794.310903,5841.606062,20445.051246,31739.924161,18980.252025,26757.049770,0.018000,-0.012000,1.008000,192.000000,0.000000,0.000000,0.000000,0.000000,0.000000,0.000000,0.000000,0.000000,0.000000,1763130956.975182,0.000000
80.000000,17696.099603,34778.040323,20508.753718,10606.327427,33140.909152,28356.071217,15992.047309,16249.025315,33950.757557,30637.044387,9790.667569,5845.159989,20426.141670,31730.447022,18951.306516,26703.450287,0.018000,-0.012000,1.008000,192.000000,0.000000,0.000000,0.000000,0.000000,0.000000,0.000000,0.000000,0.000000,0.000000,1763130956.975191,0.000000
82.000000,17694.244408,34794.334745,20509.267808,10606.238020,33171.419283,28379.831121,15998.372853,16255.842597,33994.678735,30660.692532,9793.573295,5843.215387,20453.522557,31750.228316,18981.481371,26774.819407,0.018000,-0.012000,1.008000,192.000000,0.000000,0.000000,0.000000,0.000000,0.000000,0.000000,0.000000,0.000000,0.000000,1763130956.975201,0.000000
84.000000,17687.784754,34778.956745,20501.601160,10604.919267,33135.701196,28351.511461,15987.264036,16237.827091,33963.565107,30644.174593,9789.013539,5842.477780,20429.516784,31736.414938,18961.588319,26712.703909,0.018000,-0.012000,1.008000,192.000000,0.000000,0.000000,0.000000,0.000000,0.000000,0.000000,0.000000,0.000000,0.000000,1763130956.975210,0.000000
86.000000,17691.092812,34793.954765,20510.564209,10605.790985,33165.473719,28383.005069,15998.261094,16251.215786,33966.537889,30657.004494,9790.444051,5842.835408,20441.430264,31748.171955,18963.912900,26738.788395,0.014000,-0.010000,1.006000,192.000000,0.000000,56.000000,127.500000,88.000000,15.500000,56.000000,0.000000,0.000000,0.000000,1763130957.454334,0.000000
88.000000,17701.039338,34781.929527,20500.707090,10603.265238,33148.665207,28374.198481,15990.013300,16242.677420,33989.671944,30659.642000,9787.761842,5838.879149,20454.036648,31751.703531,18979.894397,26760.134311,0.014000,-0.010000,1.006000,192.000000,0.000000,0.000000,0.000000,0.000000,0.000000,0.000000,0.000000,0.000000,0.000000,1763130957.454450,0.000000
90.000000,17688.522361,34782.711838,20505.669177,10602.818203,33142.362016,28368.431731,15990.616797,16242.722123,33948.321217,30643.414634,9785.817240,5841.114323,20430.813185,31730.447022,18947.841996,26708.255912,0.014000,-0.010000,1.006000,192.000000,0.000000,0.000000,0.000000,0.000000,0.000000,0.000000,0.000000,0.000000,0.000000,1763130957.454543,0.000000
92.000000,17693.037414,34802.671945,20512.106480,10603.533459,33168.692370,28372.253880,15997.679949,16255.552024,33990.498959,30666.861614,9792.858039,5839.840274,20447.286421,31750.004798,18982.487200,26771.444293,0.014000,-0.010000,1.006000,192.000000,0.000000,0.000000,0.000000,0.000000,0.000000,0.000000,0.000000,0.000000,0.000000,1763130957.454637,0.000000
94.000000,17691.025757,34766.462119,20500.550628,10600.404215,33132.080213,28343.375426,15986.638187,16233.915536,33960.078235,30650.969523,9787.717138,5843.841236,20426.387540,31733.933894,18963.644679,26713.776793,0.014000,-0.010000,1.006000,192.000000,0.000000,0.000000,0.000000,0.000000,0.000000,0.000000,0.000000,0.000000,0.000000,1763130957.454733,0.000000
96.000000,17692.813896,34793.664192,20511.704148,10606.081558,33161.293943,28377.484188,16000.764489,16254.725010,33963.006313,30655.685741,9791.136955,5842.187207,20432.511918,31743.925124,18960.940118,26740.040092,0.016000,-0.010000,1.008000,192.000000,0.000000,64.000000,127.500000,88.000000,15.500000,64.000000,0.000000,0.000000,0.000000,1763130957.454788,0.000000
98.000000,17687.650643,34778.442654,20502.048195,10600.784195,33138.316350,28356.920583,15990.147411,16239.190547,33987.235604,30666.146358,9788.454746,5839.192073,20452.315563,31746.808499,18975.692269,26757.027418,0.016000,-0.010000,1.008000,192.000000,0.000000,0.000000,0.000000,0.000000,0.000000,0.000000,0.000000,0.000000,0.000000,1763130957.454832,0.000000
100.000000,17687.851809,34779.850814,20503.054023,10602.438224,33137.422280,28350.438577,15990.460335,16240.017562,33944.364958,30641.917067,9784.185563,5840.466123,20411.925961,31733.978597,18945.383304,26704.657281,0.016000,-0.010000,1.008000,192.000000,0.000000,0.000000,0.000000,0.000000,0.000000,0.000000,0.000000,0.000000,0.000000,1763130957.454857,0.000000
102.000000,17695.160829,34791.853701,20507.680834,10603.220535,33159.997542,28374.332592,15997.478783,16253.115684,33991.549491,30670.169672,9787.717138,5841.002565,20439.351551,31751.725882,18976.742801,26775.847587,0.016000,-0.010000,1.008000,192.000000,0.000000,0.000000,0.000000,0.000000,0.000000,0.000000,0.000000,0.000000,0.000000,1763130957.454882,0.000000
104.000000,17690.936350,34775.201651,20500.774145,10602.348817,33130.783812,28338.793318,15985.431193,16235.033123,33970.538851,30652.645904,9789.393519,5846.948129,20426.588705,31740.505307,18957.095618,26710.580493,0.016000,-0.010000,1.008000,192.000000,0.000000,0.000000,0.000000,0.000000,0.000000,0.000000,0.000000,0.000000,0.000000,1763130957.454906,0.000000
106.000000,17690.869295,34799.989736,20511.167706,10604.919267,33157.874126,28371.270403,15997.747004,16254.970879,33969.376560,30659.552593,9791.539287,5845.159989,20432.109586,31745.556801,18962.460037,26740.822404,0.014000,-0.016000,1.010000,192.000000,0.000000,56.000000,127.500000,64.000000,15.500000,72.000000,0.000000,0.000000,0.000000,1763130957.454931,0.000000
108.000000,17690.981053,34783.225928,20506.607951,10598.347854,33145.871239,28351.131481,15990.460335,16243.929117,33997.137427,30665.922840,9792.478060,5843.952995,20439.575069,31749.848336,18977.234540,26753.942878,0.014000,-0.016000,1.010000,192.000000,0.000000,0.000000,0.000000,0.000000,0.000000,0.000000,0.000000,0.000000,0.000000,1763130957.454955,0.000000
110.000000,17691.606902,34784.567032,20510.653616,10596.515011,33144.038396,28357.345266,15990.147411,16243.258565,33961.039360,30642.118233,9794.199144,5840.756695,20425.426415,31736.057310,18952.200586,26695.358955,0.014000,-0.016000,1.010000,192.000000,0.000000,0.000000,0.000000,0.000000,0.000000,0.000000,0.000000,0.000000,0.000000,1763130957.454980,0.000000
112.000000,17696.054899,34800.861454,20514.945151,10599.063110,33164.065559,28383.809731,15996.338844,16255.641431,34000.803113,30663.642962,9796.210801,5837.895672,20448.024028,31750.720054,18979.983804,26768.538567,0.014000,-0.016000,1.010000,192.000000,0.000000,0.000000,0.000000,0.000000,0.000000,0.000000,0.000000,0.000000,0.000000,1763130957.455005,0.000000
114.000000,17684.610806,34781.169567,20504.685700,10597.856116,33128.570989,28348.628086,15984.291254,16237.804739,33979.770122,30650.813061,9795.696711,5843.461256,20435.328237,31738.560705,18962.549444,26704.187894,0.014000,-0.016000,1.010000,192.000000,0.000000,0.000000,0.000000,0.000000,0.000000,0.000000,0.000000,0.000000,0.000000,1763130957.455029,0.000000
116.000000,17692.858600,34803.476608,20514.766337,10603.511107,33155.795414,28380.233452,15998.752832,16259.284766,33978.585479,30654.143471,9799.071824,5842.634242,20439.329200,31746.652037,18960.671897,26734.876840,0.015000,-0.014000,1.008000,192.000000,0.000000,64.000000,127.500000,80.000000,15.500000,56.000000,0.000000,0.000000,0.000000,1763130957.455054,0.000000
118.000000,17693.909132,34784.701143,20507.323206,10599.890125,33143.099623,28359.021647,15991.108536,16248.041838,34001.361907,30668.895622,9798.982417,5846.389335,20444.067770,31751.859993,18977.435705,26753.205270,0.015000,-0.014000,1.008000,192.000000,0.000000,0.000000,0.000000,0.000000,0.000000,0.000000,0.000000,0.000000,0.000000,1763130957.455078,0.000000
120.000000,17691.785716,34784.924660,20507.680834,10601.901782,33136.394100,28359.893365,15991.913198,16246.544271,33952.165717,30646.700340,9793.461537,5843.438905,20419.547906,31735.163240,18949.473673,26698.756420,0.015000,-0.014000,1.008000,192.000000,0.000000,0.000000,0.000000,0.000000,0.000000,0.000000,0.000000,0.000000,0.000000,1763130957.455102,0.000000
122.000000,17696.345472,34799.676812,20512.240590,10604.181660,33164.199670,28386.246072,15997.523486,16254.881472,33995.595157,30667.755683,9797.395444,5843.371849,20443.263107,31746.920257,18980.766115,26767.376276,0.015000,-0.014000,1.008000,192.000000,0.000000,0.000000,0.000000,0.000000,0.000000,0.000000,0.000000,0.000000,0.000000,1763130957.455127,0.000000
124.000000,17690.936350,34783.047114,20504.529238,10601.566506,33132.840172,28350.215060,15984.537123,16235.703675,33968.080159,30649.918991,9792.165135,5845.428210,20424.867621,31740.438252,18957.319135,26709.239389,0.015000,-0.014000,1.008000,192.000000,0.000000,0.000000,0.000000,0.000000,0.000000,0.000000,0.000000,0.000000,0.000000,1763130957.455152,0.000000
126.000000,17689.483486,34804.102457,20515.392186,10603.354645,33162.791510,28373.639688,15997.635245,16254.434437,33971.790549,30657.652695,9793.774461,5843.841236,20437.026970,31747.210830,18962.147112,26732.373444,0.016500,-0.015000,1.006000,192.000000,0.000000,72.000000,127.500000,64.000000,15.500000,48.000000,0.000000,0.000000,0.000000,1763130957.455177,0.000000
128.000000,17690.019928,34795.899367,20509.223105,10600.985360,33148.620504,28354.730112,15988.314568,16244.554966,34003.105343,30671.868404,9795.652008,5847.126943,20447.107607,31756.106824,18979.849694,26749.830157,0.016500,-0.015000,1.006000,192.000000,0.000000,0.000000,0.000000,0.000000,0.000000,0.000000,0.000000,0.000000,0.000000,1763130957.455201,0.000000
130.000000,17688.678824,34800.593233,20511.324169,10600.784195,33139.836268,28354.417188,15989.163934,16244.554966,33963.296886,30648.734349,9793.416833,5846.456390,20430.477909,31739.633589,18956.134493,26696.320080,0.016500,-0.015000,1.006000,192.000000,0.000000,0.000000,0.000000,0.000000,0.000000,0.000000,0.000000,0.000000,0.000000,1763130957.455226,0.000000
132.000000,17703.699196,34811.970271,20515.615704,10603.578163,33162.188013,28374.198481,15997.255265,16257.071943,34007.843913,30674.550614,9796.859002,5848.602158,20457.545871,31755.525679,18984.543560,26765.610488,0.016500,-0.015000,1.006000,192.000000,0.000000,0.000000,0.000000,0.000000,0.000000,0.000000,0.000000,0.000000,0.000000,1763130957.455251,0.000000
134.000000,17684.499047,34794.222986,20507.189096,10600.001884,33129.487411,28346.795243,15984.425364,16238.430588,33981.513558,30651.908297,9794.892048,5845.450562,20426.991037,31740.348845,18963.979955,26705.484296,0.016500,-0.015000,1.006000,192.000000,0.000000,0.000000,0.000000,0.000000,0.000000,0.000000,0.000000,0.000000,0.000000,1763130957.455291,0.000000
136.000000,17693.819725,34802.448428,20516.174497,10603.511107,33161.696274,28379.965231,15997.881114,16257.653088,33981.602965,30659.396131,9800.792909,5848.713916,20436.267011,31742.047577,18965.075191,26731.993464,0.018250,-0.015500,1.005000,192.000000,0.000000,80.000000,127.500000,64.000000,15.500000,48.000000,0.000000,0.000000,0.000000,1763130957.455316,0.000000
138.000000,17697.485411,34794.960594,20510.228933,10600.337160,33144.641893,28359.289868,15989.163934,16247.728914,34009.833218,30669.856747,9799.854135,5848.021012,20446.504110,31748.216659,18980.922577,26749.874860,0.018250,-0.015500,1.005000,192.000000,0.000000,0.000000,0.000000,0.000000,0.000000,0.000000,0.000000,0.000000,0.000000,1763130957.455340,0.000000
140.000000,17696.613693,34800.704992,20509.156049,10601.946485,33140.328007,28360.429807,15990.527390,16248.645335,33968.303677,30650.813061,9799.608266,5851.172608,20425.381711,31745.936781,18950.792426,26695.448362,0.018250,-0.015500,1.005000,192.000000,0.000000,0.000000,0.000000,0.000000,0.000000,0.000000,0.000000,0.000000,0.000000,1763130957.455364,0.000000
142.000000,17696.144306,34806.449390,20508.306683,10604.159308,33157.851774,28390.135275,15997.098803,16255.954356,34014.035346,30671.734294,9800.636447,5846.478742,20444.671267,31753.379912,18976.519284,26773.433599,0.018250,-0.015500,1.005000,192.000000,0.000000,0.000000,0.000000,0.000000,0.000000,0.000000,0.000000,0.000000,0.000000,1763130957.455389,0.000000
144.000000,17688.388251,34784.969364,20499.790668,10598.437261,33118.959739,28352.606696,15983.978329,16233.244983,33982.318220,30645.225125,9792.656874,5840.823751,20423.750034,31738.516002,18954.480464,26712.078060,0.018250,-0.015500,1.005000,192.000000,0.000000,0.000000,0.000000,0.000000,0.000000,0.000000,0.000000,0.000000,0.000000,1763130957.455413,0.000000
146.000000,17694.624388,34798.603928,20513.760509,10601.141822,33151.258010,28370.108112,15998.059928,16255.641431,33977.512595,30649.471956,9795.361435,5839.035611,20444.112473,31745.780318,18960.962470,26733.736901,0.022125,-0.014750,1.000500,192.000000,0.000000,104.000000,127.500000,72.000000,15.500000,16.000000,0.000000,0.000000,0.000000,1763130957.455437,0.000000
148.000000,17687.516533,34798.603928,20509.044291,10597.744357,33137.332873,28352.852565,15989.499210,16249.628812,34007.642747,30661.966582,9802.893973,5845.607024,20442.838424,31752.597601,18981.235502,26748.354941,0.022125,-0.014750,1.000500,192.000000,0.000000,0.000000,0.000000,0.000000,0.000000,0.000000,0.000000,0.000000,0.000000,1763130957.455461,0.000000
150.000000,17708.527173,34811.299719,20514.587523,10601.052415,33139.121013,28359.312220,15991.823791,16258.949489,33968.929525,30647.482651,9807.744301,5851.887864,20429.606191,31739.320664,18955.083961,26698.689365,0.022125,-0.014750,1.000500,192.000000,0.000000,0.000000,0.000000,0.000000,0.000000,0.000000,0.000000,0.000000,0.000000,1763130957.455486,0.000000
152.000000,17713.645722,34824.353138,20519.616666,10604.718102,33164.736112,28380.345211,16000.026882,16272.360536,34021.254959,30679.088018,9815.612115,5855.397088,20460.272784,31762.499423,18981.123743,26769.589099,0.022125,-0.014750,1.000500,192.000000,0.000000,0.000000,0.000000,0.000000,0.000000,0.000000,0.000000,0.000000,0.000000,1763130957.455510,0.000000
154.000000,17698.692405,34797.173416,20506.876171,10600.806546,33131.007329,28353.076083,15986.995815,16247.617155,33990.051924,30661.407788,9807.230211,5856.089992,20437.429301,31746.540278,18967.086848,26708.926464,0.022125,-0.014750,1.000500,192.000000,0.000000,0.000000,0.000000,0.000000,0.000000,0.000000,0.000000,0.000000,0.000000,1763130957.455535,0.000000
156.000000,17706.582571,34812.774934,20514.341654,10605.276895,33161.785681,28386.782513,15999.535143,16262.525769,33985.022781,30664.671143,9803.072787,5853.765411,20439.932697,31750.764757,18968.964394,26736.553220,0.023062,-0.014375,1.000250,192.000000,0.000000,96.000000,127.500000,72.000000,15.500000,32.000000,0.000000,0.000000,0.000000,1763130957.455559,0.000000
158.000000,17692.590379,34806.695259,20509.178401,10603.689921,33147.346455,28370.555147,15990.817963,16248.734742,34009.989680,30670.326134,9802.715159,5848.691565,20449.812168,31751.748234,18978.754458,26754.993410,0.023062,-0.014375,1.000250,192.000000,0.000000,0.000000,0.000000,0.000000,0.000000,0.000000,0.000000,0.000000,0.000000,1763130957.455584,0.000000
160.000000,17696.390175,34803.945995,20513.782860,10603.041721,33142.674940,28360.318048,15991.242646,16249.964088,33967.431959,30651.997704,9802.581048,5847.216350,20433.473043,31740.259438,18951.239461,26695.940101,0.023062,-0.014375,1.000250,192.000000,0.000000,0.000000,0.000000,0.000000,0.000000,0.000000,0.000000,0.000000,0.000000,1763130957.455608,0.000000
162.000000,17695.183181,34809.131600,20515.191020,10600.314808,33168.044170,28386.313127,15997.009396,16259.798856,34010.503770,30674.215338,9806.202031,5846.121114,20455.623621,31755.592734,18983.694194,26765.006991,0.023062,-0.014375,1.000250,192.000000,0.000000,0.000000,0.000000,0.000000,0.000000,0.000000,0.000000,0.000000,0.000000,1763130957.455633,0.000000
164.000000,17693.216228,34791.719591,20506.607951,10596.984398,33129.196838,28356.406493,15985.878227,16239.548175,33981.468854,30653.987009,9801.530516,5846.143466,20437.094025,31738.828926,18961.811836,26708.278264,0.023062,-0.014375,1.000250,192.000000,0.000000,0.000000,0.000000,0.000000,0.000000,0.000000,0.000000,0.000000,0.000000,1763130957.455657,0.000000
166.000000,17698.759460,34806.091762,20515.436890,10600.001884,33161.159833,28383.742676,15997.411728,16253.696830,33980.172453,30653.227049,9799.496508,5840.510826,20445.900613,31741.488784,18966.282185,26737.804918,0.022531,-0.014187,1.002125,192.000000,0.000000,88.000000,127.500000,72.000000,15.500000,48.000000,0.000000,0.000000,0.000000,1763130957.455674,0.000000
168.000000,17692.903303,34797.329878,20507.904352,10596.380901,33150.073367,28366.732999,15987.509905,16238.207071,34008.469761,30666.749855,9797.976589,5839.907329,20461.949165,31753.558726,18986.331700,26751.730055,0.022531,-0.014187,1.002125,192.000000,0.000000,0.000000,0.000000,0.000000,0.000000,0.000000,0.000000,0.000000,0.000000,1763130957.455685,0.000000
170.000000,17675.513646,34783.047114,20505.713881,10600.471270,33137.824611,28354.216022,15987.107573,16231.322733,33958.334799,30643.034654,9790.041720,5835.884015,20431.349627,31729.910580,18959.934289,26697.817647,0.022531,-0.014187,1.002125,192.000000,0.000000,0.000000,0.000000,0.000000,0.000000,0.000000,0.000000,0.000000,0.000000,1763130957.455696,0.000000
172.000000,17680.609844,34796.949899,20509.312512,10606.327427,33161.115129,28377.126560,15994.751870,16240.822225,33995.841026,30667.710980,9790.511106,5830.564300,20449.275726,31747.859031,18985.705851,26774.908814,0.022531,-0.014187,1.002125,192.000000,0.000000,0.000000,0.000000,0.000000,0.000000,0.000000,0.000000,0.000000,0.000000,1763130957.455708,0.000000
174.000000,17674.507818,34780.163739,20503.277541,10602.505279,33132.080213,28355.691237,15984.067736,16228.908745,33971.745845,30652.780015,9789.125298,5835.146408,20440.513842,31740.035920,18961.722429,26714.626159,0.022531,-0.014187,1.002125,192.000000,0.000000,0.000000,0.000000,0.000000,0.000000,0.000000,0.000000,0.000000,0.000000,1763130957.455719,0.000000
176.000000,17686.734222,34802.560187,20510.027767,10604.561639,33165.563126,28387.341307,15997.322321,16247.997135,33975.523290,30661.765416,9794.936752,5837.493341,20444.268935,31749.177784,18958.481426,26744.868069,0.020266,-0.014094,1.002063,192.000000,0.000000,72.000000,127.500000,72.000000,15.500000,40.000000,0.000000,0.000000,0.000000,1763130957.455729,0.000000
178.000000,17676.273605,34783.360038,20504.283369,10593.564581,33149.760443,28355.847699,15985.744117,16232.462672,33998.545587,30664.849957,9788.879429,5838.052134,20443.151348,31748.149603,18988.276301,26761.542471,0.020266,-0.014094,1.002063,192.000000,0.000000,0.000000,0.000000,0.000000,0.000000,0.000000,0.000000,0.000000,0.000000,1763130957.455742,0.000000
180.000000,17680.721603,34783.449445,20506.630302,10596.157383,33149.536925,28362.150891,15985.542951,16231.389789,33956.613714,30641.335921,9787.650083,5834.028820,20422.319522,31735.364406,18965.835150,26703.539694,0.020266,-0.014094,1.002063,192.000000,0.000000,0.000000,0.000000,0.000000,0.000000,0.000000,0.000000,0.000000,0.000000,1763130957.455753,0.000000
182.000000,17690.601074,34802.873111,20508.105517,10599.130165,33166.479548,28386.380182,15992.270826,16241.515129,34001.071334,30669.297954,9790.399348,5835.504035,20458.283479,31751.144737,18990.623235,26776.071105,0.020266,-0.014094,1.002063,192.000000,0.000000,0.000000,0.000000,0.000000,0.000000,0.000000,0.000000,0.000000,0.000000,1763130957.455764,0.000000
184.000000,17675.513646,34777.816806,20498.918950,10594.212782,33128.235713,28340.402644,15980.245588,16221.353855,33970.650610,30644.107538,9784.006749,5833.313564,20426.588705,31729.307083,18975.088772,26711.698081,0.020266,-0.014094,1.002063,192.000000,0.000000,0.000000,0.000000,0.000000,0.000000,0.000000,0.000000,0.000000,0.000000,1763130957.455776,0.000000
186.000000,17673.859617,34786.824559,20506.607951,10599.174869,33159.997542,28372.902080,15992.583751,16238.207071,33968.348380,30655.238706,9785.683130,5832.128922,20436.378769,31735.431461,18972.808894,26735.212116,0.020266,-0.014094,1.002063,192.000000,0.000000,0.000000,0.000000,0.000000,0.000000,0.000000,0.000000,0.000000,0.000000,1763130957.455787,0.000000
188.000000,17658.369858,34769.658419,20496.683776,10593.408119,33139.925675,28361.994429,15982.391355,16224.661913,33987.950860,30654.076416,9784.654949,5829.625527,20438.189261,31739.275961,18987.091659,26756.602735,0.016000,-0.014000,1.000000,192.000000,0.000000,64.000000,127.500000,72.000000,15.500000,32.000000,0.000000,0.000000,0.000000,1763130957.455799,0.000000
190.000000,17666.304727,34771.290096,20497.421384,10594.592761,33134.315388,28359.066350,15984.179495,16226.964143,33943.850868,30634.719805,9778.910551,5830.519596,20417.044510,31730.670539,18956.447417,26701.997423,0.016000,-0.014000,1.000000,192.000000,0.000000,0.000000,0.000000,0.000000,0.000000,0.000000,0.000000,0.000000,0.000000,1763130957.455811,0.000000
192.000000,17669.076344,34790.512596,20501.936436,10596.380901,33160.824556,28374.734923,15991.823791,16240.866928,33983.838139,30657.138605,9783.224438,5828.038553,20436.311714,31742.226391,18987.382232,26774.864110,0.016000,-0.014000,1.000000,192.000000,0.000000,0.000000,0.000000,0.000000,0.000000,0.000000,0.000000,0.000000,0.000000,1763130957.455822,0.000000
194.000000,17666.729410,34764.852794,20496.951997,10595.665645,33122.044280,28349.276286,15980.178533,16222.136166,33958.245392,30641.827660,9781.995092,5830.541948,20425.538173,31730.134097,18966.706868,26711.027528,0.016000,-0.014000,1.000000,192.000000,0.000000,0.000000,0.000000,0.000000,0.000000,0.000000,0.000000,0.000000,0.000000,1763130957.455833,0.000000
196.000000,17674.619576,34786.533986,20508.284331,10599.174869,33150.565106,28379.026458,15993.544876,16242.878585,33963.296886,30646.007436,9786.197220,5829.334954,20430.790833,31734.939722,18968.092676,26739.011912,0.016000,-0.014000,1.000000,192.000000,0.000000,0.000000,0.000000,0.000000,0.000000,0.000000,0.000000,0.000000,0.000000,1763130957.455844,0.000000
198.000000,17672.697326,34776.229832,20500.349462,10596.582067,33133.510725,28370.152816,15986.146448,16232.976762,33987.950860,30656.736273,9786.487792,5833.291213,20438.010447,31739.119499,18983.269511,26756.088645,0.020000,-0.016000,1.002000,192.000000,0.000000,80.000000,127.500000,64.000000,15.500000,40.000000,0.000000,0.000000,0.000000,1763130957.455856,0.000000
200.000000,17668.204626,34779.470835,20503.612817,10599.085462,33129.912094,28361.972077,15987.442850,16232.730893,33944.230848,30638.229029,9784.677301,5833.894710,20419.592609,31734.895019,18954.681630,26696.521246,0.020000,-0.016000,1.002000,192.000000,0.000000,0.000000,0.000000,0.000000,0.000000,0.000000,0.000000,0.000000,0.000000,1763130957.455867,0.000000
202.000000,17675.804219,34801.867283,20508.038462,10601.007712,33153.090853,28382.714496,15993.544876,16242.453902,33988.889633,30662.659486,9788.298284,5834.297041,20446.772331,31745.445042,18981.526075,26776.294622,0.020000,-0.016000,1.002000,192.000000,0.000000,0.000000,0.000000,0.000000,0.000000,0.000000,0.000000,0.000000,0.000000,1763130957.455878,0.000000
204.000000,17672.384402,34772.541794,20501.064718,10598.101985,33119.652643,28347.242278,15981.854913,16224.550155,33963.453348,30645.761567,9785.392557,5834.922890,20435.931735,31734.537391,18966.796275,26711.563970,0.020000,-0.016000,1.002000,192.000000,0.000000,0.000000,0.000000,0.000000,0.000000,0.000000,0.000000,0.000000,0.000000,1763130957.455889,0.000000
206.000000,17683.873198,34793.843006,20508.172573,10604.047549,33148.106414,28372.745618,15994.953036,16241.515129,33961.307581,30652.198869,9788.052414,5833.537082,20431.103758,31746.205002,18968.450304,26736.575572,0.020000,-0.016000,1.002000,192.000000,0.000000,0.000000,0.000000,0.000000,0.000000,0.000000,0.000000,0.000000,0.000000,1763130957.935284,0.000000
208.000000,17675.044259,34787.919794,20502.092898,10599.018407,33134.605960,28352.919621,15987.308739,16232.686190,33991.817712,30661.452491,9789.415871,5833.604137,20452.181453,31751.323551,18981.995461,26757.630915,0.018000,-0.020000,1.000000,192.000000,0.000000,72.000000,127.500000,48.000000,15.500000,32.000000,0.000000,0.000000,0.000000,1763130957.935370,0.000000
210.000000,17672.853788,34771.647724,20500.818849,10597.342026,33127.229885,28351.734978,15986.437021,16229.020504,33946.756595,30635.278599,9784.297321,5831.056038,20419.123223,31731.788126,18956.201548,26701.215112,0.018000,-0.020000,1.000000,192.000000,0.000000,0.000000,0.000000,0.000000,0.000000,0.000000,0.000000,0.000000,0.000000,1763130957.935428,0.000000
212.000000,17671.244463,34790.579652,20504.462183,10601.477099,33153.716702,28382.848606,15994.483649,16243.035047,33983.324049,30654.724616,9782.844458,5831.346611,20440.670304,31745.221525,18988.388060,26773.902985,0.018000,-0.020000,1.000000,192.000000,0.000000,0.000000,0.000000,0.000000,0.000000,0.000000,0.000000,0.000000,0.000000,1763130957.935488,0.000000
214.000000,17678.911111,34780.431960,20498.829543,10601.320636,33122.290149,28351.287943,15983.128963,16223.946658,33964.660342,30648.220259,9784.096156,5840.041440,20425.538173,31742.494612,18962.974127,26712.212171,0.018000,-0.020000,1.000000,192.000000,0.000000,0.000000,0.000000,0.000000,0.000000,0.000000,0.000000,0.000000,0.000000,1763130957.935536,0.000000
216.000000,17668.405791,34788.813864,20506.563247,10601.812375,33145.066577,28379.585252,15993.880152,16237.335353,33962.313409,30649.315494,9782.106850,5835.034649,20427.393368,31740.728824,18968.137380,26738.140194,0.018000,-0.020000,1.000000,192.000000,0.000000,0.000000,0.000000,0.000000,0.000000,0.000000,0.000000,0.000000,0.000000,1763130957.935584,0.000000
218.000000,17670.216283,34787.808035,20503.299892,10600.135994,33131.856696,28364.743693,15989.052175,16230.898050,33991.661250,30657.473881,9784.409080,5834.609966,20437.250487,31749.222487,18982.978938,26758.904965,0.018000,-0.018000,1.006000,192.000000,0.000000,72.000000,127.500000,56.000000,15.500000,56.000000,0.000000,0.000000,0.000000,1763130957.935633,0.000000
220.000000,17678.017041,34787.450407,20506.138564,10598.034930,33122.088983,28360.943897,15990.236818,16231.143919,33944.029682,30638.765471,9786.353682,5835.906367,20417.268028,31736.079661,18956.313307,26698.443496,0.018000,-0.018000,1.006000,192.000000,0.000000,0.000000,0.000000,0.000000,0.000000,0.000000,0.000000,0.000000,0.000000,1763130957.935681,0.000000
222.000000,17677.413544,34794.938242,20508.910180,10599.778366,33148.374635,28375.785455,15996.472954,16241.425722,33986.363886,30660.960753,9790.712272,5834.900538,20442.659610,31745.735615,18989.796220,26769.857320,0.018000,-0.018000,1.006000,192.000000,0.000000,0.000000,0.000000,0.000000,0.000000,0.000000,0.000000,0.000000,0.000000,1763130957.935729,0.000000
224.000000,17668.070515,34774.352285,20498.360157,10596.470308,33116.009309,28343.978923,15983.307777,16220.862117,33961.866374,30643.235820,9783.470307,5836.107533,20423.861793,31736.414938,18970.640775,26715.654339,0.018000,-0.018000,1.006000,192.000000,0.000000,0.000000,0.000000,0.000000,0.000000,0.000000,0.000000,0.000000,0.000000,1763130957.935777,0.000000
226.000000,17677.458248,34799.609756,20508.574904,10602.661741,33148.262876,28380.702839,15997.054100,16244.778483,33961.665209,30649.717826,9785.616074,5833.246509,20430.209688,31743.813365,18969.880816,26740.800052,0.018000,-0.018000,1.006000,192.000000,0.000000,0.000000,0.000000,0.000000,0.000000,0.000000,0.000000,0.000000,0.000000,1763130957.935826,0.000000
228.000000,17688.209437,34793.105399,20503.389299,10598.929000,33131.946103,28359.781606,15989.342748,16235.614268,33993.896424,30664.805253,9792.209839,5838.186245,20443.218403,31753.826946,18986.666976,26757.742674,0.018000,-0.016000,1.002000,192.000000,0.000000,72.000000,127.500000,64.000000,15.500000,40.000000,0.000000,0.000000,0.000000,1763130957.935872,0.000000
230.000000,17675.223073,34786.399875,20504.484535,10598.414910,33123.295978,28351.287943,15989.432155,16235.211937,33946.577781,30638.854878,9789.661740,5838.543873,20423.526516,31739.722996,18957.475598,26700.388098,0.018000,-0.016000,1.002000,192.000000,0.000000,0.000000,0.000000,0.000000,0.000000,0.000000,0.000000,0.000000,0.000000,1763130957.935918,0.000000
232.000000,17679.358146,34803.700126,20505.892695,10599.890125,33149.961609,28367.761179,15995.936512,16244.666725,33988.688468,30661.027808,9791.025196,5834.922890,20445.073598,31757.336170,18984.543560,26770.349058,0.018000,-0.016000,1.002000,192.000000,0.000000,0.000000,0.000000,0.000000,0.000000,0.000000,0.000000,0.000000,0.000000,1763130957.935965,0.000000
234.000000,17661.700268,34780.990753,20496.594369,10593.184601,33115.048184,28337.787490,15982.883094,16223.924306,33961.933429,30641.894715,9786.666606,5834.989945,20430.008522,31738.694815,18963.376458,26709.574665,0.018000,-0.016000,1.002000,192.000000,0.000000,0.000000,0.000000,0.000000,0.000000,0.000000,0.000000,0.000000,0.000000,1763130957.935976,0.000000
236.000000,17675.111315,34801.621413,20505.579770,10598.481965,33143.032568,28366.420074,15996.696472,16243.102103,33958.960647,30643.012302,9788.991188,5834.095876,20436.624639,31740.415900,18965.544577,26735.189764,0.018000,-0.016000,1.002000,192.000000,0.000000,0.000000,0.000000,0.000000,0.000000,0.000000,0.000000,0.000000,0.000000,1763130957.935988,0.000000
238.000000,17677.994690,34792.971288,20496.706128,10596.157383,33131.879047,28356.540603,15988.336919,16232.708541,33989.113151,30660.111387,9790.086423,5837.962727,20434.724740,31749.133080,18976.943967,26751.618296,0.018000,-0.012000,1.004000,192.000000,0.000000,72.000000,127.500000,80.000000,15.500000,48.000000,0.000000,0.000000,0.000000,1763130957.936000,0.000000
240.000000,17667.019983,34783.538852,20497.734308,10597.163212,33114.847018,28370.353981,15988.627492,16230.026332,33942.554467,30634.362177,9785.839592,5834.744076,20416.150441,31733.889190,18950.188929,26701.840961,0.018000,-0.012000,1.004000,192.000000,0.000000,0.000000,0.000000,0.000000,0.000000,0.000000,0.000000,0.000000,0.000000,1763130957.936011,0.000000
242.000000,17678.642890,34794.602966,20502.897561,10597.654950,33142.719643,28377.998278,15995.064794,16241.895108,33983.838139,30655.797500,9786.174868,5831.681887,20425.046435,31748.596638,18982.509551,26767.264517,0.018000,-0.012000,1.004000,192.000000,0.000000,0.000000,0.000000,0.000000,0.000000,0.000000,0.000000,0.000000,0.000000,1763130957.936023,0.000000
244.000000,17661.744971,34781.594250,20495.096802,10594.346892,33108.230902,28341.497879,15983.732460,16226.070073,33960.458214,30646.275657,9783.962045,5835.548739,20413.512935,31738.046615,18962.348278,26704.210246,0.018000,-0.012000,1.004000,192.000000,0.000000,0.000000,0.000000,0.000000,0.000000,0.000000,0.000000,0.000000,0.000000,1763130957.936035,0.000000
246.000000,17672.183236,34796.547567,20502.472878,10594.302189,33136.282341,28366.040095,15994.081318,16239.838748,33960.547621,30644.733387,9785.526667,5832.352439,20418.095042,31741.667597,18961.990650,26730.339435,0.018000,-0.012000,1.004000,192.000000,0.000000,0.000000,0.000000,0.000000,0.000000,0.000000,0.000000,0.000000,0.000000,1763130957.936046,0.000000
248.000000,17657.319326,34775.156948,20494.739174,10589.854192,33123.295978,28359.491033,15983.441887,16225.176004,33980.552433,30649.628419,9781.950388,5828.172663,20428.332141,31742.271095,18984.789429,26752.445311,0.018000,-0.012000,1.010000,192.000000,0.000000,72.000000,127.500000,80.000000,15.500000,72.000000,0.000000,0.000000,0.000000,1763130957.936072,0.000000
250.000000,17665.723582,34784.522329,20498.963654,10592.223476,33121.329024,28352.874917,15986.124097,16228.349951,33942.509764,30629.936532,9782.017443,5829.267899,20411.188353,31730.804650,18956.983859,26696.297729,0.018000,-0.012000,1.010000,192.000000,0.000000,0.000000,0.000000,0.000000,0.000000,0.000000,0.000000,0.000000,0.000000,1763130957.936084,0.000000
252.000000,17671.669146,34795.653498,20507.189096,10595.375072,33153.783757,28371.315106,15994.662463,16243.146806,33982.899366,30656.222183,9788.879429,5828.507939,20439.843290,31750.384778,18988.745688,26770.125541,0.018000,-0.012000,1.010000,192.000000,0.000000,0.000000,0.000000,0.000000,0.000000,0.000000,0.000000,0.000000,0.000000,1763130957.936095,0.000000
254.000000,17671.959719,34776.945088,20500.707090,10593.139898,33116.299881,28355.043036,15984.023033,16228.260544,33959.117110,30638.474898,9786.756013,5833.134751,20424.957028,31739.745347,18969.791409,26714.313235,0.018000,-0.012000,1.010000,192.000000,0.000000,0.000000,0.000000,0.000000,0.000000,0.000000,0.000000,0.000000,0.000000,1763130957.936106,0.000000
0.000000,17687.516533,34801.442599,20508.865477,10603.108776,33147.793489,28388.168322,15997.501135,16248.175949,33965.822633,30649.315494,9792.388653,5836.800437,20434.992961,31752.128214,18969.925519,26738.900154,0.018000,-0.012000,1.010000,192.000000,0.000000,0.000000,0.000000,0.000000,0.000000,0.000000,0.000000,0.000000,0.000000,1763130957.936123,0.000000
2.000000,17685.124896,34794.424152,20501.042366,10599.308979,33130.917922,28363.469644,15988.269864,16234.653143,33995.528101,30664.112349,9790.332292,5837.828617,20443.263107,31756.911487,18985.459982,26759.039075,0.021000,-0.010000,1.010000,192.000000,0.000000,96.000000,127.500000,96.000000,15.500000,72.000000,0.000000,0.000000,0.000000,1763130957.936135,0.000000
4.000000,17680.900416,34792.434846,20503.791631,10600.180697,33128.280417,28366.487130,15987.219332,16234.764902,33956.658418,30641.850012,9790.019368,5838.208596,20424.621752,31738.448946,18959.062571,26705.216075,0.021000,-0.010000,1.010000,192.000000,0.000000,0.000000,0.000000,0.000000,0.000000,0.000000,0.000000,0.000000,0.000000,1763130957.936146,0.000000
6.000000,17683.672033,34801.710820,20508.619608,10600.940657,33151.928562,28375.964269,15994.863629,16247.438341,34000.579596,30666.794558,9795.853173,5837.470989,20458.685810,31754.944534,18988.589226,26771.958384,0.021000,-0.010000,1.010000,192.000000,0.000000,0.000000,0.000000,0.000000,0.000000,0.000000,0.000000,0.000000,0.000000,1763130957.936158,0.000000
8.000000,17677.927634,34782.600079,20498.717785,10596.447956,33113.081230,28347.175222,15982.972501,16226.517108,33972.014066,30644.778090,9792.232191,5837.292175,20421.738377,31743.925124,18972.831246,26715.341415,0.021000,-0.010000,1.010000,192.000000,0.000000,0.000000,0.000000,0.000000,0.000000,0.000000,0.000000,0.000000,0.000000,1763130957.936170,0.000000
10.000000,17680.073402,34790.691410,20507.479669,10601.611209,33133.667187,28380.859301,15996.964693,16244.867890,33967.901345,30647.214430,9792.299246,5834.140579,20426.365188,31750.228316,18968.785580,26737.894325,0.021000,-0.010000,1.010000,192.000000,0.000000,0.000000,0.000000,0.000000,0.000000,0.000000,0.000000,0.000000,0.000000,1763130957.936181,0.000000
12.000000,17681.570969,34791.876053,20504.216314,10600.247753,33126.581684,28377.975926,15990.281521,16235.502510,33994.008183,30656.177480,9792.075728,5834.587614,20430.991999,31756.330342,18979.045031,26759.217889,0.020500,-0.010000,1.009000,192.000000,0.000000,80.000000,127.500000,88.000000,15.500000,64.000000,0.000000,0.000000,0.000000,1763130957.936193,0.000000
14.000000,17670.931538,34783.807073,20502.919913,10594.726872,33119.295015,28360.988600,15986.951111,16230.003980,33955.496127,30639.324264,9792.768633,5838.722687,20416.709234,31751.859993,18952.759379,26694.040202,0.020500,-0.010000,1.009000,192.000000,0.000000,0.000000,0.000000,0.000000,0.000000,0.000000,0.000000,0.000000,0.000000,1763130957.936204,0.000000
16.000000,17675.759515,34798.201597,20507.390262,10598.616075,33140.842097,28358.686371,15994.506001,16243.370324,33989.604889,30656.959791,9790.511106,5831.279556,20434.814147,31750.384778,18990.444421,26773.500654,0.020500,-0.010000,1.009000,192.000000,0.000000,0.000000,0.000000,0.000000,0.000000,0.000000,0.000000,0.000000,0.000000,1763130957.936216,0.000000
18.000000,17678.799353,34779.426131,20501.243532,10592.916381,33107.806219,28364.073141,15983.218370,16222.180870,33971.812901,30645.426291,9790.376996,5835.794608,20418.184449,31743.679254,18973.054763,26719.118860,0.020500,-0.010000,1.009000,192.000000,0.000000,0.000000,0.000000,0.000000,0.000000,0.000000,0.000000,0.000000,0.000000,1763130957.936228,0.000000
20.000000,17681.839190,34797.329878,20510.810078,10598.236096,33141.177373,28384.569691,15996.875286,16238.899975,33967.186089,30643.794613,9792.813336,5833.805303,20431.997828,31747.657865,18975.893435,26742.141156,0.020500,-0.010000,1.009000,192.000000,0.000000,0.000000,0.000000,0.000000,0.000000,0.000000,0.000000,0.000000,0.000000,1763130957.936239,0.000000
22.000000,17669.925710,34789.618527,20502.294064,10596.403253,33126.805201,28369.526967,15988.426326,16228.506414,33992.622375,30652.824718,9788.320635,5832.911233,20441.787892,31750.183612,18991.137325,26758.234412,0.016250,-0.010000,1.005500,192.000000,0.000000,48.000000,127.500000,88.000000,15.500000,40.000000,0.000000,0.000000,0.000000,1763130957.936250,0.000000
24.000000,17672.138533,34782.622431,20503.009320,10596.157383,33118.758573,28374.332592,15987.532257,16228.193489,33951.182240,30631.992892,9787.359510,5836.353402,20418.072691,31736.303179,18961.275394,26699.136400,0.016250,-0.010000,1.005500,192.000000,0.000000,0.000000,0.000000,0.000000,0.000000,0.000000,0.000000,0.000000,0.000000,1763130957.936261,0.000000
26.000000,17680.475733,34800.235605,20506.116212,10599.688959,33146.564143,28381.485150,15995.869457,16242.498606,33996.086895,30658.390302,9789.371167,5834.364096,20441.162043,31756.822080,18988.231598,26773.098323,0.016250,-0.010000,1.005500,192.000000,0.000000,0.000000,0.000000,0.000000,0.000000,0.000000,0.000000,0.000000,0.000000,1763130957.936273,0.000000
28.000000,17683.560274,34783.695314,20499.343634,10599.376035,33112.813009,28344.649475,15985.185323,16227.969972,33978.227851,30645.247477,9786.890124,5841.583710,20429.561487,31740.527659,18969.411429,26715.766098,0.016250,-0.010000,1.005500,192.000000,0.000000,0.000000,0.000000,0.000000,0.000000,0.000000,0.000000,0.000000,0.000000,1763130957.936284,0.000000
30.000000,17692.679786,34806.874073,20513.961674,10603.846384,33142.831402,28377.618298,15998.328149,16249.740571,33976.193842,30650.433081,9798.133051,5842.209559,20436.959915,31749.893039,18969.746705,26737.737863,0.016250,-0.010000,1.005500,192.000000,0.000000,0.000000,0.000000,0.000000,0.000000,0.000000,0.000000,0.000000,0.000000,1763130957.936296,0.000000
32.000000,17688.187085,34795.787608,20504.171610,10600.873602,33124.972358,28359.960420,15991.913198,16237.849443,34005.944014,30663.531204,9801.642275,5845.607024,20452.852005,31757.582040,18985.616444,26761.073084,0.015125,-0.011000,1.006750,192.000000,0.000000,56.000000,127.500000,80.000000,15.500000,64.000000,0.000000,0.000000,0.000000,1763130957.936307,0.000000
34.000000,17679.961643,34787.271593,20503.702224,10603.622866,33114.444687,28385.843740,15993.030786,16232.954411,33958.424206,30638.944285,9792.969798,5843.014222,20417.111566,31744.282752,18953.899318,26707.317139,0.015125,-0.011000,1.006750,192.000000,0.000000,0.000000,0.000000,0.000000,0.000000,0.000000,0.000000,0.000000,0.000000,1763130957.936318,0.000000
36.000000,17682.688556,34797.799265,20509.156049,10601.655913,33143.367844,28392.169284,15998.708129,16242.900937,34000.020802,30665.296992,9795.473194,5842.298966,20440.558546,31764.622839,18983.381269,26776.138160,0.015125,-0.011000,1.006750,192.000000,0.000000,0.000000,0.000000,0.000000,0.000000,0.000000,0.000000,0.000000,0.000000,1763130957.936330,0.000000
38.000000,17682.979129,34779.403779,20501.198828,10600.180697,33109.750820,28359.513385,15985.900579,16225.399521,33971.611735,30642.498212,9793.506240,5839.750867,20424.509993,31743.679254,18967.556234,26716.928389,0.015125,-0.011000,1.006750,192.000000,0.000000,0.000000,0.000000,0.000000,0.000000,0.000000,0.000000,0.000000,0.000000,1763130957.936341,0.000000
40.000000,17694.311463,34804.527140,20510.832430,10603.980494,33143.412548,28388.213025,15998.797536,16245.426684,33967.208441,30651.729483,9799.451804,5840.510826,20435.372941,31748.686045,18964.181121,26741.627066,0.015125,-0.011000,1.006750,192.000000,0.000000,0.000000,0.000000,0.000000,0.000000,0.000000,0.000000,0.000000,0.000000,1763130957.936352,0.000000
42.000000,17693.327986,34797.687506,20507.077337,10600.046587,33134.136574,28369.862243,15991.421460,16238.698809,33996.958613,30662.503023,9799.004769,5841.427248,20444.246583,31765.226336,18982.062516,26764.336439,0.016563,-0.013500,1.005375,192.000000,0.000000,72.000000,127.500000,64.000000,15.500000,48.000000,0.000000,0.000000,0.000000,1763130957.936363,0.000000
44.000000,17679.425201,34790.803169,20505.512715,10595.732700,33117.797448,28348.046940,15990.549742,16231.389789,33957.060749,30644.040483,9799.407101,5843.215387,20428.756825,31745.087414,18961.007173,26696.633005,0.016563,-0.013500,1.005375,192.000000,0.000000,0.000000,0.000000,0.000000,0.000000,0.000000,0.000000,0.000000,0.000000,1763130957.936375,0.000000
46.000000,17680.855713,34790.847873,20506.227971,10595.330369,33140.216248,28360.385103,15996.495306,16237.402408,33987.168549,30657.540936,9791.919266,5831.994812,20442.950182,31754.430444,18984.141229,26778.373334,0.016563,-0.013500,1.005375,192.000000,0.000000,0.000000,0.000000,0.000000,0.000000,0.000000,0.000000,0.000000,0.000000,1763130957.936386,0.000000
48.000000,17675.804219,34780.610774,20499.991834,10594.749224,33115.226998,28341.654341,15984.939454,16219.364550,33963.498052,30639.793651,9788.186525,5833.090047,20427.192202,31743.791013,18965.946909,26714.313235,0.016563,-0.013500,1.005375,192.000000,0.000000,0.000000,0.000000,0.000000,0.000000,0.000000,0.000000,0.000000,0.000000,1763130957.936398,0.000000
50.000000,17676.161847,34792.010163,20509.491326,10598.258447,33141.244428,28387.073086,15996.741175,16234.742550,33963.632162,30649.829584,9792.835688,5834.967594,20431.237868,31756.307990,18965.321060,26738.564877,0.016563,-0.013500,1.005375,192.000000,0.000000,0.000000,0.000000,0.000000,0.000000,0.000000,0.000000,0.000000,0.000000,1763130957.936410,0.000000
52.000000,17672.943195,34778.129730,20502.897561,10593.296360,33131.968454,28361.927374,15987.845181,16223.276105,33987.995564,30650.790709,9787.940656,5831.391314,20434.143595,31763.795825,18992.120801,26760.424883,0.016281,-0.013750,1.003687,192.000000,0.000000,64.000000,127.500000,72.000000,15.500000,40.000000,0.000000,0.000000,0.000000,1763130957.936421,0.000000
54.000000,17675.625405,34782.801245,20504.775107,10597.722006,33121.105507,28367.023571,15988.672196,16223.901954,33947.360092,30636.239724,9789.505278,5835.749905,20418.497374,31746.942609,18962.460037,26708.300615,0.016281,-0.013750,1.003687,192.000000,0.000000,0.000000,0.000000,0.000000,0.000000,0.000000,0.000000,0.000000,0.000000,1763130957.936432,0.000000
56.000000,17679.872236,34803.677774,20508.351387,10601.164174,33154.320199,28382.513330,15997.568190,16240.263431,33991.169511,30661.139567,9796.613133,5835.794608,20445.766502,31765.874537,18990.734993,26779.803846,0.016281,-0.013750,1.003687,192.000000,0.000000,0.000000,0.000000,0.000000,0.000000,0.000000,0.000000,0.000000,0.000000,1763130957.936443,0.000000
58.000000,17672.116181,34779.068503,20499.209523,10598.929000,33117.596283,28350.192708,15986.325262,16223.834899,33967.119034,30647.683817,9795.294380,5839.728515,20426.253429,31753.268153,18971.780714,26716.235485,0.016281,-0.013750,1.003687,192.000000,0.000000,0.000000,0.000000,0.000000,0.000000,0.000000,0.000000,0.000000,0.000000,1763130957.936455,0.000000
60.000000,17686.443649,34800.995565,20508.910180,10604.785157,33145.155984,28374.421999,15997.814059,16241.470425,33963.699217,30653.539974,9798.021292,5840.354364,20438.546889,31756.397397,18969.880816,26742.565840,0.016281,-0.013750,1.003687,192.000000,0.000000,0.000000,0.000000,0.000000,0.000000,0.000000,0.000000,0.000000,0.000000,1763130957.936467,0.000000
62.000000,17672.853788,34797.128713,20504.775107,10600.113642,33135.343568,28360.966249,15989.029823,16233.200280,33990.588366,30666.995724,9797.820127,5840.667288,20444.581860,31767.528566,18988.991557,26763.576479,0.015141,-0.015875,1.005844,192.000000,0.000000,56.000000,127.500000,56.000000,15.500000,64.000000,0.000000,0.000000,0.000000,1763130957.936478,0.000000
64.000000,17677.167675,34792.814826,20506.920875,10603.265238,33127.743975,28386.290775,15989.119230,16234.273164,33941.123955,30644.934552,9799.720025,5844.914120,20432.646028,31750.652999,18962.840016,26703.606749,0.015141,-0.015875,1.005844,192.000000,0.000000,0.000000,0.000000,0.000000,0.000000,0.000000,0.000000,0.000000,0.000000,1763130957.936490,0.000000
66.000000,17686.108373,34808.304585,20514.073433,10601.231229,33155.683655,28403.881598,15996.204733,16246.924251,33989.247261,30665.878137,9803.385711,5842.611890,20459.378714,31771.037790,18990.846752,26774.595889,0.015141,-0.015875,1.005844,192.000000,0.000000,0.000000,0.000000,0.000000,0.000000,0.000000,0.000000,0.000000,0.000000,1763130957.936502,0.000000
68.000000,17676.072440,34786.824559,20505.535067,10596.604418,33123.340681,28353.210193,15984.268902,16227.075902,33970.784720,30650.544840,9803.005731,5846.881073,20428.980342,31758.364351,18972.138342,26713.866200,0.015141,-0.015875,1.005844,192.000000,0.000000,0.000000,0.000000,0.000000,0.000000,0.000000,0.000000,0.000000,0.000000,1763130957.936513,0.000000
70.000000,17671.222111,34799.408591,20514.341654,10596.425604,33149.827498,28373.147949,15997.903466,16240.241079,33957.060749,30644.219296,9799.518859,5838.007431,20432.221345,31759.146662,18973.546502,26732.485203,0.015141,-0.015875,1.005844,192.000000,0.000000,0.000000,0.000000,0.000000,0.000000,0.000000,0.000000,0.000000,0.000000,1763130958.416442,0.000000
72.000000,17659.621556,34782.801245,20504.037500,10596.693825,33132.124917,28356.339438,15990.572094,16226.673570,33987.079142,30652.377683,9797.350740,5834.967594,20442.301982,31754.564554,18989.304482,26753.607601,0.015141,-0.015875,1.005844,192.000000,0.000000,0.000000,0.000000,0.000000,0.000000,0.000000,0.000000,0.000000,0.000000,1763130958.416536,0.000000
74.000000,17664.829512,34768.294962,20501.668215,10598.392558,33125.128821,28362.821443,15989.007472,16222.627905,33935.960702,30631.255285,9788.499449,5835.191111,20417.625656,31740.929990,18955.128664,26703.450287,0.012000,-0.018000,1.008000,192.000000,0.000000,48.000000,127.500000,56.000000,15.500000,64.000000,0.000000,0.000000,0.000000,1763130958.416616,0.000000
76.000000,17671.602091,34788.746809,20509.848953,10597.811413,33152.800280,28373.997316,15996.316492,16237.357704,33987.280308,30650.880116,9793.081557,5831.190149,20444.335990,31760.577173,18986.823438,26774.059448,0.012000,-0.018000,1.008000,192.000000,0.000000,0.000000,0.000000,0.000000,0.000000,0.000000,0.000000,0.000000,0.000000,1763130958.416762,0.000000
78.000000,17663.287242,34778.353247,20502.249360,10596.045625,33121.038451,28328.913847,15984.537123,16222.359684,33964.369770,30643.012302,9792.768633,5835.101704,20426.476947,31747.546106,18970.819589,26711.832191,0.012000,-0.018000,1.008000,192.000000,0.000000,0.000000,0.000000,0.000000,0.000000,0.000000,0.000000,0.000000,0.000000,1763130958.416845,0.000000
80.000000,17670.395097,34791.496073,20510.340692,10599.130165,33153.001446,28377.551243,15995.757699,16237.603574,33965.040322,30649.404901,9798.423624,5833.224157,20434.054188,31748.171955,18969.612595,26736.173241,0.012000,-0.018000,1.008000,192.000000,0.000000,0.000000,0.000000,0.000000,0.000000,0.000000,0.000000,0.000000,0.000000,1763130958.416921,0.000000
82.000000,17658.772189,34774.508747,20505.892695,10599.666607,33134.404795,28357.255859,15988.627492,16224.125472,33990.923642,30653.450567,9791.762804,5831.145445,20439.508014,31760.979505,18982.554255,26760.491939,0.012000,-0.018000,1.008000,192.000000,0.000000,0.000000,0.000000,0.000000,0.000000,0.000000,0.000000,0.000000,0.000000,1763130958.416944,0.000000
84.000000,17658.392210,34777.302715,20506.227971,10600.515974,33126.604036,28365.615411,15987.599312,16220.683303,33947.315389,30637.513773,9791.047548,5837.985079,20422.878316,31748.507231,18949.585432,26703.584397,0.014000,-0.018000,1.010000,192.000000,0.000000,56.000000,127.500000,56.000000,15.500000,72.000000,0.000000,0.000000,0.000000,1763130958.416967,0.000000
86.000000,17670.193931,34797.195768,20511.078299,10602.482927,33156.533022,28389.911758,15995.422422,16232.172100,33994.946956,30660.044332,9792.925095,5832.195977,20448.471063,31777.542147,18987.382232,26774.014744,0.014000,-0.018000,1.010000,192.000000,0.000000,0.000000,0.000000,0.000000,0.000000,0.000000,0.000000,0.000000,0.000000,1763130958.416993,0.000000
88.000000,17674.843094,34781.750713,20506.183267,10601.477099,33123.072460,28344.828289,15984.760640,16221.420911,33978.741941,30648.935515,9795.406138,5841.471951,20444.894784,31753.536374,18970.149037,26715.207304,0.014000,-0.018000,1.010000,192.000000,0.000000,0.000000,0.000000,0.000000,0.000000,0.000000,0.000000,0.000000,0.000000,1763130958.417031,0.000000
90.000000,17677.122972,34805.868245,20512.531163,10606.059206,33153.783757,28377.148912,15997.881114,16240.352838,33975.232717,30652.310628,9805.173851,5842.388373,20434.769444,31762.275906,18968.785580,26739.995389,0.014000,-0.018000,1.010000,192.000000,0.000000,0.000000,0.000000,0.000000,0.000000,0.000000,0.000000,0.000000,0.000000,1763130958.417054,0.000000
92.000000,17666.863521,34791.518425,20504.395128,10601.901782,33139.702158,28372.097417,15988.314568,16224.237230,34001.361907,30659.396131,9803.586877,5838.253300,20442.570203,31769.115540,18984.565912,26764.671715,0.014000,-0.018000,1.010000,192.000000,0.000000,0.000000,0.000000,0.000000,0.000000,0.000000,0.000000,0.000000,0.000000,1763130958.417077,0.000000
94.000000,17666.416486,34781.504843,20503.568113,10604.807509,33128.280417,28370.957478,15987.979291,16220.817413,33948.432976,30632.484631,9792.411005,5833.671192,20439.709179,31757.246763,18952.401752,26707.674767,0.014000,-0.016000,1.008000,192.000000,0.000000,56.000000,127.500000,64.000000,15.500000,64.000000,0.000000,0.000000,0.000000,1763130958.417100,0.000000
96.000000,17669.992765,34798.358059,20509.044291,10603.622866,33159.349341,28385.866092,15995.444774,16233.602611,33993.270575,30665.811082,9794.377958,5839.080315,20442.324333,31777.519796,18976.720450,26779.736791,0.014000,-0.016000,1.008000,192.000000,0.000000,0.000000,0.000000,0.000000,0.000000,0.000000,0.000000,0.000000,0.000000,1763130958.417123,0.000000
98.000000,17667.355259,34780.119035,20502.383471,10597.722006,33121.485486,28341.252010,15983.285425,16217.151727,33966.537889,30647.795576,9789.751147,5839.907329,20425.649932,31758.409054,18972.540673,26713.597979,0.014000,-0.016000,1.008000,192.000000,0.000000,0.000000,0.000000,0.000000,0.000000,0.000000,0.000000,0.000000,0.000000,1763130958.417146,0.000000
100.000000,17662.393172,34793.507730,20509.156049,10601.477099,33141.847925,28362.709685,15994.483649,16233.736722,33964.436825,30649.360198,9796.769595,5839.169722,20429.606191,31758.341999,18970.394906,26735.927371,0.014000,-0.016000,1.008000,192.000000,0.000000,0.000000,0.000000,0.000000,0.000000,0.000000,0.000000,0.000000,0.000000,1763130958.417170,0.000000
102.000000,17668.942233,34786.422227,20504.953921,10600.851250,33130.448536,28371.024534,15989.722728,16227.634695,33998.076200,30659.418483,9799.451804,5841.449599,20435.685865,31766.142758,18983.113048,26764.403494,0.014000,-0.016000,1.008000,192.000000,0.000000,0.000000,0.000000,0.000000,0.000000,0.000000,0.000000,0.000000,0.000000,1763130958.417193,0.000000
104.000000,17658.951003,34780.074332,20505.758584,10601.588857,33123.072460,28361.905022,15990.035652,16220.392730,33952.590400,30639.860706,9796.456670,5841.337841,20416.172792,31755.682141,18952.401752,26705.663110,0.014000,-0.016000,1.008000,192.000000,0.000000,56.000000,127.500000,64.000000,15.500000,64.000000,0.000000,0.000000,0.000000,1763130958.417216,0.000000
106.000000,17655.777056,34790.490245,20510.474802,10598.973703,33142.630236,28355.668885,15995.422422,16226.226536,33990.007221,30659.373779,9791.025196,5830.541948,20436.512880,31767.305048,18978.687403,26778.194520,0.014000,-0.016000,1.008000,192.000000,0.000000,0.000000,0.000000,0.000000,0.000000,0.000000,0.000000,0.000000,0.000000,1763130958.417239,0.000000
108.000000,17654.681820,34772.407683,20504.730404,10595.643293,33113.885893,28330.232600,15982.413707,16208.568657,33967.387255,30635.815041,9786.465441,5827.725628,20418.497374,31750.518888,18964.717563,26714.268531,0.014000,-0.016000,1.008000,192.000000,0.000000,0.000000,0.000000,0.000000,0.000000,0.000000,0.000000,0.000000,0.000000,1763130958.417262,0.000000
110.000000,17661.856730,34795.966422,20514.632227,10602.773500,33140.305655,28401.065278,15995.377719,16232.663838,33968.728360,30646.007436,9790.846382,5830.720762,20430.746130,31749.825984,18964.516397,26740.487127,0.014000,-0.016000,1.008000,192.000000,0.000000,0.000000,0.000000,0.000000,0.000000,0.000000,0.000000,0.000000,0.000000,1763130958.417284,0.000000
112.000000,17662.884910,34800.548530,20507.278503,10599.733663,33128.168658,28369.683429,15989.432155,16227.589992,33999.864340,30661.251326,9797.507202,5839.549701,20436.088197,31762.186499,18979.380307,26763.062389,0.014000,-0.016000,1.008000,192.000000,0.000000,0.000000,0.000000,0.000000,0.000000,0.000000,0.000000,0.000000,0.000000,1763130958.417307,0.000000
114.000000,17664.695402,34790.713762,20504.953921,10600.895953,33120.144382,28351.131481,15989.409803,16225.220707,33954.602057,30642.699378,9796.836650,5840.913158,20418.832650,31744.506269,18951.284164,26702.243293,0.010000,-0.016000,1.018000,192.000000,0.000000,40.000000,127.500000,64.000000,15.500000,104.000000,0.000000,0.000000,0.000000,1763130958.417330,0.000000
116.000000,17664.941271,34801.107323,20508.530201,10602.214706,33146.921771,28382.088647,15996.674120,16232.440321,34001.294851,30667.867442,9796.523726,5837.426285,20438.792758,31761.471243,18982.487200,26772.830102,0.010000,-0.016000,1.018000,192.000000,0.000000,0.000000,0.000000,0.000000,0.000000,0.000000,0.000000,0.000000,0.000000,1763130958.417354,0.000000
118.000000,17659.040410,34768.138500,20501.332939,10597.789061,33114.735259,28367.805882,15982.369004,16206.132317,33965.777930,30646.499174,9790.175830,5835.280518,20414.138784,31753.804595,18962.325926,26718.202438,0.010000,-0.016000,1.018000,192.000000,0.000000,0.000000,0.000000,0.000000,0.000000,0.000000,0.000000,0.000000,0.000000,1763130958.417377,0.000000
120.000000,17655.464131,34787.316297,20517.001512,10596.671474,33144.887763,28382.356868,15994.617760,16224.125472,33963.430996,30645.716863,9788.275932,5828.954974,20421.023121,31753.670484,18962.817664,26736.732034,0.010000,-0.016000,1.018000,192.000000,0.000000,0.000000,0.000000,0.000000,0.000000,0.000000,0.000000,0.000000,0.000000,1763130958.417400,0.000000
122.000000,17661.253233,34780.901346,20510.832430,10594.525706,33131.566123,28373.215005,15987.219332,16218.291666,34000.557244,30654.456395,9791.338121,5829.603175,20440.133863,31762.968810,18983.761249,26757.988543,0.010000,-0.016000,1.018000,192.000000,0.000000,0.000000,0.000000,0.000000,0.000000,0.000000,0.000000,0.000000,0.000000,1763130958.417423,0.000000
124.000000,17660.113294,34782.801245,20510.407747,10593.229305,33126.939312,28363.469644,15986.101745,16220.526841,33959.273572,30641.961770,9795.964932,5837.426285,20426.141670,31747.948438,18956.447417,26700.052822,0.022000,-0.010000,1.018000,192.000000,0.000000,88.000000,127.500000,88.000000,15.500000,104.000000,0.000000,0.000000,0.000000,1763130958.417446,0.000000
126.000000,17665.835341,34794.893538,20512.553515,10592.491697,33149.402815,28380.680487,15991.689681,16230.093387,33999.886692,30659.530241,9798.714197,5833.090047,20439.887993,31757.805557,18988.790392,26773.187730,0.022000,-0.010000,1.018000,192.000000,0.000000,0.000000,0.000000,0.000000,0.000000,0.000000,0.000000,0.000000,0.000000,1763130958.417468,0.000000
128.000000,17655.128855,34779.493186,20499.768317,10592.402290,33113.505913,28342.190783,15979.843256,16209.574486,33972.528156,30641.358273,9793.685054,5835.593442,20423.705330,31747.009664,18973.635909,26712.793316,0.022000,-0.010000,1.018000,192.000000,0.000000,0.000000,0.000000,0.000000,0.000000,0.000000,0.000000,0.000000,0.000000,1763130958.417492,0.000000
130.000000,17657.386381,34790.467893,20506.585599,10602.035892,33140.529172,28377.774760,15992.516696,16221.040931,33963.252182,30642.945247,9791.785156,5833.335916,20426.298133,31755.168051,18966.103371,26737.044959,0.022000,-0.010000,1.018000,192.000000,0.000000,0.000000,0.000000,0.000000,0.000000,0.000000,0.000000,0.000000,0.000000,1763130958.417515,0.000000
132.000000,17644.958811,34774.665210,20498.918950,10596.604418,33127.498105,28360.250993,15980.469105,16202.779556,33985.179244,30652.981180,9782.665644,5825.781027,20430.053226,31761.113615,18988.544522,26764.716418,0.022000,-0.010000,1.018000,192.000000,0.000000,0.000000,0.000000,0.000000,0.000000,0.000000,0.000000,0.000000,0.000000,1763130958.417538,0.000000
134.000000,17650.613803,34774.128768,20500.952959,10594.726872,33117.171600,28347.376388,15980.580864,16203.830088,33937.972359,30627.701357,9778.932903,5822.696486,20409.087289,31746.450871,18963.465865,26703.427935,0.020000,-0.012000,1.016000,192.000000,0.000000,80.000000,127.500000,80.000000,15.500000,96.000000,0.000000,0.000000,0.000000,1763130958.417562,0.000000
136.000000,17662.683745,34804.191864,20511.100651,10595.509183,33140.618579,28391.141104,15991.712033,16223.946658,33989.515482,30654.076416,9790.488755,5823.702314,20443.665438,31765.986295,18990.019737,26777.971003,0.020000,-0.012000,1.016000,192.000000,0.000000,0.000000,0.000000,0.000000,0.000000,0.000000,0.000000,0.000000,0.000000,1763130958.417586,0.000000
138.000000,17660.046239,34772.854718,20502.048195,10589.563619,33106.375707,28346.996408,15979.776201,16207.048739,33968.326028,30644.398110,9792.589819,5831.726591,20425.180545,31753.201098,18974.328813,26712.145115,0.020000,-0.012000,1.016000,192.000000,0.000000,0.000000,0.000000,0.000000,0.000000,0.000000,0.000000,0.000000,0.000000,1763130958.417608,0.000000
140.000000,17668.092867,34798.514521,20511.838259,10595.755052,33134.538905,28397.824275,15993.388414,16226.673570,33965.576764,30651.841241,9796.188449,5832.330088,20443.576031,31763.594659,18971.736011,26735.659151,0.020000,-0.012000,1.016000,192.000000,0.000000,0.000000,0.000000,0.000000,0.000000,0.000000,0.000000,0.000000,0.000000,1763130958.417631,0.000000
142.000000,17666.572948,34785.461102,20509.111346,10593.184601,33126.469925,28373.438522,15987.286387,16215.922381,33998.813808,30663.195928,9793.394481,5832.330088,20450.058037,31767.796787,18984.543560,26759.687276,0.020000,-0.012000,1.016000,192.000000,0.000000,0.000000,0.000000,0.000000,0.000000,0.000000,0.000000,0.000000,0.000000,1763130958.417660,0.000000
144.000000,17647.193986,34778.308544,20511.637093,10592.178773,33120.345547,28355.780644,15986.168800,16208.054567,33959.653552,30641.693549,9795.272028,5833.559434,20427.393368,31751.971752,18964.225824,26696.051859,0.017000,-0.014000,1.014000,192.000000,0.000000,56.000000,127.500000,64.000000,15.500000,80.000000,0.000000,0.000000,0.000000,1763130958.417685,0.000000
146.000000,17651.418466,34788.545643,20515.548648,10593.296360,33146.765309,28379.562900,15992.695510,16215.877678,33994.298755,30663.084169,9791.896914,5823.657611,20443.576031,31762.722941,18988.499819,26776.719305,0.017000,-0.014000,1.014000,192.000000,0.000000,0.000000,0.000000,0.000000,0.000000,0.000000,0.000000,0.000000,0.000000,1763130958.417708,0.000000
148.000000,17641.382532,34769.233736,20505.713881,10592.067014,33100.318384,28353.590173,15980.402050,16195.358776,33967.901345,30641.961770,9784.543191,5823.456445,20424.532345,31750.317723,18973.077115,26717.375424,0.017000,-0.014000,1.014000,192.000000,0.000000,0.000000,0.000000,0.000000,0.000000,0.000000,0.000000,0.000000,0.000000,1763130958.417731,0.000000
150.000000,17656.738181,34799.900329,20515.526297,10597.945523,33129.353300,28391.118752,15994.036614,16221.577373,33965.576764,30647.616762,9792.478060,5828.195015,20429.874412,31758.945496,18969.746705,26741.448252,0.017000,-0.014000,1.014000,192.000000,0.000000,0.000000,0.000000,0.000000,0.000000,0.000000,0.000000,0.000000,0.000000,1763130958.417754,0.000000
152.000000,17663.443704,34797.039306,20506.809116,10594.123375,33117.529227,28369.795188,15986.682890,16216.905858,33999.417305,30667.398055,9801.217592,5835.280518,20441.966706,31772.311839,18985.057650,26761.497767,0.017000,-0.014000,1.014000,192.000000,0.000000,0.000000,0.000000,0.000000,0.000000,0.000000,0.000000,0.000000,0.000000,1763130958.417777,0.000000
154.000000,17664.605995,34802.291966,20505.043328,10596.023273,33107.359184,28368.521138,15986.504076,16220.102158,33951.830441,30643.325227,9800.189412,5834.989945,20418.586781,31753.625781,18954.502816,26706.043089,0.016500,-0.015000,1.011000,192.000000,0.000000,64.000000,127.500000,64.000000,15.500000,64.000000,0.000000,0.000000,0.000000,1763130958.417801,0.000000
156.000000,17671.244463,34804.415381,20509.804250,10595.464479,33136.170582,28387.810694,15993.544876,16233.379094,33999.685526,30671.063742,9806.202031,5841.293137,20442.413740,31767.439159,18980.743764,26775.400552,0.016500,-0.015000,1.011000,192.000000,0.000000,0.000000,0.000000,0.000000,0.000000,0.000000,0.000000,0.000000,0.000000,1763130958.417824,0.000000
158.000000,17665.433009,34783.471797,20499.544799,10592.692863,33103.112352,28350.148004,15978.926835,16209.507431,33973.019895,30651.595372,9798.893010,5841.695469,20428.779176,31758.029074,18970.104333,26715.341415,0.016500,-0.015000,1.011000,192.000000,0.000000,0.000000,0.000000,0.000000,0.000000,0.000000,0.000000,0.000000,0.000000,1763130958.417846,0.000000
160.000000,17667.310556,34799.252129,20514.743986,10597.409081,33133.846001,28389.129447,15991.756736,16226.137129,33966.627296,30652.288276,9799.474156,5836.576919,20432.288400,31760.107787,18969.120856,26739.771872,0.016500,-0.015000,1.011000,192.000000,0.000000,0.000000,0.000000,0.000000,0.000000,0.000000,0.000000,0.000000,0.000000,1763130958.417869,0.000000
162.000000,17657.453437,34789.126788,20510.720672,10592.335235,33121.217265,28362.620278,15983.620701,16212.770785,33994.991660,30664.067646,9799.943542,5834.833483,20440.178566,31766.612144,18991.114973,26759.195537,0.016500,-0.015000,1.011000,192.000000,0.000000,0.000000,0.000000,0.000000,0.000000,0.000000,0.000000,0.000000,0.000000,1763130958.417892,0.000000
164.000000,17663.913091,34786.533986,20509.826602,10592.201125,33111.874236,28364.475473,15983.598350,16209.060396,33951.115185,30639.301913,9796.322560,5832.888881,20416.329255,31746.920257,18961.074228,26700.969243,0.016250,-0.015500,1.009500,192.000000,0.000000,64.000000,127.500000,64.000000,15.500000,64.000000,0.000000,0.000000,0.000000,1763130958.417914,0.000000
166.000000,17671.490332,34804.951823,20514.095785,10595.196258,33134.203629,28389.598833,15993.857800,16228.193489,33998.120904,30663.285335,9802.513993,5832.352439,20442.950182,31770.456644,18986.577569,26768.806788,0.016250,-0.015500,1.009500,192.000000,0.000000,0.000000,0.000000,0.000000,0.000000,0.000000,0.000000,0.000000,0.000000,1763130958.417937,0.000000
168.000000,17667.690536,34791.138445,20503.881038,10591.798793,33100.921881,28362.664981,15984.380661,16214.134242,33979.613659,30657.004494,9806.514955,5841.918986,20425.851098,31760.800691,18963.890548,26709.664072,0.016250,-0.015500,1.009500,192.000000,0.000000,0.000000,0.000000,0.000000,0.000000,0.000000,0.000000,0.000000,0.000000,1763130958.417960,0.000000
170.000000,17681.682728,34804.884768,20515.816869,10594.168078,33131.230847,28385.597871,15996.875286,16231.210975,33973.489281,30660.044332,9805.620886,5843.617719,20428.801528,31763.706418,18972.943005,26722.538677,0.016250,-0.015500,1.009500,192.000000,0.000000,0.000000,0.000000,0.000000,0.000000,0.000000,0.000000,0.000000,0.000000,1763130958.417982,0.000000
172.000000,17660.917957,34795.742905,20506.473840,10590.725910,33110.935463,28353.076083,15984.961806,16215.363588,34000.713706,30670.482596,9801.821089,5839.482646,20446.168834,31766.656848,18986.622272,26751.372427,0.016250,-0.015500,1.009500,192.000000,0.000000,0.000000,0.000000,0.000000,0.000000,0.000000,0.000000,0.000000,0.000000,1763130958.418005,0.000000
174.000000,17669.501027,34792.032515,20511.078299,10596.671474,33107.917977,28370.376333,15985.162972,16216.235306,33958.245392,30648.935515,9800.636447,5838.610928,20426.655761,31752.642304,18955.329830,26702.735031,0.016125,-0.015750,1.007750,192.000000,0.000000,64.000000,127.500000,64.000000,15.500000,56.000000,0.000000,0.000000,0.000000,1763130958.418028,0.000000
176.000000,17664.807160,34809.422172,20513.313474,10597.632599,33131.409661,28384.614394,15993.947207,16229.512242,33997.562110,30676.137588,9803.586877,5841.427248,20437.384598,31777.743313,18986.264644,26770.661982,0.016125,-0.015750,1.007750,192.000000,0.000000,0.000000,0.000000,0.000000,0.000000,0.000000,0.000000,0.000000,0.000000,1763130958.418051,0.000000
178.000000,17655.754704,34780.364904,20499.745965,10594.860982,33099.312556,28340.961437,15981.497286,16209.820355,33968.638953,30657.317419,9800.100005,5844.534140,20419.503202,31760.577173,18966.796275,26711.921598,0.016125,-0.015750,1.007750,192.000000,0.000000,0.000000,0.000000,0.000000,0.000000,0.000000,0.000000,0.000000,0.000000,1763130958.418074,0.000000
180.000000,17666.394134,34803.029573,20511.435927,10600.024235,33133.466021,28386.089609,15995.623588,16232.306210,33962.961610,30654.814023,9800.435281,5840.287309,20419.480851,31757.313819,18964.181121,26734.027473,0.016125,-0.015750,1.007750,192.000000,0.000000,0.000000,0.000000,0.000000,0.000000,0.000000,0.000000,0.000000,0.000000,1763130958.418096,0.000000
182.000000,17668.942233,34796.033477,20506.451488,10593.452822,33117.953911,28366.867109,15987.241684,16221.532669,34003.708840,30669.499119,9806.134976,5842.075448,20438.926868,31769.294354,18982.509551,26748.891383,0.016125,-0.015750,1.007750,192.000000,0.000000,0.000000,0.000000,0.000000,0.000000,0.000000,0.000000,0.000000,0.000000,1763130958.418146,0.000000
184.000000,17665.120085,34795.832312,20506.451488,10592.759918,33109.460248,28366.978868,15984.514771,16215.117719,33960.145290,30648.153204,9801.485813,5838.990908,20415.658702,31750.742406,18956.089789,26693.101429,0.012063,-0.015875,1.009875,192.000000,0.000000,32.000000,127.500000,64.000000,15.500000,80.000000,0.000000,0.000000,0.000000,1763130958.418178,0.000000
186.000000,17671.423277,34809.578634,20515.347483,10596.403253,33140.462117,28394.382107,15995.936512,16231.970934,34002.770067,30674.416503,9804.726816,5839.013259,20446.772331,31774.971697,18982.330737,26765.498729,0.012063,-0.015875,1.009875,192.000000,0.000000,0.000000,0.000000,0.000000,0.000000,0.000000,0.000000,0.000000,0.000000,1763130958.418210,0.000000
188.000000,17664.360126,34791.317259,20508.306683,10592.983436,33106.710983,28352.494937,15984.626530,16211.966123,33978.808997,30656.624515,9802.983380,5842.924815,20430.500261,31766.388627,18962.817664,26707.630063,0.012063,-0.015875,1.009875,192.000000,0.000000,0.000000,0.000000,0.000000,0.000000,0.000000,0.000000,0.000000,0.000000,1763130958.418241,0.000000
190.000000,17658.012230,34799.006259,20515.459241,10592.312883,33136.259989,28378.758237,15995.265960,16224.527803,33967.119034,30655.015189,9800.547040,5836.733381,20422.677150,31763.974638,18968.495008,26726.360825,0.012063,-0.015875,1.009875,192.000000,0.000000,0.000000,0.000000,0.000000,0.000000,0.000000,0.000000,0.000000,0.000000,1763130958.896577,0.000000
192.000000,17666.572948,34790.445541,20508.127869,10594.391596,33126.134649,28365.928336,15988.761602,16218.023445,33995.125770,30666.928669,9802.134013,5836.420457,20432.333104,31774.301144,18990.757345,26749.316066,0.012063,-0.015875,1.009875,192.000000,0.000000,0.000000,0.000000,0.000000,0.000000,0.000000,0.000000,0.000000,0.000000,1763130958.896668,0.000000
194.000000,17669.858655,34791.049038,20505.780936,10597.498488,33115.942254,28355.087740,15988.225161,16215.631809,33954.959685,30647.057968,9803.832746,5840.711992,20418.005636,31757.537336,18957.989688,26696.454191,0.012031,-0.013938,1.010938,192.000000,0.000000,48.000000,127.500000,80.000000,15.500000,80.000000,0.000000,0.000000,0.000000,1763130958.896718,0.000000
196.000000,17677.212379,34804.817713,20511.927666,10600.046587,33144.194859,28385.933147,15997.031748,16227.232364,33999.953747,30668.381532,9806.291438,5837.225120,20443.240755,31775.463435,18985.303519,26765.655192,0.012031,-0.013938,1.010938,192.000000,0.000000,0.000000,0.000000,0.000000,0.000000,0.000000,0.000000,0.000000,0.000000,1763130958.896768,0.000000
198.000000,17664.740105,34783.203576,20502.539933,10594.346892,33107.180370,28346.571725,15983.866570,16209.798003,33975.903270,30653.249401,9802.603400,5841.069620,20435.998790,31765.807482,18962.527092,26716.503706,0.012031,-0.013938,1.010938,192.000000,0.000000,0.000000,0.000000,0.000000,0.000000,0.000000,0.000000,0.000000,0.000000,1763130958.896821,0.000000
200.000000,17678.732297,34806.270576,20518.409672,10600.225401,33134.114222,28394.136237,15999.736309,16234.630792,33979.993639,30657.384474,9811.633505,5843.640070,20427.750996,31765.673371,18958.749647,26733.826308,0.012031,-0.013938,1.010938,192.000000,0.000000,0.000000,0.000000,0.000000,0.000000,0.000000,0.000000,0.000000,0.000000,1763130958.896852,0.000000
202.000000,17673.546693,34794.200634,20514.520468,10593.877506,33122.938350,28366.084798,15991.399108,16222.873774,34011.062564,30665.341695,9812.415816,5840.063791,20438.345723,31768.065008,18978.620348,26752.668828,0.012031,-0.013938,1.010938,192.000000,0.000000,0.000000,0.000000,0.000000,0.000000,0.000000,0.000000,0.000000,0.000000,1763130958.896874,0.000000
204.000000,17671.713850,34788.836216,20514.699282,10596.939695,33115.495219,28378.266499,15990.303873,16216.525878,33969.242450,30645.023959,9808.638371,5842.097800,20422.721854,31763.102920,18956.112141,26691.737973,0.012031,-0.013938,1.010938,192.000000,0.000000,0.000000,0.000000,0.000000,0.000000,0.000000,0.000000,0.000000,0.000000,1763130958.896896,0.000000
206.000000,17670.573911,34804.549492,20520.108404,10598.996055,33141.199725,28389.799999,15999.781013,16229.042855,34012.627186,30666.951021,9812.080540,5842.209559,20448.828691,31778.190348,18986.711679,26765.856357,0.016000,-0.014000,1.010000,192.000000,0.000000,64.000000,127.500000,72.000000,15.500000,72.000000,0.000000,0.000000,0.000000,1763130958.896918,0.000000
208.000000,17667.645832,34783.494149,20507.569076,10595.084500,33110.264910,28349.388045,15987.107573,16209.753300,33984.978078,30648.063797,9806.224383,5842.455428,20427.393368,31764.131101,18973.233577,26707.048918,0.016000,-0.014000,1.010000,192.000000,0.000000,0.000000,0.000000,0.000000,0.000000,0.000000,0.000000,0.000000,0.000000,1763130958.896939,0.000000
210.000000,17671.512684,34797.039306,20517.001512,10594.324540,33138.517515,28377.797112,15998.305797,16227.142957,33982.429979,30651.774186,9810.113586,5839.437942,20435.395293,31765.002819,18970.484313,26723.097470,0.016000,-0.014000,1.010000,192.000000,0.000000,0.000000,0.000000,0.000000,0.000000,0.000000,0.000000,0.000000,0.000000,1763130958.896961,0.000000
212.000000,17665.343602,34783.002410,20509.603084,10589.362453,33118.825629,28372.544452,15988.649844,16213.262524,34007.061602,30657.049198,9804.100967,5833.090047,20438.658647,31768.981429,18986.935197,26748.109072,0.016000,-0.014000,1.010000,192.000000,0.000000,0.000000,0.000000,0.000000,0.000000,0.000000,0.000000,0.000000,0.000000,1763130958.896983,0.000000
214.000000,17662.035544,34787.495111,20511.972369,10590.927075,33116.568102,28369.057580,15987.420498,16211.295570,33962.805148,30637.156145,9801.977551,5835.213463,20426.275781,31761.895926,18954.771036,26690.910958,0.016000,-0.014000,1.010000,192.000000,0.000000,0.000000,0.000000,0.000000,0.000000,0.000000,0.000000,0.000000,0.000000,1763130958.897004,0.000000
216.000000,17668.450495,34799.118018,20516.375663,10594.391596,33143.569010,28389.129447,15995.198905,16226.539460,34012.157799,30665.945192,9805.620886,5834.632317,20439.999752,31776.335153,18986.979900,26770.282003,0.022000,-0.016000,1.008000,192.000000,0.000000,88.000000,127.500000,64.000000,15.500000,64.000000,0.000000,0.000000,0.000000,1763130958.897025,0.000000
218.000000,17670.216283,34778.979096,20505.065680,10591.843497,33110.153152,28350.416225,15982.860742,16209.798003,33991.258918,30647.035616,9805.330313,5837.225120,20425.337008,31758.185537,18975.222883,26709.194685,0.022000,-0.016000,1.008000,192.000000,0.000000,0.000000,0.000000,0.000000,0.000000,0.000000,0.000000,0.000000,0.000000,1763130958.897046,0.000000
220.000000,17674.843094,34801.487303,20514.118137,10603.086424,33135.477678,28385.597871,15995.869457,16228.551117,33990.007221,30656.602163,9808.794833,5839.236777,20433.808319,31769.987258,18970.976051,26737.939028,0.022000,-0.016000,1.008000,192.000000,0.000000,0.000000,0.000000,0.000000,0.000000,0.000000,0.000000,0.000000,0.000000,1763130958.897067,0.000000
222.000000,17677.458248,34798.335707,20508.910180,10600.337160,33125.486448,28369.795188,15989.722728,16221.867945,34020.897331,30671.309611,9810.381807,5840.130847,20445.498281,31776.871595,18985.594092,26757.608564,0.022000,-0.016000,1.008000,192.000000,0.000000,0.000000,0.000000,0.000000,0.000000,0.000000,0.000000,0.000000,0.000000,1763130958.897089,0.000000
224.000000,17683.180294,34796.011126,20511.927666,10598.459613,33124.905303,28349.231583,15988.605140,16216.592934,33981.915889,30648.868459,9810.717083,5843.438905,20427.974514,31763.974638,18955.307478,26697.728240,0.022000,-0.016000,1.008000,192.000000,0.000000,0.000000,0.000000,0.000000,0.000000,0.000000,0.000000,0.000000,0.000000,1763130958.897110,0.000000
226.000000,17676.988861,34805.890597,20515.727462,10597.207915,33150.833327,28377.014801,15993.835448,16224.661913,34021.791401,30668.359180,9809.353627,5839.482646,20459.132845,31781.654868,18987.069307,26765.386971,0.028000,-0.012000,1.008000,192.000000,0.000000,112.000000,127.500000,80.000000,15.500000,64.000000,0.000000,0.000000,0.000000,1763130958.897131,0.000000
228.000000,17676.385364,34788.925623,20503.769279,10594.503354,33119.652643,28376.567766,15980.737326,16202.891314,33995.215177,30656.892736,9801.597572,5839.840274,20428.063921,31769.920202,18973.770019,26707.138325,0.028000,-0.012000,1.008000,192.000000,0.000000,0.000000,0.000000,0.000000,0.000000,0.000000,0.000000,0.000000,0.000000,1763130958.897152,0.000000
230.000000,17669.970413,34804.549492,20509.223105,10594.324540,33142.362016,28414.476325,15990.013300,16214.223649,33989.426075,30659.798462,9801.239944,5833.291213,20433.741264,31777.832720,18968.807932,26734.340398,0.028000,-0.012000,1.008000,192.000000,0.000000,0.000000,0.000000,0.000000,0.000000,0.000000,0.000000,0.000000,0.000000,1763130958.897174,0.000000
232.000000,17674.105486,34797.642803,20501.265884,10594.056319,33128.816858,28388.101266,15981.273768,16204.299474,34016.963424,30667.576869,9797.149574,5826.719800,20448.269897,31793.613052,18984.744726,26768.762084,0.028000,-0.012000,1.008000,192.000000,0.000000,0.000000,0.000000,0.000000,0.000000,0.000000,0.000000,0.000000,0.000000,1763130958.897195,0.000000
234.000000,17661.677916,34779.448483,20503.456355,10595.553886,33120.680823,28378.802941,15980.178533,16199.985588,33968.638953,30646.208602,9795.562601,5828.060905,20412.752976,31768.713208,18954.324002,26706.825400,0.028000,-0.012000,1.008000,192.000000,0.000000,0.000000,0.000000,0.000000,0.000000,0.000000,0.000000,0.000000,0.000000,1763130958.897216,0.000000
236.000000,17668.584605,34789.439713,20507.680834,10594.883334,33142.227905,28391.208159,15989.767431,16211.608495,34007.285119,30663.911183,9797.104871,5824.618736,20435.819976,31778.525624,18988.611578,26772.360715,0.020000,-0.010000,1.004000,192.000000,0.000000,80.000000,127.500000,88.000000,15.500000,48.000000,0.000000,0.000000,0.000000,1763130958.897237,0.000000
238.000000,17661.230881,34775.626335,20496.527314,10590.815317,33112.991823,28363.000257,15975.954053,16191.469573,33984.776912,30645.783919,9790.622865,5826.831559,20417.312731,31764.466377,18967.869159,26727.031377,0.020000,-0.010000,1.004000,192.000000,0.000000,0.000000,0.000000,0.000000,0.000000,0.000000,0.000000,0.000000,0.000000,1763130958.897258,0.000000
240.000000,17667.399963,34794.982945,20503.098727,10595.352721,33138.182239,28392.839836,15986.861704,16208.523954,33981.222985,30655.439872,9791.315769,5829.625527,20426.812223,31770.747217,18970.730182,26746.298581,0.020000,-0.010000,1.004000,192.000000,0.000000,0.000000,0.000000,0.000000,0.000000,0.000000,0.000000,0.000000,0.000000,1763130958.897279,0.000000
