Sample Index, EXG Channel 0, EXG Channel 1, EXG Channel 2, EXG Channel 3, EXG Channel 4, EXG Channel 5, EXG Channel 6, EXG Channel 7, EXG Channel 8, EXG Channel 9, EXG Channel 10, EXG Channel 11, EXG Channel 12, EXG Channel 13, EXG Channel 14, EXG Channel 15, Accel Channel 0, Accel Channel 1, Accel Channel 2, Not Used, Digital Channel 0 (D11), Digital Channel 1 (D12), Digital Channel 2 (D13), Digital Channel 3 (D17), Not Used, Digital Channel 4 (D18), Analog Channel 0, Analog Channel 1, Analog Channel 2, Timestamp, Marker Channel, Timestamp (Formatted)
62.000000,23101.310206,26766.638668,14242.129236,20230.429796,26095.572245,-1744.419544,-9891.920971,17765.837045,24383.875654,21325.888792,3884.442614,-6371.275350,21953.592831,19567.253538,181.563220,5155.631024,0.005000,-0.019500,1.013000,192.000000,0.000000,0.000000,0.000000,0.000000,0.000000,0.000000,0.000000,0.000000,0.000000,1764346132.695401,0.000000
64.000000,23094.247054,26757.072122,14223.621991,20217.979874,26103.954149,-1764.960797,-9923.772207,17745.496958,24338.859241,21319.987931,3883.347378,-6373.599931,21946.172052,19565.711268,185.474775,5162.761231,0.005500,-0.021750,1.013500,192.000000,0.000000,24.000000,127.500000,32.000000,15.500000,88.000000,0.000000,0.000000,0.000000,1764346132.703722,0.000000
66.000000,23100.393784,26763.285907,14235.870747,20222.807851,26111.374928,-1756.333024,-9905.399073,17758.639784,24422.499469,21316.791632,3867.969378,-6393.202411,21948.183709,19551.517910,175.930581,5175.859353,0.005500,-0.021750,1.013500,192.000000,0.000000,0.000000,0.000000,0.000000,0.000000,0.000000,0.000000,0.000000,0.000000,1764346132.711437,0.000000
68.000000,23096.214008,26761.162491,14234.350828,20223.165479,26089.805495,-1757.987053,-9902.247477,17758.349211,24324.308255,21321.440795,3887.683617,-6360.345347,21946.619087,19573.824951,190.839194,5143.874007,0.005500,-0.021750,1.013500,192.000000,0.000000,0.000000,0.000000,0.000000,0.000000,0.000000,0.000000,0.000000,0.000000,1764346132.718509,0.000000
70.000000,23098.538589,26757.675619,14226.304200,20216.236438,26112.090184,-1775.600228,-9924.286297,17749.967307,24399.588931,21314.757623,3872.037395,-6392.397749,21944.003933,19549.662715,174.723586,5174.048862,0.005500,-0.021750,1.013500,192.000000,0.000000,0.000000,0.000000,0.000000,0.000000,0.000000,0.000000,0.000000,0.000000,1764346132.727554,0.000000
72.000000,23103.903008,26765.677543,14244.453817,20231.077997,26096.823942,-1742.519646,-9889.842259,17770.352098,24385.484980,21324.190059,3886.521326,-6367.341443,21952.609355,19566.225358,179.886839,5156.681556,0.005500,-0.021750,1.013500,192.000000,0.000000,0.000000,0.000000,0.000000,0.000000,0.000000,0.000000,0.000000,0.000000,1764346132.735576,0.000000
74.000000,23097.823333,26757.563860,14225.678352,20219.052758,26101.540160,-1758.054108,-9921.291163,17747.978002,24342.904907,21320.479670,3889.807032,-6365.508600,21950.552994,19571.098038,181.876145,5163.789411,0.008750,-0.020875,1.011750,192.000000,0.000000,48.000000,127.500000,48.000000,15.500000,72.000000,0.000000,0.000000,0.000000,1764346132.742583,0.000000
76.000000,23103.098345,26766.593965,14238.418846,20224.037197,26112.470163,-1750.856847,-9903.275657,17760.964365,24431.708387,21319.295027,3874.138459,-6390.162574,21952.251727,19557.150550,176.154098,5178.206286,0.008750,-0.020875,1.011750,192.000000,0.000000,0.000000,0.000000,0.000000,0.000000,0.000000,0.000000,0.000000,0.000000,1764346132.750615,0.000000
78.000000,23099.812639,26760.938974,14236.407189,20225.802985,26092.845332,-1747.660547,-9900.213468,17761.165531,24337.048750,21323.161879,3895.260858,-6356.523199,21952.832872,19577.915320,188.246392,5146.980899,0.008750,-0.020875,1.011750,192.000000,0.000000,0.000000,0.000000,0.000000,0.000000,0.000000,0.000000,0.000000,0.000000,1764346132.759640,0.000000
80.000000,23096.437525,26758.368523,14225.276020,20217.130508,26112.268998,-1768.291207,-9923.034599,17748.514443,24408.596684,21313.684739,3873.333797,-6389.067339,21943.668657,19551.674372,177.338741,5179.569743,0.008750,-0.020875,1.011750,192.000000,0.000000,0.000000,0.000000,0.000000,0.000000,0.000000,0.000000,0.000000,0.000000,1764346132.766672,0.000000
82.000000,23099.656177,26765.923413,14243.939727,20231.905011,26098.097992,-1745.827704,-9890.356349,17767.826351,24384.680317,21321.530202,3882.542715,-6368.816658,21952.408189,19567.097076,182.658456,5160.503705,0.008750,-0.020875,1.011750,192.000000,0.000000,0.000000,0.000000,0.000000,0.000000,0.000000,0.000000,0.000000,0.000000,1764346132.774684,0.000000
84.000000,23094.336461,26757.094473,14224.963096,20218.538668,26103.283596,-1767.397138,-9922.006419,17746.212214,24343.106072,21316.881039,3885.537849,-6367.743774,21946.350866,19566.426523,184.848927,5163.945873,0.008375,-0.021437,1.010875,192.000000,0.000000,32.000000,127.500000,40.000000,15.500000,72.000000,0.000000,0.000000,0.000000,1764346132.783704,0.000000
86.000000,23098.829162,26757.250936,14237.591831,20223.858383,26111.933722,-1754.969568,-9905.533183,17755.711705,24425.829879,21315.718748,3869.355186,-6397.158670,21948.898965,19551.473206,175.796470,5179.167411,0.008375,-0.021437,1.010875,192.000000,0.000000,0.000000,0.000000,0.000000,0.000000,0.000000,0.000000,0.000000,0.000000,1764346132.792734,0.000000
88.000000,23097.868037,26757.630915,14235.446064,20226.272372,26092.241835,-1749.158114,-9902.113366,17758.460970,24332.399587,21319.563248,3892.131614,-6360.255940,21950.061256,19575.769553,190.615677,5145.505684,0.008375,-0.021437,1.010875,192.000000,0.000000,0.000000,0.000000,0.000000,0.000000,0.000000,0.000000,0.000000,0.000000,1764346132.798771,0.000000
90.000000,23092.928301,26754.881651,14222.750273,20214.783575,26112.403108,-1769.252332,-9925.940326,17746.078103,24402.829934,21312.276579,3873.311445,-6391.190754,21942.707532,19551.093227,179.395101,5177.334568,0.008375,-0.021437,1.010875,192.000000,0.000000,0.000000,0.000000,0.000000,0.000000,0.000000,0.000000,0.000000,0.000000,1764346132.806799,0.000000
92.000000,23097.108078,26766.392799,14241.950422,20227.971104,26095.192265,-1744.039565,-9891.362177,17767.200502,24382.691012,21321.574905,3883.459137,-6375.097498,21946.596735,19564.325460,185.228906,5158.089716,0.008375,-0.021437,1.010875,192.000000,0.000000,0.000000,0.000000,0.000000,0.000000,0.000000,0.000000,0.000000,0.000000,1764346132.815782,0.000000
94.000000,23094.381165,26755.552203,14222.236183,20215.208258,26099.707317,-1764.379652,-9923.928669,17745.943993,24340.490918,21318.847992,3887.571858,-6371.454164,21945.255631,19566.650041,187.374674,5162.470658,0.009188,-0.019719,1.012437,192.000000,0.000000,40.000000,127.500000,56.000000,15.500000,88.000000,0.000000,0.000000,0.000000,1764346132.822852,0.000000
96.000000,23105.288816,26761.229546,14233.970849,20223.232534,26106.926931,-1752.577931,-9905.689645,17756.695182,24425.293437,21319.518545,3870.115145,-6393.917667,21945.501500,19552.836663,174.924752,5177.669844,0.009188,-0.019719,1.012437,192.000000,0.000000,0.000000,0.000000,0.000000,0.000000,0.000000,0.000000,0.000000,0.000000,1764346132.830854,0.000000
98.000000,23091.654252,26755.574555,14230.193404,20224.059549,26084.306965,-1755.617768,-9903.588582,17753.834159,24329.203287,21321.530202,3889.024721,-6363.116963,21944.115692,19574.406096,188.469909,5149.037260,0.009188,-0.019719,1.012437,192.000000,0.000000,0.000000,0.000000,0.000000,0.000000,0.000000,0.000000,0.000000,0.000000,1764346132.838911,0.000000
100.000000,23091.363679,26757.161529,14219.397511,20216.281142,26105.608178,-1769.252332,-9925.716809,17743.284135,24392.503428,21311.449565,3869.086965,-6394.588219,21937.477224,19551.339096,175.394139,5179.256818,0.009188,-0.019719,1.012437,192.000000,0.000000,0.000000,0.000000,0.000000,0.000000,0.000000,0.000000,0.000000,0.000000,1764346132.847928,0.000000
102.000000,23088.815580,26762.503596,14233.523814,20231.703845,26084.217558,-1740.664451,-9892.546820,17760.696144,24372.342154,21321.664312,3875.524268,-6378.852591,21939.287715,19567.164131,177.070520,5157.441516,0.009188,-0.019719,1.012437,192.000000,0.000000,0.000000,0.000000,0.000000,0.000000,0.000000,0.000000,0.000000,0.000000,1764346132.854952,0.000000
104.000000,23084.099362,26755.976886,14214.837756,20218.940999,26090.967785,-1766.436013,-9924.755684,17742.077141,24326.275209,21317.596295,3877.468869,-6373.845801,21932.537488,19567.901739,180.512688,5160.146077,0.007594,-0.020859,1.014219,192.000000,0.000000,24.000000,127.500000,40.000000,15.500000,96.000000,0.000000,0.000000,0.000000,1764346132.862969,0.000000
106.000000,23092.838894,26763.174148,14228.807596,20225.579467,26095.572245,-1757.361204,-9906.874288,17754.661173,24409.870733,21316.143431,3863.700195,-6392.464804,21931.866936,19554.066009,171.639046,5178.429804,0.007594,-0.020859,1.014219,192.000000,0.000000,0.000000,0.000000,0.000000,0.000000,0.000000,0.000000,0.000000,0.000000,1764346132.874508,0.000000
108.000000,23091.363679,26760.871918,14228.517023,20226.831165,26078.920195,-1755.796582,-9902.739215,17756.046981,24319.524982,21319.652655,3886.476622,-6360.121830,21939.265363,19574.562558,184.647761,5146.958547,0.007594,-0.020859,1.014219,192.000000,0.000000,0.000000,0.000000,0.000000,0.000000,0.000000,0.000000,0.000000,0.000000,1764346132.879022,0.000000
110.000000,23090.044926,26759.173186,14218.637552,20217.979874,26103.842390,-1771.107527,-9924.666277,17744.602888,24388.010727,21312.880077,3869.556352,-6392.621266,21937.767796,19550.869709,173.404833,5175.926408,0.007594,-0.020859,1.014219,192.000000,0.000000,0.000000,0.000000,0.000000,0.000000,0.000000,0.000000,0.000000,0.000000,1764346132.887075,0.000000
112.000000,23100.438488,26762.794168,14237.681238,20232.061473,26087.838541,-1748.465210,-9890.646921,17764.138313,24375.851378,21320.546725,3880.441651,-6375.008091,21945.970886,19567.611166,177.450499,5154.021699,0.007594,-0.020859,1.014219,192.000000,0.000000,0.000000,0.000000,0.000000,0.000000,0.000000,0.000000,0.000000,0.000000,1764346132.895100,0.000000
114.000000,23092.369508,26754.389912,14218.771663,20219.946828,26095.505189,-1772.068652,-9922.744027,17740.400760,24334.970037,21313.930609,3883.727358,-6372.728213,21942.707532,19567.119428,183.530174,5158.894379,0.007594,-0.020859,1.014219,192.000000,0.000000,0.000000,0.000000,0.000000,0.000000,0.000000,0.000000,0.000000,0.000000,1764346132.904145,0.000000
116.000000,23095.655214,26762.525947,14229.567555,20225.087729,26103.305948,-1751.840323,-9906.941343,17749.788493,24415.615131,21312.745966,3863.990767,-6397.449243,21942.953401,19553.641326,173.181316,5177.379272,0.004000,-0.022000,1.012000,192.000000,0.000000,16.000000,127.500000,40.000000,15.500000,80.000000,0.000000,0.000000,0.000000,1764346132.911124,0.000000
118.000000,23091.542493,26751.417130,14227.310029,20226.786462,26086.944471,-1743.681937,-9904.303837,17748.223871,24319.815555,21316.858687,3885.135518,-6366.536780,21945.926183,19574.763724,187.732302,5151.697117,0.004000,-0.022000,1.012000,192.000000,0.000000,0.000000,0.000000,0.000000,0.000000,0.000000,0.000000,0.000000,0.000000,1764346132.919154,0.000000
120.000000,23093.509447,26752.199441,14218.682256,20219.052758,26108.826829,-1761.764498,-9926.655582,17738.858490,24386.982547,21310.913123,3867.187067,-6394.364702,21938.170128,19553.238994,178.433976,5183.257780,0.004000,-0.022000,1.012000,192.000000,0.000000,0.000000,0.000000,0.000000,0.000000,0.000000,0.000000,0.000000,0.000000,1764346132.927148,0.000000
122.000000,23096.661043,26757.630915,14235.200195,20232.977895,26087.637375,-1742.832570,-9894.178497,17756.806941,24373.146817,21319.786766,3879.592285,-6376.773879,21943.132215,19568.885215,181.294999,5160.548408,0.004000,-0.022000,1.012000,192.000000,0.000000,0.000000,0.000000,0.000000,0.000000,0.000000,0.000000,0.000000,0.000000,1764346132.935237,0.000000
124.000000,23089.195560,26752.512366,14216.268267,20223.299590,26094.029974,-1762.725623,-9924.152186,17737.070350,24332.198421,21314.377643,3881.469832,-6373.354062,21936.493747,19568.460532,182.636104,5164.437612,0.004000,-0.022000,1.012000,192.000000,0.000000,0.000000,0.000000,0.000000,0.000000,0.000000,0.000000,0.000000,0.000000,1764346132.943265,0.000000
126.000000,23094.112944,26757.943840,14228.338209,20228.932229,26102.635396,-1753.807277,-9907.164861,17748.000353,24415.056338,21313.818850,3864.996596,-6393.694150,21938.795976,19554.110712,174.343607,5182.654283,0.004000,-0.018000,1.010000,192.000000,0.000000,16.000000,127.500000,56.000000,15.500000,72.000000,0.000000,0.000000,0.000000,1764346132.952291,0.000000
128.000000,23094.582331,26758.368523,14227.935878,20233.693151,26087.637375,-1748.420507,-9903.029788,17749.810845,24325.358787,21322.088995,3888.823556,-6360.568864,21944.339209,19578.563521,189.833366,5157.262702,0.004000,-0.018000,1.010000,192.000000,0.000000,0.000000,0.000000,0.000000,0.000000,0.000000,0.000000,0.000000,0.000000,1764346132.959304,0.000000
130.000000,23094.045889,26753.674657,14216.938820,20223.947790,26108.469201,-1757.629425,-9926.588527,17737.629144,24394.068050,21315.718748,3867.611750,-6392.174231,21943.042808,19559.184558,176.131746,5186.677597,0.004000,-0.018000,1.010000,192.000000,0.000000,0.000000,0.000000,0.000000,0.000000,0.000000,0.000000,0.000000,0.000000,1764346132.967417,0.000000
132.000000,23094.179999,26757.608564,14233.456759,20234.989552,26087.793838,-1736.328213,-9893.977331,17755.667002,24373.280927,21317.328074,3877.379462,-6376.080975,21948.809558,19571.813294,182.501993,5164.527019,0.004000,-0.018000,1.010000,192.000000,0.000000,0.000000,0.000000,0.000000,0.000000,0.000000,0.000000,0.000000,0.000000,1764346132.974381,0.000000
134.000000,23088.815580,26750.590116,14214.860107,20221.958485,26098.500323,-1757.025928,-9924.554518,17736.377446,24329.002122,21309.683777,3879.368768,-6377.109155,21939.846508,19568.147608,184.111319,5167.902132,0.004000,-0.018000,1.010000,192.000000,0.000000,0.000000,0.000000,0.000000,0.000000,0.000000,0.000000,0.000000,0.000000,1764346132.982396,0.000000
136.000000,23088.145028,26746.008008,14225.678352,20224.238363,26103.037727,-1754.164905,-9909.601201,17742.323010,24411.658873,21310.287274,3861.263855,-6402.187813,21942.752235,19550.713247,174.678883,5182.944856,0.006000,-0.012000,1.008000,192.000000,0.000000,24.000000,127.500000,80.000000,15.500000,64.000000,0.000000,0.000000,0.000000,1764346132.991396,0.000000
138.000000,23085.172246,26742.878764,14224.873689,20224.886563,26084.686945,-1747.749954,-9907.634247,17740.065484,24313.110031,21305.749870,3877.714739,-6375.455126,21939.175956,19571.321556,189.296924,5155.206341,0.006000,-0.012000,1.008000,192.000000,0.000000,0.000000,0.000000,0.000000,0.000000,0.000000,0.000000,0.000000,0.000000,1764346132.999500,0.000000
140.000000,23081.841836,26739.950685,14214.748349,20214.001264,26110.100878,-1763.150306,-9930.410675,17727.146176,24380.299375,21297.189152,3858.760459,-6409.429778,21934.504442,19547.360485,176.534078,5182.698987,0.006000,-0.012000,1.008000,192.000000,0.000000,0.000000,0.000000,0.000000,0.000000,0.000000,0.000000,0.000000,0.000000,1764346133.006437,0.000000
142.000000,23089.955519,26750.433654,14233.724980,20226.764110,26094.946396,-1744.598358,-9895.832526,17749.363810,24367.491826,21303.917027,3868.706986,-6390.721368,21940.829985,19560.503311,184.536002,5164.236446,0.006000,-0.012000,1.008000,192.000000,0.000000,0.000000,0.000000,0.000000,0.000000,0.000000,0.000000,0.000000,0.000000,1764346133.016520,0.000000
144.000000,23093.978833,26749.628991,14219.375160,20215.878810,26103.976501,-1753.986091,-9925.582698,17734.164624,24328.823308,21302.955902,3875.792489,-6382.138298,21941.299372,19559.855111,188.201688,5166.561027,0.006000,-0.012000,1.008000,192.000000,0.000000,0.000000,0.000000,0.000000,0.000000,0.000000,0.000000,0.000000,0.000000,1764346133.023528,0.000000
146.000000,23091.430735,26747.416168,14232.942669,20220.237401,26115.174724,-1745.179504,-9909.131814,17744.982868,24417.783251,21304.475821,3864.326044,-6405.719388,21947.088474,19549.841529,179.328046,5184.129498,0.006000,-0.014000,1.006000,192.000000,0.000000,24.000000,127.500000,72.000000,15.500000,56.000000,0.000000,0.000000,0.000000,1764346133.030567,0.000000
148.000000,23090.022575,26751.573593,14228.360561,20223.344293,26091.303061,-1743.614881,-9906.516660,17744.066446,24324.621180,21310.779013,3886.029588,-6373.532876,21948.943668,19572.036811,192.381465,5151.585359,0.006000,-0.014000,1.006000,192.000000,0.000000,0.000000,0.000000,0.000000,0.000000,0.000000,0.000000,0.000000,0.000000,1764346133.038583,0.000000
150.000000,23092.458915,26741.895287,14215.843584,20213.867153,26113.096012,-1762.055071,-9930.120102,17730.186013,24389.731811,21303.246475,3864.706023,-6405.339409,21941.969924,19550.445026,176.869354,5185.962342,0.006000,-0.014000,1.006000,192.000000,0.000000,0.000000,0.000000,0.000000,0.000000,0.000000,0.000000,0.000000,0.000000,1764346133.047579,0.000000
152.000000,23090.536665,26748.779625,14234.373180,20228.082863,26099.819076,-1737.065820,-9895.541954,17749.475568,24375.091419,21310.846068,3874.183163,-6388.620304,21946.641439,19566.895910,180.847964,5161.531885,0.006000,-0.014000,1.006000,192.000000,0.000000,0.000000,0.000000,0.000000,0.000000,0.000000,0.000000,0.000000,0.000000,1764346133.055595,0.000000
154.000000,23088.212083,26745.851546,14215.441253,20218.896296,26105.652881,-1762.032719,-9925.470939,17730.230716,24336.042921,21311.315454,3877.133593,-6384.485231,21943.311029,19568.013497,184.692464,5164.258798,0.006000,-0.014000,1.006000,192.000000,0.000000,0.000000,0.000000,0.000000,0.000000,0.000000,0.000000,0.000000,0.000000,1764346133.062651,0.000000
156.000000,23091.609549,26751.461834,14226.840642,20226.987627,26110.816134,-1747.213512,-9908.394207,17743.217080,24417.380919,21314.422347,3862.113221,-6403.059531,21947.311991,19557.262308,173.762461,5183.235429,0.004000,-0.018000,1.006000,192.000000,0.000000,16.000000,127.500000,56.000000,15.500000,56.000000,0.000000,0.000000,0.000000,1764346133.070665,0.000000
158.000000,23093.732964,26758.346171,14229.746369,20230.899183,26091.973614,-1739.792733,-9902.560401,17749.229699,24322.944799,21317.171611,3887.281285,-6368.056699,21948.250764,19577.758858,187.397026,5155.027527,0.004000,-0.018000,1.006000,192.000000,0.000000,0.000000,0.000000,0.000000,0.000000,0.000000,0.000000,0.000000,0.000000,1764346133.079716,0.000000
160.000000,23096.996319,26754.233450,14221.051541,20224.014845,26114.928855,-1754.075498,-9924.778035,17741.741865,24395.163285,21314.824678,3872.752651,-6395.236420,21945.993238,19559.095151,180.311523,5185.872935,0.004000,-0.018000,1.006000,192.000000,0.000000,0.000000,0.000000,0.000000,0.000000,0.000000,0.000000,0.000000,0.000000,1764346133.086802,0.000000
162.000000,23108.440412,26763.889404,14240.005820,20236.353008,26098.723841,-1727.298108,-9891.742157,17762.774856,24380.098209,21321.910181,3884.040282,-6369.598969,21950.195366,19574.227282,187.933467,5167.253931,0.004000,-0.018000,1.006000,192.000000,0.000000,0.000000,0.000000,0.000000,0.000000,0.000000,0.000000,0.000000,0.000000,1764346133.096818,0.000000
164.000000,23104.685319,26759.195537,14222.638514,20223.947790,26107.552780,-1747.794658,-9921.514681,17746.212214,24342.882555,21320.613780,3891.148137,-6366.045042,21950.463587,19573.601433,191.979133,5164.705833,0.004000,-0.018000,1.006000,192.000000,0.000000,0.000000,0.000000,0.000000,0.000000,0.000000,0.000000,0.000000,0.000000,1764346133.104800,0.000000
166.000000,23105.221761,26761.788340,14232.294468,20225.378302,26112.514867,-1741.916149,-9907.164861,17754.951746,24425.494602,21316.478707,3873.445555,-6392.531859,21947.691971,19556.949384,179.015121,5180.307350,0.008000,-0.018000,1.010000,192.000000,0.000000,32.000000,127.500000,56.000000,15.500000,72.000000,0.000000,0.000000,0.000000,1764346133.111827,0.000000
168.000000,23101.936054,26760.760160,14230.238107,20227.591124,26095.281672,-1737.535207,-9904.549707,17754.817635,24329.404453,21321.127870,3893.606829,-6361.105306,21946.887308,19575.903663,193.342590,5151.942986,0.008000,-0.018000,1.010000,192.000000,0.000000,0.000000,0.000000,0.000000,0.000000,0.000000,0.000000,0.000000,0.000000,1764346133.118865,0.000000
170.000000,23101.109040,26758.569689,14218.548145,20218.516316,26119.175687,-1760.110469,-9929.360143,17741.116016,24396.392631,21315.048196,3871.992692,-6392.956542,21943.825119,19557.128198,182.099662,5183.503650,0.008000,-0.018000,1.010000,192.000000,0.000000,0.000000,0.000000,0.000000,0.000000,0.000000,0.000000,0.000000,0.000000,1764346133.126840,0.000000
172.000000,23109.178020,26761.408360,14236.653058,20232.061473,26102.590692,-1729.577986,-9895.609009,17759.355040,24379.740581,21318.646827,3882.587419,-6375.768051,21950.597698,19569.823989,186.570011,5162.828286,0.008000,-0.018000,1.010000,192.000000,0.000000,0.000000,0.000000,0.000000,0.000000,0.000000,0.000000,0.000000,0.000000,1764346133.136888,0.000000
174.000000,23097.577464,26753.294677,14216.469433,20218.516316,26107.753945,-1759.082289,-9927.326134,17736.846833,24333.673636,21312.298931,3882.743881,-6375.388071,21943.467491,19565.644212,190.369808,5161.263664,0.008000,-0.018000,1.010000,192.000000,0.000000,0.000000,0.000000,0.000000,0.000000,0.000000,0.000000,0.000000,0.000000,1764346133.143929,0.000000
176.000000,23102.651310,26756.558032,14227.846471,20225.534764,26118.169858,-1743.100791,-9910.987009,17748.000353,24417.000939,21312.410690,3864.281340,-6400.176156,21943.579250,19552.166111,179.260991,5179.368577,0.008000,-0.018000,1.014000,192.000000,0.000000,32.000000,127.500000,56.000000,15.500000,88.000000,0.000000,0.000000,0.000000,1764346133.150932,0.000000
178.000000,23102.941883,26759.508462,14229.522852,20227.322904,26101.808381,-1739.815085,-9905.756701,17751.241356,24324.174145,21320.926705,3888.130651,-6365.799173,21951.044732,19578.272948,194.907212,5151.607710,0.008000,-0.018000,1.014000,192.000000,0.000000,0.000000,0.000000,0.000000,0.000000,0.000000,0.000000,0.000000,0.000000,1764346133.158967,0.000000
180.000000,23106.629921,26757.586212,14219.352808,20218.538668,26123.869553,-1758.165867,-9928.510777,17738.702028,24395.163285,21315.651693,3871.947989,-6393.627094,21950.016552,19557.441122,184.491299,5179.100356,0.008000,-0.018000,1.014000,192.000000,0.000000,0.000000,0.000000,0.000000,0.000000,0.000000,0.000000,0.000000,0.000000,1764346133.167967,0.000000
182.000000,23108.865095,26761.207194,14236.049561,20230.340389,26106.144620,-1739.546864,-9896.167802,17755.242319,24380.433486,21318.870344,3881.291018,-6375.052795,21955.068046,19570.203968,187.307619,5160.906036,0.008000,-0.018000,1.014000,192.000000,0.000000,0.000000,0.000000,0.000000,0.000000,0.000000,0.000000,0.000000,0.000000,1764346133.175005,0.000000
184.000000,23098.963272,26756.289811,14216.558840,20217.130508,26108.491553,-1755.416603,-9927.281431,17735.908060,24334.612409,21311.851896,3882.542715,-6378.114984,21945.769721,19564.571329,188.335799,5161.911865,0.008000,-0.018000,1.014000,192.000000,0.000000,0.000000,0.000000,0.000000,0.000000,0.000000,0.000000,0.000000,0.000000,1764346133.183058,0.000000
186.000000,23099.790287,26755.440444,14227.824119,20222.338465,26113.721861,-1747.258216,-9910.897602,17744.982868,24416.956236,21310.309626,3865.711852,-6400.600839,21946.015590,19550.959116,174.298903,5177.960417,0.008000,-0.018000,1.016000,192.000000,0.000000,32.000000,127.500000,56.000000,15.500000,104.000000,0.000000,0.000000,0.000000,1764346133.192073,0.000000
188.000000,23099.298549,26750.523061,14224.739578,20226.071206,26094.700527,-1740.530341,-9907.567192,17743.865281,24319.994369,21314.735271,3884.241448,-6368.436678,21945.412093,19572.997936,187.441729,5145.997422,0.008000,-0.018000,1.016000,192.000000,0.000000,0.000000,0.000000,0.000000,0.000000,0.000000,0.000000,0.000000,0.000000,1764346133.199116,0.000000
190.000000,23102.181924,26749.718398,14214.390721,20218.069281,26116.806402,-1758.232922,-9929.404846,17734.499900,24386.647271,21307.426251,3866.136535,-6396.197545,21941.433482,19551.875538,172.443708,5181.760214,0.008000,-0.018000,1.016000,192.000000,0.000000,0.000000,0.000000,0.000000,0.000000,0.000000,0.000000,0.000000,0.000000,1764346133.207147,0.000000
192.000000,23109.043909,26759.150834,14232.652096,20231.860308,26102.523637,-1735.165922,-9895.296084,17755.152912,24375.560805,21314.064719,3879.726396,-6378.271446,21946.596735,19566.426523,177.025816,5159.430821,0.008000,-0.018000,1.016000,192.000000,0.000000,0.000000,0.000000,0.000000,0.000000,0.000000,0.000000,0.000000,0.000000,1764346133.215176,0.000000
194.000000,23100.371432,26756.334514,14213.340189,20220.773842,26108.111573,-1754.723698,-9926.007381,17735.304562,24336.512308,21312.477745,3882.989750,-6375.611588,21943.735712,19565.666564,181.093834,5162.850638,0.008000,-0.018000,1.016000,192.000000,0.000000,0.000000,0.000000,0.000000,0.000000,0.000000,0.000000,0.000000,0.000000,1764346133.224185,0.000000
196.000000,23103.299511,26757.608564,14226.706532,20226.182965,26122.394338,-1742.251425,-9910.316457,17746.525138,24417.604437,21312.991835,3866.225942,-6397.583353,21945.948535,19551.763779,173.136613,5178.318045,0.006000,-0.019000,1.015000,192.000000,0.000000,16.000000,127.500000,48.000000,15.500000,88.000000,0.000000,0.000000,0.000000,1764346133.230200,0.000000
198.000000,23098.851514,26754.456968,14224.717227,20227.814642,26099.528503,-1743.011384,-9907.388378,17745.832234,24324.017683,21319.183268,3888.532983,-6364.122792,21947.960192,19574.853131,189.028703,5152.434725,0.006000,-0.019000,1.015000,192.000000,0.000000,0.000000,0.000000,0.000000,0.000000,0.000000,0.000000,0.000000,0.000000,1764346133.239278,0.000000
200.000000,23094.112944,26746.522098,14211.932029,20217.488136,26117.365195,-1760.266931,-9929.807178,17732.175318,24385.239111,21302.687681,3866.516515,-6396.599876,21937.365465,19545.818215,174.768290,5183.436594,0.006000,-0.019000,1.015000,192.000000,0.000000,0.000000,0.000000,0.000000,0.000000,0.000000,0.000000,0.000000,0.000000,1764346133.247270,0.000000
202.000000,23098.538589,26752.512366,14230.752198,20230.988590,26097.270977,-1740.463286,-9894.781994,17749.542624,24367.916509,21308.923818,3873.534962,-6384.284065,21940.405302,19558.849282,180.088005,5159.631987,0.006000,-0.019000,1.015000,192.000000,0.000000,0.000000,0.000000,0.000000,0.000000,0.000000,0.000000,0.000000,0.000000,1764346133.255292,0.000000
204.000000,23090.871941,26744.398683,14212.379064,20220.505621,26101.920140,-1761.675091,-9925.403884,17730.208365,24324.978808,21304.475821,3876.597151,-6380.439565,21931.017569,19559.251614,181.362055,5162.470658,0.006000,-0.019000,1.015000,192.000000,0.000000,0.000000,0.000000,0.000000,0.000000,0.000000,0.000000,0.000000,0.000000,1764346133.262467,0.000000
206.000000,23097.421002,26752.490014,14226.483014,20227.658180,26107.128096,-1750.610977,-9907.790709,17745.273441,24413.983454,21306.398071,3865.153058,-6401.897240,21935.554974,19548.567480,171.415528,5177.736900,0.005000,-0.020500,1.016500,192.000000,0.000000,16.000000,127.500000,40.000000,15.500000,104.000000,0.000000,0.000000,0.000000,1764346133.271393,0.000000
208.000000,23092.347156,26748.600811,14221.699741,20230.608610,26083.189378,-1750.096887,-9903.677988,17746.972173,24314.875819,21311.315454,3885.806070,-6366.894408,21932.604543,19570.472189,184.178374,5150.020736,0.005000,-0.020500,1.016500,192.000000,0.000000,0.000000,0.000000,0.000000,0.000000,0.000000,0.000000,0.000000,0.000000,1764346133.279390,0.000000
210.000000,23087.318014,26744.018703,14209.830965,20219.097462,26104.892922,-1773.007425,-9927.549652,17733.158795,24375.024363,21302.777088,3863.566084,-6396.935153,21928.000084,19545.594698,167.995711,5179.212115,0.005000,-0.020500,1.016500,192.000000,0.000000,0.000000,0.000000,0.000000,0.000000,0.000000,0.000000,0.000000,0.000000,1764346133.286462,0.000000
212.000000,23088.167380,26746.008008,14228.762892,20230.385093,26086.251567,-1745.023041,-9895.966637,17750.056714,24360.138102,21307.023919,3871.165677,-6384.954618,21928.827098,19555.451817,177.763424,5157.687385,0.005000,-0.020500,1.016500,192.000000,0.000000,0.000000,0.000000,0.000000,0.000000,0.000000,0.000000,0.000000,0.000000,1764346133.295433,0.000000
214.000000,23085.105191,26739.458947,14210.948552,20219.879773,26094.186436,-1766.793640,-9928.130797,17730.409530,24317.446270,21304.319358,3874.876067,-6382.317112,21922.881534,19556.189425,182.569049,5158.760269,0.005000,-0.020500,1.016500,192.000000,0.000000,0.000000,0.000000,0.000000,0.000000,0.000000,0.000000,0.000000,0.000000,1764346133.303491,0.000000
216.000000,23089.933168,26744.264572,14222.996142,20225.847688,26100.132000,-1758.992882,-9911.277582,17742.702990,24402.137029,21304.498172,3857.709927,-6406.568755,21926.122537,19542.934840,171.773156,5175.769946,0.005500,-0.018250,1.015250,192.000000,0.000000,24.000000,127.500000,64.000000,15.500000,88.000000,0.000000,0.000000,0.000000,1764346133.310509,0.000000
218.000000,23089.687298,26748.444348,14223.711398,20229.781595,26083.636413,-1751.236826,-9905.957866,17746.122807,24309.466697,21312.701263,3883.325026,-6367.497905,21928.447119,19566.203006,186.346494,5145.215111,0.005500,-0.018250,1.015250,192.000000,0.000000,0.000000,0.000000,0.000000,0.000000,0.000000,0.000000,0.000000,0.000000,1764346133.318611,0.000000
220.000000,23088.904987,26739.637761,14210.367407,20221.131470,26106.703413,-1763.731451,-9931.461207,17729.806033,24377.013669,21306.286312,3863.119049,-6398.455071,21927.307180,19544.097131,173.069557,5177.491030,0.005500,-0.018250,1.015250,192.000000,0.000000,0.000000,0.000000,0.000000,0.000000,0.000000,0.000000,0.000000,0.000000,1764346133.327561,0.000000
222.000000,23090.514313,26748.779625,14228.941706,20236.084787,26091.146599,-1742.609053,-9898.157108,17749.363810,24362.350924,21310.153164,3870.875105,-6384.664045,21932.537488,19557.664640,178.612790,5160.771926,0.005500,-0.018250,1.015250,192.000000,0.000000,0.000000,0.000000,0.000000,0.000000,0.000000,0.000000,0.000000,0.000000,1764346133.335585,0.000000
224.000000,23084.501694,26747.751444,14209.629799,20225.087729,26097.338032,-1754.410774,-9928.533128,17731.147138,24318.094470,21308.767356,3875.948951,-6381.020711,21927.106014,19562.246747,182.457290,5164.750536,0.005500,-0.018250,1.015250,192.000000,0.000000,0.000000,0.000000,0.000000,0.000000,0.000000,0.000000,0.000000,0.000000,1764346133.342650,0.000000
226.000000,23099.142086,26754.144043,14228.293506,20231.100348,26110.994948,-1744.553655,-9908.885945,17750.056714,24406.607378,21311.941303,3863.767250,-6397.113967,21932.470433,19549.148625,174.321255,5179.100356,0.005750,-0.018125,1.016625,192.000000,0.000000,24.000000,127.500000,56.000000,15.500000,104.000000,0.000000,0.000000,0.000000,1764346133.350719,0.000000
228.000000,23096.281063,26753.808767,14225.030151,20232.106177,26087.346803,-1744.508951,-9906.561364,17749.140292,24316.105165,21319.563248,3887.728320,-6363.027556,21939.824157,19572.841474,189.386331,5148.567873,0.005750,-0.018125,1.016625,192.000000,0.000000,0.000000,0.000000,0.000000,0.000000,0.000000,0.000000,0.000000,0.000000,1764346133.359746,0.000000
230.000000,23095.118772,26749.204308,14213.720168,20224.372473,26110.883190,-1759.551675,-9929.851881,17737.606792,24381.238148,21312.321283,3867.790564,-6392.263638,21932.492785,19553.753084,175.684711,5181.156716,0.005750,-0.018125,1.016625,192.000000,0.000000,0.000000,0.000000,0.000000,0.000000,0.000000,0.000000,0.000000,0.000000,1764346133.366746,0.000000
232.000000,23099.142086,26756.088645,14232.160357,20237.939982,26094.432306,-1736.484675,-9896.525430,17756.002278,24367.782398,21321.552553,3877.312407,-6374.494001,21935.890250,19570.673355,181.093834,5160.280187,0.005750,-0.018125,1.016625,192.000000,0.000000,0.000000,0.000000,0.000000,0.000000,0.000000,0.000000,0.000000,0.000000,1764346133.374797,0.000000
234.000000,23092.414211,26750.143081,14216.201212,20226.048854,26103.551817,-1753.404946,-9926.655582,17736.869185,24325.403491,21317.842164,3881.827460,-6371.744737,21931.933991,19571.992108,187.285267,5162.113030,0.005750,-0.018125,1.016625,192.000000,0.000000,0.000000,0.000000,0.000000,0.000000,0.000000,0.000000,0.000000,0.000000,1764346133.382824,0.000000
236.000000,23098.449182,26753.942878,14227.712360,20230.161575,26115.197076,-1748.018175,-9911.881079,17746.614545,24410.876562,21316.702225,3865.465983,-6398.857403,21937.432520,19556.122369,177.472851,5177.446327,0.003875,-0.016063,1.016312,192.000000,0.000000,8.000000,127.500000,72.000000,15.500000,96.000000,0.000000,0.000000,0.000000,1764346133.391813,0.000000
238.000000,23093.621206,26751.573593,14226.840642,20234.229593,26094.633471,-1737.155227,-9907.276619,17747.553318,24318.675616,21320.993760,3886.655436,-6367.788478,21938.661866,19579.368184,189.296924,5151.652414,0.003875,-0.016063,1.016312,192.000000,0.000000,0.000000,0.000000,0.000000,0.000000,0.000000,0.000000,0.000000,0.000000,1764346133.398795,0.000000
240.000000,23095.386993,26750.187784,14218.414035,20227.702883,26117.655768,-1756.511838,-9928.376666,17738.545565,24389.463590,21318.982103,3867.477640,-6389.559077,21933.364503,19559.564538,179.573915,5181.201420,0.003875,-0.016063,1.016312,192.000000,0.000000,0.000000,0.000000,0.000000,0.000000,0.000000,0.000000,0.000000,0.000000,1764346133.406887,0.000000
242.000000,23096.549284,26755.798072,14234.954326,20240.666895,26097.516846,-1729.712096,-9896.167802,17756.896348,24369.995221,21324.480632,3879.145250,-6374.069318,21935.890250,19575.657794,183.105491,5158.737917,0.003875,-0.016063,1.016312,192.000000,0.000000,0.000000,0.000000,0.000000,0.000000,0.000000,0.000000,0.000000,0.000000,1764346133.414871,0.000000
244.000000,23092.168342,26747.282058,14214.211907,20228.507546,26102.680099,-1754.321367,-9928.130797,17737.182109,24325.336435,21320.032635,3881.335721,-6372.907027,21937.499575,19573.936710,185.407720,5162.984748,0.003875,-0.016063,1.016312,192.000000,0.000000,0.000000,0.000000,0.000000,0.000000,0.000000,0.000000,0.000000,0.000000,1764346133.422908,0.000000
246.000000,23094.671738,26754.881651,14227.622953,20233.089654,26114.034786,-1749.225169,-9911.590506,17748.246223,24411.301245,21315.539934,3867.499991,-6395.303475,21942.439311,19558.648116,174.924752,5178.250990,0.004938,-0.016031,1.014156,192.000000,0.000000,24.000000,127.500000,64.000000,15.500000,80.000000,0.000000,0.000000,0.000000,1764346133.431036,0.000000
248.000000,23094.582331,26748.421997,14225.208965,20232.776729,26091.705393,-1748.576969,-9909.310628,17746.614545,24318.809726,21317.864516,3887.325989,-6364.860399,21942.193442,19579.010556,188.358151,5147.517341,0.004938,-0.016031,1.014156,192.000000,0.000000,0.000000,0.000000,0.000000,0.000000,0.000000,0.000000,0.000000,0.000000,1764346133.438984,0.000000
250.000000,23093.732964,26749.450177,14215.731825,20224.238363,26111.911370,-1756.355376,-9930.187157,17737.092702,24381.282852,21310.734309,3868.282302,-6397.605705,21938.259535,19554.714209,176.042339,5175.591132,0.004938,-0.016031,1.014156,192.000000,0.000000,0.000000,0.000000,0.000000,0.000000,0.000000,0.000000,0.000000,0.000000,1764346133.447996,0.000000
252.000000,23095.252883,26755.216927,14232.227413,20238.521128,26092.688870,-1734.093038,-9896.726596,17756.359906,24369.078799,21317.953923,3880.218134,-6376.796231,21940.919392,19570.919224,181.876145,5155.563969,0.004938,-0.016031,1.014156,192.000000,0.000000,0.000000,0.000000,0.000000,0.000000,0.000000,0.000000,0.000000,0.000000,1764346133.454978,0.000000
254.000000,23093.889426,26753.451139,14213.228430,20226.227668,26097.159218,-1756.891818,-9928.175500,17738.791435,24327.638665,21317.305722,3883.682654,-6371.565923,21936.002008,19573.221454,184.714816,5161.889513,0.004938,-0.016031,1.014156,192.000000,0.000000,0.000000,0.000000,0.000000,0.000000,0.000000,0.000000,0.000000,0.000000,1764346133.462996,0.000000
0.000000,23101.846647,26760.223718,14226.930049,20234.564869,26105.228198,-1743.123143,-9909.377683,17754.951746,24413.089384,21318.691530,3869.757518,-6396.018731,21937.723093,19561.039753,173.650703,5178.541562,0.004938,-0.016031,1.014156,192.000000,0.000000,0.000000,0.000000,0.000000,0.000000,0.000000,0.000000,0.000000,0.000000,1764346133.471425,0.000000
2.000000,23096.906912,26755.395741,14225.276020,20236.285953,26084.619890,-1742.117315,-9905.041445,17754.929394,24321.536639,21326.469937,3895.394968,-6357.730193,21941.992276,19585.604320,188.358151,5148.344356,0.006000,-0.020000,1.012000,192.000000,0.000000,24.000000,127.500000,48.000000,15.500000,80.000000,0.000000,0.000000,0.000000,1764346133.479055,0.000000
4.000000,23094.090592,26752.512366,14214.100148,20227.881697,26109.027995,-1761.116297,-9928.399018,17742.524176,24386.043773,21315.316417,3875.278398,-6389.492022,21934.146814,19561.352678,176.623485,5179.905019,0.006000,-0.020000,1.012000,192.000000,0.000000,0.000000,0.000000,0.000000,0.000000,0.000000,0.000000,0.000000,0.000000,1764346133.487090,0.000000
6.000000,23103.299511,26757.407398,14230.685142,20243.572622,26091.392468,-1735.992937,-9895.653712,17758.706839,24370.956346,21322.178402,3880.933390,-6374.225780,21942.953401,19576.149532,180.445633,5160.704870,0.006000,-0.020000,1.012000,192.000000,0.000000,0.000000,0.000000,0.000000,0.000000,0.000000,0.000000,0.000000,0.000000,1764346133.495140,0.000000
8.000000,23085.261653,26748.421997,14210.479165,20231.010941,26093.404125,-1745.738297,-9927.750817,17735.639839,24325.850526,21319.876173,3880.553410,-6372.258827,21938.527756,19578.965852,185.497127,5163.320024,0.006000,-0.020000,1.012000,192.000000,0.000000,0.000000,0.000000,0.000000,0.000000,0.000000,0.000000,0.000000,0.000000,1764346133.503161,0.000000
10.000000,23096.102249,26756.535680,14225.231317,20236.285953,26104.691756,-1739.770381,-9909.958829,17751.867205,24412.687053,21317.372777,3863.566084,-6396.018731,21938.483052,19562.872596,174.053034,5177.491030,0.006000,-0.020000,1.012000,192.000000,0.000000,0.000000,0.000000,0.000000,0.000000,0.000000,0.000000,0.000000,0.000000,1764346133.510209,0.000000
12.000000,23089.284967,26750.634819,14223.487881,20234.430758,26081.580053,-1745.067745,-9908.036579,17749.050885,24319.636741,21324.570039,3890.052902,-6362.781687,21941.902869,19582.855056,187.218212,5147.405582,0.002000,-0.024000,1.012000,192.000000,0.000000,8.000000,127.500000,32.000000,15.500000,80.000000,0.000000,0.000000,0.000000,1764346133.520344,0.000000
14.000000,23088.145028,26744.868069,14212.200250,20224.685398,26104.311777,-1766.078385,-9931.036524,17734.879879,24379.740581,21308.074451,3864.884837,-6397.851574,21934.035055,19553.954250,174.947104,5177.893362,0.002000,-0.024000,1.012000,192.000000,0.000000,0.000000,0.000000,0.000000,0.000000,0.000000,0.000000,0.000000,0.000000,1764346133.528909,0.000000
16.000000,23091.006051,26749.271363,14228.271154,20237.291782,26086.922119,-1743.458419,-9897.888887,17752.336592,24364.809616,21315.182306,3874.272570,-6381.668911,21938.795976,19567.566462,179.685674,5157.083888,0.002000,-0.024000,1.012000,192.000000,0.000000,0.000000,0.000000,0.000000,0.000000,0.000000,0.000000,0.000000,0.000000,1764346133.536275,0.000000
18.000000,23078.354964,26739.838927,14211.507346,20226.004151,26094.812285,-1763.999672,-9929.427198,17734.231679,24316.619255,21309.415556,3874.630198,-6379.903123,21930.838755,19566.873558,186.033569,5158.693213,0.002000,-0.024000,1.012000,192.000000,0.000000,0.000000,0.000000,0.000000,0.000000,0.000000,0.000000,0.000000,0.000000,1764346133.543280,0.000000
20.000000,23086.625110,26746.835023,14226.013628,20231.592087,26101.093125,-1753.941387,-9913.021018,17747.083932,24404.126335,21308.700300,3861.375613,-6396.398711,21937.320761,19553.037829,175.416490,5179.346225,0.002000,-0.024000,1.012000,192.000000,0.000000,0.000000,0.000000,0.000000,0.000000,0.000000,0.000000,0.000000,0.000000,1764346133.551332,0.000000
22.000000,23084.211121,26743.370502,14224.963096,20233.514337,26080.417762,-1744.777172,-9908.148337,17746.905118,24308.594979,21314.131774,3882.408605,-6368.481382,21937.320761,19575.478980,189.676903,5150.356013,0.006000,-0.018000,1.006000,192.000000,0.000000,24.000000,127.500000,56.000000,15.500000,56.000000,0.000000,0.000000,0.000000,1764346133.559346,0.000000
24.000000,23085.351060,26744.353979,14212.110843,20225.646523,26106.166971,-1755.550713,-9931.595317,17734.097568,24373.392686,21308.119155,3862.560256,-6398.298609,21933.051578,19555.295355,179.037473,5181.290827,0.006000,-0.018000,1.006000,192.000000,0.000000,0.000000,0.000000,0.000000,0.000000,0.000000,0.000000,0.000000,0.000000,1764346133.566462,0.000000
26.000000,23085.418115,26748.623162,14228.986410,20239.258735,26092.755925,-1734.361259,-9899.118233,17750.749618,24358.037038,21312.745966,3868.282302,-6381.981836,21938.348942,19568.572291,184.088967,5162.962396,0.006000,-0.018000,1.006000,192.000000,0.000000,0.000000,0.000000,0.000000,0.000000,0.000000,0.000000,0.000000,0.000000,1764346133.575390,0.000000
28.000000,23082.981775,26741.604715,14211.350883,20227.389959,26101.204884,-1754.008443,-9929.650716,17730.431882,24314.786412,21309.683777,3872.417375,-6378.562019,21935.666732,19568.326422,187.352322,5163.968225,0.006000,-0.018000,1.006000,192.000000,0.000000,0.000000,0.000000,0.000000,0.000000,0.000000,0.000000,0.000000,0.000000,1764346133.583429,0.000000
30.000000,23087.139200,26745.113938,14224.180785,20230.250982,26111.240817,-1748.554617,-9914.049198,17741.428940,24405.422736,21306.554533,3857.844038,-6402.277220,21940.405302,19553.708381,176.757595,5180.016778,0.006000,-0.018000,1.006000,192.000000,0.000000,0.000000,0.000000,0.000000,0.000000,0.000000,0.000000,0.000000,0.000000,1764346133.590408,0.000000
32.000000,23086.178075,26742.945819,14224.583116,20229.133395,26092.398297,-1748.152286,-9910.316457,17741.920679,24310.137249,21310.779013,3880.329893,-6372.147068,21939.734750,19575.389573,189.609848,5151.741821,0.006000,-0.022000,1.016000,192.000000,0.000000,24.000000,127.500000,40.000000,15.500000,96.000000,0.000000,0.000000,0.000000,1764346133.598504,0.000000
34.000000,23085.082839,26739.548354,14214.278962,20218.315151,26112.760736,-1773.141536,-9932.936422,17730.342475,24376.834855,21301.480687,3861.800297,-6403.752435,21937.320761,19548.299259,181.630275,5179.480336,0.006000,-0.022000,1.016000,192.000000,0.000000,0.000000,0.000000,0.000000,0.000000,0.000000,0.000000,0.000000,0.000000,1764346133.607476,0.000000
36.000000,23091.028403,26748.846680,14235.781340,20233.313171,26097.874474,-1736.328213,-9898.022997,17750.816673,24364.720209,21306.263960,3872.082099,-6388.083862,21946.350866,19560.883291,185.228906,5156.994481,0.006000,-0.022000,1.016000,192.000000,0.000000,0.000000,0.000000,0.000000,0.000000,0.000000,0.000000,0.000000,0.000000,1764346133.615540,0.000000
38.000000,23089.262615,26739.905982,14220.425692,20222.785499,26107.821001,-1755.126030,-9928.130797,17732.667057,24324.330607,21305.347539,3879.212305,-6383.121775,21946.239107,19563.274928,192.001485,5159.319062,0.006000,-0.022000,1.016000,192.000000,0.000000,0.000000,0.000000,0.000000,0.000000,0.000000,0.000000,0.000000,0.000000,1764346133.622572,0.000000
40.000000,23094.269406,26749.651343,14232.003895,20226.428834,26111.844315,-1749.180466,-9913.468053,17742.278307,24411.435355,21302.173591,3862.359090,-6405.898202,21947.937840,19548.165148,183.686636,5178.586266,0.006000,-0.022000,1.016000,192.000000,0.000000,0.000000,0.000000,0.000000,0.000000,0.000000,0.000000,0.000000,0.000000,1764346133.630572,0.000000
42.000000,23096.102249,26740.330665,14232.406227,20231.033293,26093.605291,-1742.363184,-9907.589544,17744.938164,24318.832078,21308.208562,3886.744843,-6373.063490,21952.095264,19571.612128,197.544717,5150.378364,0.010000,-0.022000,1.012000,192.000000,0.000000,40.000000,127.500000,40.000000,15.500000,80.000000,0.000000,0.000000,0.000000,1764346133.639619,0.000000
44.000000,23093.174171,26745.404511,14219.285753,20222.629037,26113.967730,-1758.232922,-9931.662373,17735.528080,24384.903834,21302.620626,3869.869276,-6400.064397,21942.349904,19551.227337,185.899459,5183.302484,0.010000,-0.022000,1.012000,192.000000,0.000000,0.000000,0.000000,0.000000,0.000000,0.000000,0.000000,0.000000,0.000000,1764346133.646647,0.000000
46.000000,23098.091554,26748.220831,14236.273078,20236.710636,26095.572245,-1736.931710,-9898.022997,17754.460007,24370.889291,21310.108460,3879.905210,-6382.764147,21948.116654,19564.124294,191.576802,5163.945873,0.010000,-0.022000,1.012000,192.000000,0.000000,0.000000,0.000000,0.000000,0.000000,0.000000,0.000000,0.000000,0.000000,1764346133.654642,0.000000
48.000000,23089.284967,26736.732034,14214.234258,20225.445357,26101.182532,-1764.156135,-9929.628364,17730.945972,24321.179011,21302.106536,3880.195782,-6380.998359,21938.885383,19563.610204,193.588459,5168.103298,0.010000,-0.022000,1.012000,192.000000,0.000000,0.000000,0.000000,0.000000,0.000000,0.000000,0.000000,0.000000,0.000000,1764346133.662693,0.000000
50.000000,23090.380203,26743.661075,14222.213831,20230.586258,26107.597483,-1743.078440,-9915.591468,17741.674810,24404.886294,21303.246475,3860.347433,-6406.121720,21938.192479,19550.266212,180.333874,5186.118804,0.010000,-0.022000,1.012000,192.000000,0.000000,0.000000,0.000000,0.000000,0.000000,0.000000,0.000000,0.000000,0.000000,1764346133.671728,0.000000
52.000000,23087.608586,26739.973037,14219.844546,20231.122700,26088.978480,-1739.323347,-9911.724616,17742.032438,24307.700909,21308.096803,3880.195782,-6373.018786,21938.058369,19572.059163,193.521403,5157.061536,0.008000,-0.022000,1.016000,192.000000,0.000000,32.000000,127.500000,40.000000,15.500000,96.000000,0.000000,0.000000,0.000000,1764346133.678741,0.000000
54.000000,23092.436563,26743.258744,14212.267305,20221.422043,26111.307873,-1757.875294,-9933.204643,17735.125749,24376.432523,21300.474858,3863.901361,-6401.003170,21934.638552,19550.959116,182.457290,5184.755347,0.008000,-0.022000,1.016000,192.000000,0.000000,0.000000,0.000000,0.000000,0.000000,0.000000,0.000000,0.000000,0.000000,1764346133.686768,0.000000
56.000000,23100.706709,26752.020628,14233.724980,20235.302476,26095.214617,-1737.266986,-9897.330093,17757.745714,24369.436427,21307.962693,3879.793451,-6384.462879,21940.852337,19562.805541,185.787700,5162.582417,0.008000,-0.022000,1.016000,192.000000,0.000000,0.000000,0.000000,0.000000,0.000000,0.000000,0.000000,0.000000,0.000000,1764346133.695827,0.000000
58.000000,23092.637729,26741.805880,14214.703645,20222.450223,26103.976501,-1759.708137,-9928.980163,17738.031475,24321.514287,21303.179419,3884.353207,-6380.350158,21938.594811,19563.163169,192.739092,5166.046937,0.008000,-0.022000,1.016000,192.000000,0.000000,0.000000,0.000000,0.000000,0.000000,0.000000,0.000000,0.000000,0.000000,1764346133.702801,0.000000
60.000000,23103.031290,26751.372427,14228.472320,20230.519203,26116.180553,-1745.984166,-9910.450567,17751.710743,24413.268198,21305.906332,3870.740994,-6396.488118,21941.724055,19552.881366,184.178374,5180.106184,0.008000,-0.022000,1.016000,192.000000,0.000000,0.000000,0.000000,0.000000,0.000000,0.000000,0.000000,0.000000,0.000000,1764346133.710854,0.000000
62.000000,23098.918569,26749.673694,14226.393607,20232.642619,26093.895864,-1741.111486,-9905.197907,17751.621336,24319.390871,21312.947132,3891.304599,-6365.352138,21945.389741,19577.378878,196.225965,5155.429859,0.014000,-0.016000,1.022000,192.000000,0.000000,56.000000,127.500000,64.000000,15.500000,120.000000,0.000000,0.000000,0.000000,1764346133.718907,0.000000
64.000000,23097.331595,26747.036188,14215.284790,20222.830203,26118.259265,-1764.402004,-9929.337791,17739.529042,24382.556901,21304.274655,3871.411547,-6395.594048,21940.002971,19553.395456,185.295962,5185.492955,0.014000,-0.016000,1.022000,192.000000,0.000000,0.000000,0.000000,0.000000,0.000000,0.000000,0.000000,0.000000,0.000000,1764346133.726914,0.000000
66.000000,23103.657139,26752.110034,14233.322648,20238.744645,26104.244721,-1726.761666,-9895.050215,17759.355040,24375.784323,21313.707091,3881.827460,-6376.505658,21945.166224,19566.717096,188.536964,5163.990577,0.014000,-0.016000,1.022000,192.000000,0.000000,0.000000,0.000000,0.000000,0.000000,0.000000,0.000000,0.000000,0.000000,1764346133.734954,0.000000
68.000000,23093.129467,26740.107148,14211.015607,20225.333598,26099.975538,-1754.209608,-9928.175500,17734.209327,24324.531773,21307.202733,3883.123861,-6375.164554,21936.627857,19565.487750,190.839194,5169.042071,0.014000,-0.016000,1.022000,192.000000,0.000000,0.000000,0.000000,0.000000,0.000000,0.000000,0.000000,0.000000,0.000000,1764346133.742956,0.000000
70.000000,23099.991453,26747.930258,14222.727921,20230.832127,26110.056175,-1743.994861,-9911.232878,17748.112112,24409.758974,21303.022957,3864.303692,-6401.405502,21936.493747,19548.567480,178.389272,5185.917638,0.014000,-0.016000,1.022000,192.000000,0.000000,0.000000,0.000000,0.000000,0.000000,0.000000,0.000000,0.000000,0.000000,1764346133.751005,0.000000
72.000000,23099.432659,26746.946782,14222.549107,20233.849613,26091.079544,-1741.558521,-9905.957866,17749.632031,24322.765985,21309.393204,3891.036378,-6367.162629,21939.667695,19571.701535,192.090892,5154.424030,0.011000,-0.016000,1.018000,192.000000,0.000000,32.000000,127.500000,64.000000,15.500000,88.000000,0.000000,0.000000,0.000000,1764346133.758034,0.000000
74.000000,23095.230531,26743.102281,14211.753215,20220.192697,26114.012434,-1762.636216,-9931.505910,17733.806996,24383.003936,21301.301873,3871.456250,-6398.857403,21932.962171,19548.746294,179.596267,5187.124632,0.011000,-0.016000,1.018000,192.000000,0.000000,0.000000,0.000000,0.000000,0.000000,0.000000,0.000000,0.000000,0.000000,1764346133.767076,0.000000
76.000000,23095.230531,26744.644552,14231.154529,20229.938058,26097.650957,-1742.989033,-9899.252343,17749.833196,24374.510273,21303.291178,3877.692387,-6389.492022,21938.036017,19557.821102,185.742996,5163.029452,0.011000,-0.016000,1.018000,192.000000,0.000000,0.000000,0.000000,0.000000,0.000000,0.000000,0.000000,0.000000,0.000000,1764346133.775068,0.000000
78.000000,23089.664947,26732.686369,14212.490822,20217.979874,26103.440059,-1763.731451,-9930.567137,17729.068426,24328.756252,21296.809172,3879.100547,-6387.703882,21934.213869,19557.463474,190.816842,5165.130516,0.011000,-0.016000,1.018000,192.000000,0.000000,0.000000,0.000000,0.000000,0.000000,0.000000,0.000000,0.000000,0.000000,1764346133.783095,0.000000
80.000000,23101.824296,26745.493918,14225.700703,20225.892392,26117.052271,-1750.320405,-9913.624515,17743.418246,24412.530591,21300.385451,3864.884837,-6404.422987,21937.700741,19544.030076,180.088005,5182.676635,0.011000,-0.016000,1.018000,192.000000,0.000000,0.000000,0.000000,0.000000,0.000000,0.000000,0.000000,0.000000,0.000000,1764346133.790148,0.000000
82.000000,23101.354909,26752.758235,14225.968924,20231.368569,26095.639300,-1747.727602,-9907.231916,17749.184996,24322.765985,21313.863553,3889.762329,-6364.972158,21941.344075,19570.561596,195.421302,5155.072231,0.006500,-0.017000,1.016000,192.000000,0.000000,8.000000,127.500000,56.000000,15.500000,88.000000,0.000000,0.000000,0.000000,1764346133.799173,0.000000
84.000000,23102.025461,26751.506537,14215.508308,20221.533802,26124.182477,-1755.729527,-9930.477730,17739.327876,24391.922282,21311.047233,3876.328930,-6389.447318,21940.494709,19551.920241,182.591400,5183.526001,0.006500,-0.017000,1.016000,192.000000,0.000000,0.000000,0.000000,0.000000,0.000000,0.000000,0.000000,0.000000,0.000000,1764346133.807199,0.000000
86.000000,23110.876752,26757.943840,14232.942669,20236.084787,26107.016338,-1731.634346,-9897.307741,17757.924528,24378.779456,21318.669178,3885.291980,-6373.711690,21947.647267,19564.928957,188.045226,5163.230617,0.006500,-0.017000,1.016000,192.000000,0.000000,0.000000,0.000000,0.000000,0.000000,0.000000,0.000000,0.000000,0.000000,1764346133.814220,0.000000
88.000000,23105.266464,26750.076026,14214.055444,20223.970142,26111.531390,-1750.186294,-9927.504948,17736.399798,24329.851488,21314.489402,3886.118994,-6370.381280,21941.478186,19561.531491,190.459215,5166.829248,0.006500,-0.017000,1.016000,192.000000,0.000000,0.000000,0.000000,0.000000,0.000000,0.000000,0.000000,0.000000,0.000000,1764346133.822259,0.000000
90.000000,23096.281063,26751.439482,14227.131215,20226.987627,26119.063928,-1744.576006,-9911.478747,17746.838063,24417.112698,21310.555495,3868.371709,-6396.152842,21944.138043,19545.684105,179.998598,5186.208211,0.006500,-0.017000,1.016000,192.000000,0.000000,0.000000,0.000000,0.000000,0.000000,0.000000,0.000000,0.000000,0.000000,1764346133.831256,0.000000
92.000000,23107.792212,26753.182918,14227.399436,20230.340389,26102.523637,-1738.518684,-9905.689645,17747.843891,24324.017683,21312.947132,3891.528117,-6363.742812,21945.233279,19565.375992,192.537927,5155.385155,0.005250,-0.018500,1.010000,192.000000,0.000000,16.000000,127.500000,48.000000,15.500000,48.000000,0.000000,0.000000,0.000000,1764346133.838281,0.000000
94.000000,23092.302453,26740.777700,14213.854279,20220.237401,26120.114460,-1765.676053,-9931.617669,17733.225850,24386.937843,21302.419460,3870.942160,-6394.632923,21940.002971,19543.560689,180.736206,5183.123670,0.005250,-0.018500,1.010000,192.000000,0.000000,0.000000,0.000000,0.000000,0.000000,0.000000,0.000000,0.000000,0.000000,1764346133.846338,0.000000
96.000000,23098.024499,26750.344247,14235.088436,20234.989552,26104.021204,-1740.709155,-9896.659541,17754.057676,24370.933994,21306.241608,3878.877029,-6378.092632,21944.696837,19554.110712,188.112281,5162.113030,0.005250,-0.018500,1.010000,192.000000,0.000000,0.000000,0.000000,0.000000,0.000000,0.000000,0.000000,0.000000,0.000000,1764346133.855448,0.000000
98.000000,23097.242188,26742.431729,14215.754177,20226.473537,26111.643149,-1759.059937,-9926.566175,17734.388141,24329.471508,21304.699338,3884.174393,-6373.689338,21943.892174,19559.229262,193.677866,5165.108164,0.005250,-0.018500,1.010000,192.000000,0.000000,0.000000,0.000000,0.000000,0.000000,0.000000,0.000000,0.000000,0.000000,1764346133.863432,0.000000
100.000000,23101.466668,26749.897212,14226.974753,20234.050779,26123.087242,-1745.917111,-9910.361160,17746.771007,24416.643312,21303.090012,3867.388233,-6394.655275,21945.993238,19546.756988,184.491299,5185.761176,0.005250,-0.018500,1.010000,192.000000,0.000000,0.000000,0.000000,0.000000,0.000000,0.000000,0.000000,0.000000,0.000000,1764346133.870438,0.000000
102.000000,23099.030328,26747.997313,14225.365427,20236.308305,26106.614006,-1728.840378,-9906.628419,17746.145159,24323.749462,21313.640036,3890.254067,-6361.887617,21946.462625,19574.696669,199.802244,5157.307405,0.005625,-0.018250,1.006000,192.000000,0.000000,24.000000,127.500000,56.000000,15.500000,40.000000,0.000000,0.000000,0.000000,1764346133.878469,0.000000
104.000000,23096.482229,26742.655247,14212.893154,20226.428834,26122.707262,-1752.957911,-9931.930593,17732.488243,24386.893140,21306.576885,3868.841096,-6393.671798,21938.527756,19551.741427,186.726473,5188.242219,0.005625,-0.018250,1.006000,192.000000,0.000000,0.000000,0.000000,0.000000,0.000000,0.000000,0.000000,0.000000,0.000000,1764346133.887449,0.000000
106.000000,23100.036156,26747.840851,14231.869785,20239.705770,26105.205846,-1724.012402,-9897.821831,17751.666039,24371.448084,21310.175515,3877.602980,-6377.712652,21946.909660,19565.308936,188.112281,5171.389004,0.005625,-0.018250,1.006000,192.000000,0.000000,0.000000,0.000000,0.000000,0.000000,0.000000,0.000000,0.000000,0.000000,1764346133.894688,0.000000
108.000000,23099.007976,26742.454081,14214.703645,20228.887526,26108.335091,-1745.738297,-9926.968506,17733.784644,24325.559953,21309.214390,3883.101509,-6373.868152,21944.160395,19567.611166,189.788662,5171.389004,0.005625,-0.018250,1.006000,192.000000,0.000000,0.000000,0.000000,0.000000,0.000000,0.000000,0.000000,0.000000,0.000000,1764346133.902503,0.000000
110.000000,23110.608531,26752.333552,14229.545203,20237.269430,26121.075585,-1736.439971,-9910.070587,17748.715609,24417.872658,21312.477745,3870.584532,-6395.526993,21946.104997,19555.921204,178.881011,5194.277190,0.005625,-0.018250,1.006000,192.000000,0.000000,0.000000,0.000000,0.000000,0.000000,0.000000,0.000000,0.000000,0.000000,1764346133.910540,0.000000
112.000000,23109.490944,26754.144043,14232.182709,20239.728122,26105.608178,-1734.249501,-9903.208602,17753.722400,24334.120671,21324.592391,3897.451329,-6357.283158,21955.023343,19584.397326,194.951915,5161.911865,0.008813,-0.020125,1.005000,192.000000,0.000000,48.000000,127.500000,40.000000,15.500000,48.000000,0.000000,0.000000,0.000000,1764346133.919559,0.000000
114.000000,23105.981720,26748.220831,14221.453872,20227.300552,26125.747100,-1753.337890,-9928.086093,17741.384237,24394.805657,21312.343635,3878.921733,-6387.659179,21950.217718,19559.341021,185.988866,5187.683426,0.008813,-0.020125,1.005000,192.000000,0.000000,0.000000,0.000000,0.000000,0.000000,0.000000,0.000000,0.000000,0.000000,1764346133.929464,0.000000
116.000000,23115.190639,26754.881651,14242.553919,20241.158633,26112.134887,-1729.510931,-9893.686759,17763.423057,24387.518989,21320.971408,3890.321122,-6370.001301,21956.923241,19572.774419,189.632200,5165.756365,0.008813,-0.020125,1.005000,192.000000,0.000000,0.000000,0.000000,0.000000,0.000000,0.000000,0.000000,0.000000,0.000000,1764346133.934642,0.000000
118.000000,23105.646444,26748.466700,14222.347942,20228.462843,26115.867629,-1757.540018,-9925.605050,17742.099493,24340.200346,21315.182306,3894.165622,-6368.302568,21950.441235,19569.131085,194.303715,5165.599902,0.008813,-0.020125,1.005000,192.000000,0.000000,0.000000,0.000000,0.000000,0.000000,0.000000,0.000000,0.000000,0.000000,1764346133.944690,0.000000
120.000000,23115.302398,26757.787378,14235.602526,20234.073130,26122.550800,-1749.225169,-9908.237744,17755.935223,24425.986341,21315.361120,3876.530096,-6391.146051,21948.809558,19551.920241,181.809089,5184.598885,0.008813,-0.020125,1.005000,192.000000,0.000000,0.000000,0.000000,0.000000,0.000000,0.000000,0.000000,0.000000,0.000000,1764346133.950723,0.000000
122.000000,23113.514258,26759.262593,14236.764817,20236.330657,26107.284559,-1733.847169,-9902.470994,17758.349211,24336.512308,21322.759548,3900.871146,-6357.327861,21953.056389,19576.305995,194.862508,5153.284091,0.007406,-0.022062,1.006500,192.000000,0.000000,24.000000,127.500000,32.000000,15.500000,64.000000,0.000000,0.000000,0.000000,1764346133.958729,0.000000
124.000000,23113.737776,26755.082816,14223.845509,20226.250020,26132.922010,-1752.063841,-9928.555480,17744.312316,24401.354718,21315.182306,3883.615599,-6383.904086,21951.581174,19556.278832,184.625409,5182.542525,0.007406,-0.022062,1.006500,192.000000,0.000000,0.000000,0.000000,0.000000,0.000000,0.000000,0.000000,0.000000,0.000000,1764346133.966735,0.000000
126.000000,23113.581313,26762.950631,14240.274041,20239.795177,26116.471126,-1726.113466,-9895.005512,17762.752505,24387.362526,21320.546725,3889.248239,-6368.839010,21955.448026,19569.734582,190.995656,5163.409431,0.007406,-0.022062,1.006500,192.000000,0.000000,0.000000,0.000000,0.000000,0.000000,0.000000,0.000000,0.000000,0.000000,1764346133.974787,0.000000
128.000000,23106.607569,26752.847642,14217.877593,20227.568773,26117.767527,-1754.813105,-9926.767341,17741.026609,24336.981694,21316.523411,3891.975152,-6365.352138,21946.306163,19573.333213,195.197784,5165.264626,0.007406,-0.022062,1.006500,192.000000,0.000000,0.000000,0.000000,0.000000,0.000000,0.000000,0.000000,0.000000,0.000000,1764346133.981802,0.000000
130.000000,23114.296569,26762.749465,14229.433445,20233.916668,26126.104728,-1737.736373,-9910.361160,17753.342420,24425.360492,21315.718748,3875.792489,-6388.866173,21948.898965,19558.134026,181.943200,5184.420071,0.007406,-0.022062,1.006500,192.000000,0.000000,0.000000,0.000000,0.000000,0.000000,0.000000,0.000000,0.000000,0.000000,1764346133.990824,0.000000
132.000000,23108.730985,26756.312162,14229.545203,20237.828223,26107.083393,-1732.148437,-9904.616762,17753.118903,24335.841755,21325.598219,3896.534907,-6354.891521,21950.575346,19582.005689,194.281363,5154.379327,0.006703,-0.022031,1.010250,192.000000,0.000000,24.000000,127.500000,40.000000,15.500000,88.000000,0.000000,0.000000,0.000000,1764346133.998864,0.000000
134.000000,23104.350043,26748.980790,14215.687122,20230.496851,26126.797632,-1756.243617,-9928.980163,17740.490167,24389.798866,21313.349463,3873.847887,-6383.144126,21943.311029,19558.245785,185.094796,5184.732996,0.006703,-0.022031,1.010250,192.000000,0.000000,0.000000,0.000000,0.000000,0.000000,0.000000,0.000000,0.000000,0.000000,1764346134.006863,0.000000
136.000000,23106.920493,26753.875822,14233.032076,20242.432683,26107.552780,-1731.276719,-9895.698416,17758.125694,24385.574387,21320.345559,3884.062634,-6367.363795,21945.903831,19572.260329,186.726473,5164.214094,0.006703,-0.022031,1.010250,192.000000,0.000000,0.000000,0.000000,0.000000,0.000000,0.000000,0.000000,0.000000,0.000000,1764346134.014888,0.000000
138.000000,23101.958406,26748.220831,14217.899945,20229.736892,26109.340919,-1754.299015,-9925.247422,17739.037304,24334.612409,21313.975312,3887.504803,-6366.335614,21937.544279,19570.919224,193.029665,5161.777754,0.006703,-0.022031,1.010250,192.000000,0.000000,0.000000,0.000000,0.000000,0.000000,0.000000,0.000000,0.000000,0.000000,1764346134.024004,0.000000
140.000000,23099.969101,26750.835985,14229.075817,20233.290819,26116.716995,-1752.689690,-9909.981180,17748.514443,24417.738547,21310.220219,3870.875105,-6392.911839,21940.025322,19554.244823,183.038435,5179.972074,0.006703,-0.022031,1.010250,192.000000,0.000000,0.000000,0.000000,0.000000,0.000000,0.000000,0.000000,0.000000,0.000000,1764346134.030976,0.000000
142.000000,23098.292720,26747.729093,14225.387779,20236.062436,26094.342899,-1739.569216,-9905.399073,17749.028534,24317.960360,21312.321283,3889.002370,-6360.412402,21933.744482,19573.221454,195.130729,5150.065440,0.006703,-0.022031,1.010250,192.000000,0.000000,0.000000,0.000000,0.000000,0.000000,0.000000,0.000000,0.000000,0.000000,1764346134.037987,0.000000
144.000000,23097.510409,26746.209174,14215.217735,20227.099386,26120.986178,-1756.869466,-9929.829530,17737.003295,24381.059334,21305.392242,3869.936332,-6387.815641,21927.933029,19553.574270,181.920848,5181.603751,0.002000,-0.024000,1.010000,192.000000,0.000000,8.000000,127.500000,32.000000,15.500000,72.000000,0.000000,0.000000,0.000000,1764346134.047000,0.000000
146.000000,23103.187752,26754.412264,14235.222546,20241.784482,26107.664538,-1730.874387,-9895.452547,17757.186920,24373.616204,21313.572981,3880.016968,-6373.465821,21940.114729,19568.907567,185.698293,5163.454135,0.002000,-0.024000,1.010000,192.000000,0.000000,0.000000,0.000000,0.000000,0.000000,0.000000,0.000000,0.000000,0.000000,1764346134.055046,0.000000
148.000000,23102.338386,26747.527927,14217.050578,20231.301514,26114.884152,-1752.175600,-9924.845090,17739.126711,24330.007950,21313.327111,3885.560201,-6366.201504,21937.432520,19571.366259,189.721607,5164.974053,0.002000,-0.024000,1.010000,192.000000,0.000000,0.000000,0.000000,0.000000,0.000000,0.000000,0.000000,0.000000,0.000000,1764346134.062060,0.000000
150.000000,23106.987549,26752.244145,14229.746369,20238.007037,26122.751966,-1738.786905,-9907.835413,17751.889557,24415.793945,21310.756661,3870.673939,-6390.363740,21938.617163,19556.882329,178.389272,5184.643589,0.002000,-0.024000,1.010000,192.000000,0.000000,0.000000,0.000000,0.000000,0.000000,0.000000,0.000000,0.000000,0.000000,1764346134.070097,0.000000
152.000000,23100.438488,26749.785453,14228.651134,20239.281087,26100.087297,-1738.898663,-9903.186250,17751.487225,24324.397662,21315.919914,3893.070387,-6356.702013,21941.411131,19581.379841,190.168642,5154.558141,0.002000,-0.024000,1.010000,192.000000,0.000000,0.000000,0.000000,0.000000,0.000000,0.000000,0.000000,0.000000,0.000000,1764346134.079133,0.000000
154.000000,23099.276197,26747.863203,14216.961171,20228.686360,26122.349634,-1762.658568,-9927.951983,17740.624278,24384.456800,21302.665329,3871.970340,-6389.335560,21934.012703,19555.071837,176.869354,5185.671769,0.008000,-0.024000,1.012000,192.000000,0.000000,32.000000,127.500000,32.000000,15.500000,80.000000,0.000000,0.000000,0.000000,1764346134.087150,0.000000
156.000000,23106.071127,26758.793206,14234.641401,20244.131415,26106.993986,-1724.839416,-9892.703282,17762.596042,24373.727962,21315.696396,3884.621428,-6370.269522,21937.276058,19573.288509,181.943200,5165.041109,0.008000,-0.024000,1.012000,192.000000,0.000000,0.000000,0.000000,0.000000,0.000000,0.000000,0.000000,0.000000,0.000000,1764346134.094191,0.000000
158.000000,23098.806810,26749.852508,14215.307142,20233.670799,26108.692719,-1749.336928,-9921.939364,17744.401722,24326.141098,21309.840239,3888.957666,-6363.921626,21933.297447,19575.210759,184.580706,5167.768022,0.008000,-0.024000,1.012000,192.000000,0.000000,0.000000,0.000000,0.000000,0.000000,0.000000,0.000000,0.000000,0.000000,1764346134.104212,0.000000
160.000000,23105.914665,26754.032285,14226.818291,20236.621229,26119.041576,-1745.470076,-9906.561364,17755.398781,24410.809506,21305.615760,3870.942160,-6388.128565,21932.045750,19556.457645,175.595304,5182.542525,0.008000,-0.024000,1.012000,192.000000,0.000000,0.000000,0.000000,0.000000,0.000000,0.000000,0.000000,0.000000,0.000000,1764346134.111224,0.000000
162.000000,23102.740717,26751.752407,14227.287677,20239.482253,26097.382736,-1742.497294,-9900.392282,17755.689353,24319.681444,21312.768318,3895.327913,-6355.629129,21935.778491,19580.619881,192.269706,5149.707812,0.008000,-0.024000,1.012000,192.000000,0.000000,0.000000,0.000000,0.000000,0.000000,0.000000,0.000000,0.000000,0.000000,1764346134.118251,0.000000
164.000000,23101.556075,26744.242220,14215.038921,20227.211145,26117.096975,-1760.110469,-9926.789692,17739.931374,24379.852340,21299.670196,3872.998520,-6386.362778,21926.994255,19554.647154,179.618618,5181.491993,0.006000,-0.018000,1.006000,192.000000,0.000000,24.000000,127.500000,56.000000,15.500000,56.000000,0.000000,0.000000,0.000000,1764346134.126275,0.000000
166.000000,23100.930226,26749.517232,14233.702628,20240.689247,26102.590692,-1738.786905,-9894.267904,17758.729191,24370.866939,21306.733347,3882.475660,-6372.214123,21934.973828,19566.627689,189.408683,5159.162600,0.006000,-0.018000,1.006000,192.000000,0.000000,0.000000,0.000000,0.000000,0.000000,0.000000,0.000000,0.000000,0.000000,1764346134.134335,0.000000
168.000000,23092.928301,26744.756311,14214.144851,20230.139223,26106.681062,-1758.031757,-9926.141492,17736.958592,24320.933142,21300.541914,3885.046111,-6371.252998,21929.475299,19566.538282,193.119072,5163.655301,0.006000,-0.018000,1.006000,192.000000,0.000000,0.000000,0.000000,0.000000,0.000000,0.000000,0.000000,0.000000,0.000000,1764346134.143331,0.000000
170.000000,23101.556075,26750.835985,14228.561727,20237.314133,26117.789879,-1750.029832,-9909.914125,17753.163606,24411.524762,21301.614797,3870.584532,-6394.342350,21933.543317,19555.496520,179.998598,5181.626103,0.006000,-0.018000,1.006000,192.000000,0.000000,0.000000,0.000000,0.000000,0.000000,0.000000,0.000000,0.000000,0.000000,1764346134.150457,0.000000
172.000000,23104.126525,26755.596907,14230.036942,20242.164462,26101.271939,-1740.776210,-9903.230954,17757.432789,24322.117784,21311.874248,3897.876012,-6356.478495,21938.147776,19581.603358,193.610810,5151.339489,0.006000,-0.018000,1.006000,192.000000,0.000000,0.000000,0.000000,0.000000,0.000000,0.000000,0.000000,0.000000,0.000000,1764346134.158452,0.000000
174.000000,23106.205238,26751.640648,14216.625895,20232.039122,26123.578980,-1756.914169,-9928.153149,17744.468778,24388.301300,21305.168725,3881.447480,-6385.669873,21935.957305,19560.548015,183.574877,5181.559048,0.008000,-0.022000,1.006000,192.000000,0.000000,32.000000,127.500000,40.000000,15.500000,56.000000,0.000000,0.000000,0.000000,1764346134.166455,0.000000
176.000000,23107.568694,26757.541508,14236.295430,20245.092540,26104.959977,-1738.049297,-9893.396186,17764.115961,24376.633689,21312.388338,3888.331817,-6369.442507,21938.371293,19572.372088,186.927639,5166.270455,0.008000,-0.022000,1.006000,192.000000,0.000000,0.000000,0.000000,0.000000,0.000000,0.000000,0.000000,0.000000,0.000000,1764346134.174465,0.000000
178.000000,23102.718366,26751.059502,14220.202174,20233.514337,26108.893884,-1755.036623,-9922.989896,17744.468778,24329.113880,21308.543838,3892.466890,-6365.620359,21937.365465,19571.880349,188.469909,5165.935179,0.008000,-0.022000,1.006000,192.000000,0.000000,0.000000,0.000000,0.000000,0.000000,0.000000,0.000000,0.000000,0.000000,1764346134.182499,0.000000
180.000000,23106.249941,26757.541508,14233.300296,20237.984686,26118.348672,-1746.989995,-9907.477785,17754.817635,24418.364396,21306.129850,3875.300750,-6389.424967,21938.527756,19557.888157,176.355264,5181.268475,0.008000,-0.022000,1.006000,192.000000,0.000000,0.000000,0.000000,0.000000,0.000000,0.000000,0.000000,0.000000,0.000000,1764346134.190515,0.000000
182.000000,23104.685319,26755.663962,14232.763855,20240.041046,26096.935701,-1743.413716,-9903.186250,17754.169435,24328.443328,21312.813021,3895.931410,-6360.300643,21943.132215,19581.849227,190.705084,5146.913844,0.008000,-0.022000,1.006000,192.000000,0.000000,0.000000,0.000000,0.000000,0.000000,0.000000,0.000000,0.000000,0.000000,1764346134.200522,0.000000
184.000000,23096.549284,26747.997313,14218.369331,20227.747587,26116.739347,-1767.061861,-9930.678896,17738.478510,24385.708497,21299.849009,3873.803183,-6389.022635,21934.727959,19556.658811,178.948066,5179.078004,0.002000,-0.024000,1.006000,192.000000,0.000000,8.000000,127.500000,32.000000,15.500000,56.000000,0.000000,0.000000,0.000000,1764346134.206545,0.000000
186.000000,23105.735851,26755.619258,14238.664715,20242.499738,26104.311777,-1742.989033,-9895.430195,17759.489150,24374.800846,21306.889809,3884.621428,-6373.354062,21939.578288,19569.667526,181.719682,5158.939082,0.002000,-0.024000,1.006000,192.000000,0.000000,0.000000,0.000000,0.000000,0.000000,0.000000,0.000000,0.000000,0.000000,1764346134.214600,0.000000
188.000000,23099.298549,26746.097415,14218.637552,20230.206279,26106.390489,-1759.283454,-9926.275602,17739.037304,24329.024473,21307.649768,3890.410529,-6368.302568,21936.247878,19572.036811,187.933467,5159.050841,0.002000,-0.024000,1.006000,192.000000,0.000000,0.000000,0.000000,0.000000,0.000000,0.000000,0.000000,0.000000,0.000000,1764346134.222610,0.000000
190.000000,23101.466668,26751.238316,14228.785244,20234.944848,26113.721861,-1751.035661,-9911.299933,17750.436693,24413.268198,21302.330053,3872.238561,-6393.984722,21934.817366,19554.825968,175.058863,5178.385100,0.002000,-0.024000,1.006000,192.000000,0.000000,0.000000,0.000000,0.000000,0.000000,0.000000,0.000000,0.000000,0.000000,1764346134.230650,0.000000
192.000000,23098.203313,26750.903040,14228.405264,20237.068264,26094.812285,-1750.007480,-9905.622590,17753.297717,24321.201363,21304.386414,3895.260858,-6362.111135,21934.236221,19574.651965,188.671075,5147.785562,0.002000,-0.024000,1.006000,192.000000,0.000000,0.000000,0.000000,0.000000,0.000000,0.000000,0.000000,0.000000,0.000000,1764346134.238664,0.000000
194.000000,23103.612435,26749.494880,14218.414035,20226.965276,26121.701434,-1765.832515,-9930.902413,17742.099493,24384.233282,21298.396146,3879.636989,-6388.821469,21934.347979,19553.015477,179.462156,5180.329702,0.006000,-0.020000,1.010000,192.000000,0.000000,24.000000,127.500000,48.000000,15.500000,72.000000,0.000000,0.000000,0.000000,1764346134.246717,0.000000
196.000000,23106.585217,26753.048808,14235.736637,20240.733950,26107.955111,-1737.758724,-9897.531259,17761.590214,24378.086552,21305.124021,3888.957666,-6372.839972,21939.444177,19569.019326,186.190031,5164.035280,0.006000,-0.020000,1.010000,192.000000,0.000000,0.000000,0.000000,0.000000,0.000000,0.000000,0.000000,0.000000,0.000000,1764346134.254766,0.000000
198.000000,23099.097383,26748.690218,14216.983523,20230.362741,26110.391451,-1755.908341,-9928.354314,17739.685504,24331.058482,21304.565228,3891.639875,-6367.386146,21936.605506,19572.796771,189.095758,5167.410394,0.006000,-0.020000,1.010000,192.000000,0.000000,0.000000,0.000000,0.000000,0.000000,0.000000,0.000000,0.000000,0.000000,1764346134.261761,0.000000
200.000000,23106.786383,26755.239279,14228.137043,20234.989552,26120.136812,-1744.263082,-9914.228012,17750.123769,24419.504335,21306.085146,3872.126802,-6393.984722,21940.919392,19559.676297,175.729415,5186.185859,0.006000,-0.020000,1.010000,192.000000,0.000000,0.000000,0.000000,0.000000,0.000000,0.000000,0.000000,0.000000,0.000000,1764346134.270809,0.000000
202.000000,23106.316996,26753.652305,14228.718189,20238.990514,26100.869608,-1742.117315,-9907.298971,17752.135426,24325.403491,21310.376681,3894.187974,-6358.043117,21941.366427,19583.056221,189.721607,5160.593112,0.006000,-0.020000,1.010000,192.000000,0.000000,0.000000,0.000000,0.000000,0.000000,0.000000,0.000000,0.000000,0.000000,1764346134.278829,0.000000
204.000000,23106.696976,26755.306334,14220.112767,20229.714540,26126.663521,-1754.947216,-9930.455378,17740.490167,24393.017518,21303.559399,3877.647683,-6387.592123,21937.767796,19564.034887,179.082177,5191.349112,0.006000,-0.020000,1.008000,192.000000,0.000000,24.000000,127.500000,48.000000,15.500000,64.000000,0.000000,0.000000,0.000000,1764346134.286883,0.000000
206.000000,23113.760127,26761.631878,14239.469378,20242.902069,26110.525562,-1730.762628,-9895.296084,17764.115961,24390.402364,21311.114289,3890.790509,-6371.141240,21945.456796,19576.574215,185.966514,5166.292806,0.006000,-0.020000,1.008000,192.000000,0.000000,0.000000,0.000000,0.000000,0.000000,0.000000,0.000000,0.000000,0.000000,1764346134.293900,0.000000
208.000000,23105.802906,26752.065331,14220.917430,20230.787424,26116.337015,-1758.009405,-9925.694457,17745.273441,24338.434558,21306.934512,3897.719550,-6364.972158,21944.406264,19574.383745,191.219174,5158.782620,0.006000,-0.020000,1.008000,192.000000,0.000000,0.000000,0.000000,0.000000,0.000000,0.000000,0.000000,0.000000,0.000000,1764346134.302906,0.000000
210.000000,23109.736813,26756.714494,14230.260459,20235.347180,26124.271884,-1751.460344,-9911.836375,17752.917737,24423.482945,21303.492344,3877.826497,-6391.660141,21942.752235,19554.937727,179.573915,5180.284998,0.006000,-0.020000,1.008000,192.000000,0.000000,0.000000,0.000000,0.000000,0.000000,0.000000,0.000000,0.000000,0.000000,1764346134.310920,0.000000
212.000000,23105.087650,26751.730055,14231.914488,20237.537651,26108.916236,-1742.318480,-9906.941343,17751.509577,24331.840793,21308.655597,3897.138405,-6361.194713,21944.428616,19578.585872,195.331895,5149.104315,0.006000,-0.020000,1.008000,192.000000,0.000000,0.000000,0.000000,0.000000,0.000000,0.000000,0.000000,0.000000,0.000000,1764346134.318020,0.000000
214.000000,23103.187752,26753.562898,14221.185651,20228.507546,26129.166917,-1761.004539,-9931.885890,17739.752560,24396.325576,21297.882056,3877.468869,-6389.670836,21939.399474,19557.172901,185.094796,5178.943894,0.008000,-0.020000,1.009000,192.000000,0.000000,40.000000,127.500000,48.000000,15.500000,72.000000,0.000000,0.000000,0.000000,1764346134.326998,0.000000
216.000000,23106.451107,26756.535680,14237.189500,20241.091578,26106.144620,-1740.753858,-9897.911238,17758.908005,24381.059334,21306.040443,3884.308503,-6374.605760,21945.166224,19570.807465,188.782834,5162.895341,0.008000,-0.020000,1.009000,192.000000,0.000000,0.000000,0.000000,0.000000,0.000000,0.000000,0.000000,0.000000,0.000000,1764346134.334983,0.000000
218.000000,23101.310206,26749.070197,14216.916468,20229.535726,26108.916236,-1752.801448,-9928.399018,17740.646629,24327.996293,21299.893713,3888.041245,-6370.962426,21933.632724,19571.500369,191.062712,5164.102335,0.008000,-0.020000,1.009000,192.000000,0.000000,0.000000,0.000000,0.000000,0.000000,0.000000,0.000000,0.000000,0.000000,1764346134.342001,0.000000
220.000000,23110.340310,26756.982715,14229.925183,20235.704808,26113.967730,-1747.638195,-9912.775148,17755.175263,24420.376053,21301.391280,3873.646721,-6396.175193,21939.310067,19556.837625,178.813956,5182.408414,0.008000,-0.020000,1.009000,192.000000,0.000000,0.000000,0.000000,0.000000,0.000000,0.000000,0.000000,0.000000,0.000000,1764346134.350051,0.000000
222.000000,23106.764031,26756.245107,14233.054427,20239.437549,26099.908483,-1743.458419,-9905.756701,17758.058638,24332.600752,21305.168725,3899.664152,-6354.377431,21944.875651,19579.994032,192.448520,5150.914806,0.008000,-0.020000,1.009000,192.000000,0.000000,0.000000,0.000000,0.000000,0.000000,0.000000,0.000000,0.000000,0.000000,1764346134.360087,0.000000
224.000000,23105.691148,26749.271363,14222.459700,20229.669837,26130.105690,-1763.329120,-9929.561309,17745.653420,24394.962119,21299.714899,3881.492183,-6384.418176,21943.378084,19558.715172,181.630275,5181.536696,0.008000,-0.020000,1.006500,192.000000,0.000000,32.000000,127.500000,48.000000,15.500000,48.000000,0.000000,0.000000,0.000000,1764346134.367134,0.000000
226.000000,23110.452069,26758.145005,14243.090361,20243.103235,26120.785012,-1733.444838,-9894.670235,17767.826351,24388.390707,21307.403899,3890.634047,-6371.342405,21952.385837,19571.612128,186.793528,5162.269492,0.008000,-0.020000,1.006500,192.000000,0.000000,0.000000,0.000000,0.000000,0.000000,0.000000,0.000000,0.000000,0.000000,1764346134.374153,0.000000
228.000000,23109.826220,26755.887479,14226.259497,20232.553212,26126.395300,-1757.517667,-9923.861614,17751.755446,24341.563802,21304.162896,3899.462986,-6365.419193,21949.323648,19574.204931,191.442691,5164.191742,0.008000,-0.020000,1.006500,192.000000,0.000000,0.000000,0.000000,0.000000,0.000000,0.000000,0.000000,0.000000,0.000000,1764346134.382152,0.000000
230.000000,23113.558962,26759.441407,14236.586003,20236.621229,26132.340864,-1756.467135,-9909.489442,17761.791380,24427.260390,21304.900504,3884.956704,-6386.295722,21949.144834,19558.804579,184.312485,5177.021644,0.008000,-0.020000,1.006500,192.000000,0.000000,0.000000,0.000000,0.000000,0.000000,0.000000,0.000000,0.000000,0.000000,1764346134.391193,0.000000
232.000000,23110.407366,26754.993410,14238.888233,20239.370494,26112.738384,-1743.234902,-9902.470994,17762.171359,24332.086662,21308.074451,3904.268611,-6355.942053,21946.574384,19579.435239,197.120034,5147.942024,0.008000,-0.020000,1.006500,192.000000,0.000000,0.000000,0.000000,0.000000,0.000000,0.000000,0.000000,0.000000,0.000000,1764346134.398221,0.000000
234.000000,23105.825258,26748.667866,14228.360561,20229.155747,26131.156222,-1762.211533,-9929.203681,17745.139330,24394.828009,21297.837352,3886.007236,-6386.340426,21947.311991,19559.341021,187.486432,5176.060519,0.007000,-0.020000,1.005250,192.000000,0.000000,24.000000,127.500000,48.000000,15.500000,48.000000,0.000000,0.000000,0.000000,1764346134.406243,0.000000
236.000000,23109.178020,26756.826253,14245.258480,20244.757264,26116.515829,-1733.757762,-9895.988988,17762.104304,24388.368355,21308.052100,3893.025684,-6373.354062,21951.648230,19575.903663,192.917906,5159.296710,0.007000,-0.020000,1.005250,192.000000,0.000000,0.000000,0.000000,0.000000,0.000000,0.000000,0.000000,0.000000,0.000000,1764346134.415263,0.000000
238.000000,23099.343252,26749.874860,14224.739578,20234.251944,26117.588713,-1752.220303,-9927.460245,17740.825443,24335.394720,21304.274655,3894.992637,-6369.308396,21945.389741,19580.642233,197.164738,5166.158696,0.007000,-0.020000,1.005250,192.000000,0.000000,0.000000,0.000000,0.000000,0.000000,0.000000,0.000000,0.000000,0.000000,1764346134.422297,0.000000
240.000000,23107.903970,26758.972020,14235.848395,20238.118796,26127.535239,-1746.297091,-9913.624515,17750.235528,24426.433376,21305.258132,3879.078195,-6397.292781,21945.300334,19564.705439,184.379540,5186.208211,0.007000,-0.020000,1.005250,192.000000,0.000000,0.000000,0.000000,0.000000,0.000000,0.000000,0.000000,0.000000,0.000000,1764346134.430345,0.000000
242.000000,23104.998243,26751.573593,14237.055390,20237.604706,26108.335091,-1738.406925,-9907.366026,17751.531929,24332.086662,21308.879114,3900.737035,-6362.491114,21949.614221,19584.889064,197.164738,5155.541617,0.007000,-0.020000,1.005250,192.000000,0.000000,0.000000,0.000000,0.000000,0.000000,0.000000,0.000000,0.000000,0.000000,1764346134.438889,0.000000
244.000000,23104.819429,26748.511404,14225.834814,20225.981799,26129.479841,-1763.373824,-9931.930593,17738.657324,24388.725983,21297.703242,3881.872163,-6393.403577,21942.975753,19559.028096,184.647761,5182.050786,0.008500,-0.021000,1.005625,192.000000,0.000000,40.000000,127.500000,40.000000,15.500000,56.000000,0.000000,0.000000,0.000000,1764346134.447467,0.000000
246.000000,23108.641578,26753.875822,14245.347887,20239.549308,26112.850143,-1730.315594,-9898.671198,17759.064467,24384.680317,21305.682815,3889.404701,-6376.349196,21949.010724,19572.461495,189.453386,5165.622254,0.008500,-0.021000,1.005625,192.000000,0.000000,0.000000,0.000000,0.000000,0.000000,0.000000,0.000000,0.000000,0.000000,1764346134.454490,0.000000
248.000000,23106.607569,26750.590116,14229.835776,20230.541555,26122.014358,-1752.846152,-9925.806216,17744.044095,24341.072064,21307.113326,3897.987771,-6371.297702,21949.122482,19571.790942,194.773101,5165.041109,0.008500,-0.021000,1.005625,192.000000,0.000000,0.000000,0.000000,0.000000,0.000000,0.000000,0.000000,0.000000,0.000000,1764346134.462455,0.000000
250.000000,23105.065299,26752.154738,14238.977640,20234.117834,26129.479841,-1748.733431,-9911.456396,17754.437656,24427.372149,21300.363100,3882.989750,-6392.531859,21952.832872,19558.066971,181.920848,5180.799089,0.008500,-0.021000,1.005625,192.000000,0.000000,0.000000,0.000000,0.000000,0.000000,0.000000,0.000000,0.000000,0.000000,1764346134.470455,0.000000
252.000000,23104.797078,26749.405473,14239.938765,20236.084787,26109.072698,-1744.643062,-9905.577887,17755.219967,24330.902020,21300.877190,3901.251125,-6362.088783,21947.848433,19577.133009,200.785720,5148.344356,0.008500,-0.021000,1.005625,192.000000,0.000000,0.000000,0.000000,0.000000,0.000000,0.000000,0.000000,0.000000,0.000000,1764346134.478487,0.000000
254.000000,23103.657139,26750.523061,14227.600602,20226.652351,26129.166917,-1761.988015,-9929.963640,17743.284135,24395.543265,21295.065736,3883.727358,-6390.609609,21948.206061,19557.307012,188.849889,5178.541562,0.008250,-0.021500,1.005812,192.000000,0.000000,32.000000,127.500000,40.000000,15.500000,56.000000,0.000000,0.000000,0.000000,1764346134.486536,0.000000
0.000000,23105.758203,26755.283982,14244.051486,20241.046875,26109.922065,-1737.356393,-9896.301913,17762.126656,24383.450971,21305.414594,3890.790509,-6375.432774,21948.362523,19571.209797,191.822671,5163.722356,0.008250,-0.021500,1.005812,192.000000,0.000000,0.000000,0.000000,0.000000,0.000000,0.000000,0.000000,0.000000,0.000000,1764346134.494600,0.000000
2.000000,23099.298549,26748.243183,14227.108863,20230.116872,26113.811268,-1758.098812,-9926.275602,17740.579574,24332.019607,21304.542876,3895.059692,-6369.800135,21942.081683,19573.087343,195.957744,5165.957530,0.008250,-0.021500,1.005812,192.000000,0.000000,0.000000,0.000000,0.000000,0.000000,0.000000,0.000000,0.000000,0.000000,1764346134.502535,0.000000
4.000000,23101.109040,26752.065331,14237.681238,20234.363703,26124.942437,-1752.242655,-9912.641038,17749.430865,24417.738547,21300.877190,3878.541753,-6397.806871,21943.847471,19557.083494,185.832403,5181.246123,0.008250,-0.021500,1.005812,192.000000,0.000000,0.000000,0.000000,0.000000,0.000000,0.000000,0.000000,0.000000,0.000000,1764346134.509557,0.000000
6.000000,23094.068240,26743.549316,14235.848395,20236.867098,26100.511980,-1741.513817,-9907.723654,17748.134464,24324.263552,21300.720728,3897.943067,-6365.173324,21939.220660,19576.060125,196.941220,5153.105277,0.008250,-0.021500,1.005812,192.000000,0.000000,0.000000,0.000000,0.000000,0.000000,0.000000,0.000000,0.000000,0.000000,1764346134.518650,0.000000
8.000000,23092.861246,26741.358845,14223.711398,20225.244191,26120.829716,-1768.268856,-9934.009306,17734.343437,24380.209968,21291.109477,3876.664207,-6396.979856,21932.962171,19551.517910,183.664284,5180.128536,0.010125,-0.021750,1.006906,192.000000,0.000000,48.000000,127.500000,40.000000,15.500000,64.000000,0.000000,0.000000,0.000000,1764346134.526651,0.000000
10.000000,23102.204275,26750.478357,14243.157416,20239.415197,26105.094088,-1744.128972,-9898.894715,17758.103342,24370.866939,21294.529294,3886.677788,-6382.719443,21935.152642,19561.039753,188.112281,5159.631987,0.010125,-0.021750,1.006906,192.000000,0.000000,0.000000,0.000000,0.000000,0.000000,0.000000,0.000000,0.000000,0.000000,1764346134.533638,0.000000
12.000000,23100.125563,26745.605677,14227.578250,20229.155747,26110.726727,-1763.932617,-9928.108445,17742.010086,24326.655188,21294.864570,3895.976114,-6373.689338,21938.259535,19564.772494,192.157947,5161.263664,0.010125,-0.021750,1.006906,192.000000,0.000000,0.000000,0.000000,0.000000,0.000000,0.000000,0.000000,0.000000,0.000000,1764346134.541730,0.000000
14.000000,23109.133316,26754.792244,14241.391628,20235.213069,26123.869553,-1754.030794,-9911.501099,17757.097513,24424.309960,21296.563303,3881.961570,-6395.795214,21943.199270,19552.166111,183.351360,5179.837964,0.010125,-0.021750,1.006906,192.000000,0.000000,0.000000,0.000000,0.000000,0.000000,0.000000,0.000000,0.000000,0.000000,1764346134.550747,0.000000
16.000000,23107.635749,26755.015761,14241.704552,20237.694113,26107.373966,-1747.548788,-9906.024922,17757.030458,24331.572572,21305.481649,3907.599021,-6359.183056,21950.597698,19578.943500,197.522366,5148.344356,0.010125,-0.021750,1.006906,192.000000,0.000000,0.000000,0.000000,0.000000,0.000000,0.000000,0.000000,0.000000,0.000000,1764346134.558761,0.000000
18.000000,23110.340310,26751.819462,14230.618087,20228.909877,26130.776242,-1761.540981,-9930.947117,17745.362847,24392.861055,21293.858742,3886.141346,-6391.101347,21949.949497,19556.077666,187.352322,5180.195591,0.010063,-0.020875,1.005453,192.000000,0.000000,40.000000,127.500000,48.000000,15.500000,48.000000,0.000000,0.000000,0.000000,1764346134.565791,0.000000
20.000000,23113.402499,26754.971058,14246.152550,20242.142110,26111.307873,-1732.729582,-9898.693549,17763.646574,24386.691974,21301.100707,3896.736073,-6375.321016,21956.163282,19569.444009,197.991752,5159.833152,0.010063,-0.020875,1.005453,192.000000,0.000000,0.000000,0.000000,0.000000,0.000000,0.000000,0.000000,0.000000,0.000000,1764346134.573828,0.000000
22.000000,23106.384052,26747.550279,14226.728884,20231.726197,26117.521658,-1753.069669,-9928.175500,17742.948859,24335.595886,21297.077393,3898.077178,-6370.180115,21946.082645,19570.405134,201.523328,5166.382213,0.010063,-0.020875,1.005453,192.000000,0.000000,0.000000,0.000000,0.000000,0.000000,0.000000,0.000000,0.000000,0.000000,1764346134.582816,0.000000
24.000000,23110.943807,26755.507500,14236.496596,20239.482253,26123.601332,-1744.710117,-9914.250364,17752.269537,24420.130184,21299.893713,3878.653512,-6395.996379,21947.200232,19556.971736,189.229869,5184.196554,0.010063,-0.020875,1.005453,192.000000,0.000000,0.000000,0.000000,0.000000,0.000000,0.000000,0.000000,0.000000,0.000000,1764346134.589880,0.000000
26.000000,23108.775688,26756.245107,14235.960154,20245.249003,26103.373003,-1738.339870,-9907.477785,17754.795284,24324.554124,21312.053062,3899.060655,-6359.674795,21949.189538,19584.196160,199.802244,5152.412373,0.010063,-0.020875,1.005453,192.000000,0.000000,0.000000,0.000000,0.000000,0.000000,0.000000,0.000000,0.000000,0.000000,1764346134.597914,0.000000
28.000000,23100.617302,26752.110034,14223.890212,20234.117834,26119.846239,-1762.479754,-9934.210471,17740.132539,24382.400439,21299.290216,3878.452346,-6386.340426,21943.646305,19562.157340,189.207517,5183.526001,0.010063,-0.020875,1.005453,192.000000,0.000000,0.000000,0.000000,0.000000,0.000000,0.000000,0.000000,0.000000,0.000000,1764346134.605958,0.000000
30.000000,23107.971025,26760.201366,14244.185596,20247.662991,26106.792820,-1734.160094,-9899.051177,17761.277290,24373.526797,21306.956864,3885.962532,-6372.527048,21947.021418,19574.741372,192.537927,5168.595036,0.010000,-0.020000,1.000000,192.000000,0.000000,40.000000,127.500000,48.000000,15.500000,32.000000,0.000000,0.000000,0.000000,1764346134.614969,0.000000
32.000000,23106.428755,26758.301468,14226.460663,20236.598878,26111.732556,-1747.749954,-9928.644887,17743.172377,24330.633799,21303.134716,3893.807995,-6368.079051,21943.378084,19577.356527,197.477662,5168.483277,0.010000,-0.020000,1.000000,192.000000,0.000000,0.000000,0.000000,0.000000,0.000000,0.000000,0.000000,0.000000,0.000000,1764346134.622206,0.000000
34.000000,23115.078880,26766.638668,14239.469378,20243.572622,26123.534277,-1739.971547,-9911.814023,17757.276327,24421.873620,21307.180382,3879.592285,-6389.067339,21949.457759,19563.543148,187.419377,5188.063406,0.010000,-0.020000,1.000000,192.000000,0.000000,0.000000,0.000000,0.000000,0.000000,0.000000,0.000000,0.000000,0.000000,1764346134.630045,0.000000
36.000000,23109.714462,26765.454026,14237.591831,20244.578450,26101.651919,-1738.585739,-9905.846108,17756.136388,24328.085700,21314.332940,3901.988733,-6354.802114,21947.088474,19589.649986,200.763369,5156.994481,0.010000,-0.020000,1.000000,192.000000,0.000000,0.000000,0.000000,0.000000,0.000000,0.000000,0.000000,0.000000,0.000000,1764346134.639037,0.000000
38.000000,23108.038081,26758.748503,14225.030151,20234.766034,26123.578980,-1752.332062,-9931.103579,17743.105321,24387.139009,21305.772222,3879.257009,-6385.602818,21941.433482,19564.839550,188.045226,5188.018702,0.010000,-0.020000,1.000000,192.000000,0.000000,0.000000,0.000000,0.000000,0.000000,0.000000,0.000000,0.000000,0.000000,1764346134.646055,0.000000
40.000000,23113.916589,26768.382104,14245.325535,20248.802930,26106.681062,-1730.360297,-9896.503079,17764.361830,24381.372259,21311.382510,3888.980018,-6369.978949,21950.731808,19578.027079,191.420340,5168.818554,0.008000,-0.014000,1.002000,192.000000,0.000000,32.000000,127.500000,72.000000,15.500000,40.000000,0.000000,0.000000,0.000000,1764346134.654160,0.000000
42.000000,23106.361700,26758.614392,14226.930049,20236.911802,26114.057137,-1753.270835,-9927.549652,17744.066446,24331.840793,21309.951998,3893.830346,-6365.888580,21946.999067,19580.776343,197.857642,5168.706795,0.008000,-0.014000,1.002000,192.000000,0.000000,0.000000,0.000000,0.000000,0.000000,0.000000,0.000000,0.000000,0.000000,1764346134.662140,0.000000
44.000000,23109.513296,26761.028381,14235.915451,20241.695075,26124.562457,-1745.403021,-9914.920916,17750.570804,24420.264294,21306.219257,3874.898419,-6388.173269,21947.379046,19563.632555,188.604020,5189.806842,0.008000,-0.014000,1.002000,192.000000,0.000000,0.000000,0.000000,0.000000,0.000000,0.000000,0.000000,0.000000,0.000000,1764346134.671179,0.000000
46.000000,23107.501639,26760.894270,14233.322648,20245.986610,26103.037727,-1728.728620,-9909.467090,17751.688391,24323.861220,21310.153164,3893.629181,-6357.909007,21948.340171,19587.683032,202.417398,5162.291844,0.008000,-0.014000,1.002000,192.000000,0.000000,0.000000,0.000000,0.000000,0.000000,0.000000,0.000000,0.000000,0.000000,1764346134.678181,0.000000
48.000000,23104.573560,26757.563860,14220.537450,20235.458939,26127.937571,-1752.041489,-9933.986954,17739.059656,24384.479151,21303.067661,3874.876067,-6385.759280,21943.713360,19566.426523,187.262915,5188.644551,0.008000,-0.014000,1.002000,192.000000,0.000000,0.000000,0.000000,0.000000,0.000000,0.000000,0.000000,0.000000,0.000000,1764346134.687200,0.000000
50.000000,23104.685319,26761.497767,14240.452855,20246.970087,26108.268035,-1732.863692,-9899.811137,17758.930356,24375.717267,21308.834411,3882.185087,-6373.197600,21946.015590,19577.200064,196.248316,5166.873952,0.008000,-0.012000,1.008000,192.000000,0.000000,32.000000,127.500000,80.000000,15.500000,64.000000,0.000000,0.000000,0.000000,1764346134.694296,0.000000
52.000000,23095.610511,26752.355904,14222.213831,20237.068264,26111.777259,-1756.221265,-9929.985992,17738.947897,24322.564819,21305.369890,3885.582553,-6368.771955,21938.281886,19575.434277,201.858604,5165.063460,0.008000,-0.012000,1.008000,192.000000,0.000000,0.000000,0.000000,0.000000,0.000000,0.000000,0.000000,0.000000,0.000000,1764346134.703940,0.000000
54.000000,23106.294645,26762.570651,14235.736637,20246.478349,26123.042539,-1744.486600,-9912.797500,17753.811807,24411.614169,21301.950073,3868.863448,-6391.101347,21940.964096,19562.805541,190.146290,5187.862240,0.008000,-0.012000,1.008000,192.000000,0.000000,0.000000,0.000000,0.000000,0.000000,0.000000,0.000000,0.000000,0.000000,1764346134.711206,0.000000
56.000000,23113.111927,26770.214947,14241.257517,20252.982706,26109.206809,-1731.187312,-9903.521526,17761.746676,24327.549258,21317.953923,3897.183108,-6350.667042,21950.575346,19593.986224,205.077255,5158.804972,0.008000,-0.012000,1.008000,192.000000,0.000000,0.000000,0.000000,0.000000,0.000000,0.000000,0.000000,0.000000,0.000000,1764346134.718528,0.000000
58.000000,23112.329616,26767.286869,14230.305163,20242.343276,26132.027940,-1745.291262,-9928.801349,17746.882766,24394.179808,21311.337806,3881.961570,-6378.383205,21948.921317,19573.109695,194.214308,5190.075063,0.008000,-0.012000,1.008000,192.000000,0.000000,0.000000,0.000000,0.000000,0.000000,0.000000,0.000000,0.000000,0.000000,1764346134.727364,0.000000
60.000000,23116.576447,26773.724171,14249.393552,20256.290764,26116.404070,-1720.525529,-9894.402015,17765.702935,24384.948538,21317.708053,3890.410529,-6364.726289,21951.827044,19584.889064,198.595249,5171.970150,0.004000,-0.016000,1.010000,192.000000,0.000000,16.000000,127.500000,64.000000,15.500000,72.000000,0.000000,0.000000,0.000000,1764346134.733368,0.000000
62.000000,23113.715424,26767.018648,14228.651134,20244.511395,26118.371024,-1741.066783,-9926.230899,17744.066446,24337.361674,21316.165783,3895.484375,-6360.166533,21951.894099,19586.453687,202.551508,5173.177144,0.004000,-0.016000,1.010000,192.000000,0.000000,0.000000,0.000000,0.000000,0.000000,0.000000,0.000000,0.000000,0.000000,1764346134.742379,0.000000
64.000000,23116.777613,26767.376276,14238.776474,20247.171253,26130.753890,-1737.468152,-9913.177480,17752.738923,24427.685073,21312.522449,3876.105413,-6386.854516,21952.654058,19569.935747,191.733264,5191.907906,0.004000,-0.016000,1.010000,192.000000,0.000000,0.000000,0.000000,0.000000,0.000000,0.000000,0.000000,0.000000,0.000000,1764346134.750466,0.000000
66.000000,23110.899104,26765.878709,14240.318744,20247.551232,26115.062966,-1729.577986,-9908.237744,17753.118903,24336.333494,21314.623513,3896.400797,-6355.383260,21953.078741,19591.862809,205.636049,5161.353071,0.004000,-0.016000,1.010000,192.000000,0.000000,0.000000,0.000000,0.000000,0.000000,0.000000,0.000000,0.000000,0.000000,1764346134.758469,0.000000
68.000000,23111.502601,26762.727113,14229.612259,20236.241250,26133.369044,-1747.861713,-9932.645849,17740.110188,24397.644329,21304.185248,3881.559239,-6383.904086,21954.285735,19570.159265,194.907212,5188.935124,0.004000,-0.016000,1.010000,192.000000,0.000000,0.000000,0.000000,0.000000,0.000000,0.000000,0.000000,0.000000,0.000000,1764346134.767503,0.000000
70.000000,23108.485116,26763.174148,14243.917375,20246.701866,26111.218466,-1731.611995,-9900.951076,17754.124731,24387.943672,21308.990873,3885.940181,-6373.599931,21958.309049,19579.077611,197.142386,5175.546429,0.002000,-0.014000,1.010000,192.000000,0.000000,8.000000,127.500000,72.000000,15.500000,72.000000,0.000000,0.000000,0.000000,1764346134.774554,0.000000
72.000000,23100.751412,26755.239279,14225.231317,20236.755340,26116.314663,-1757.204742,-9930.053047,17734.589307,24330.879668,21301.659501,3885.560201,-6371.051833,21950.061256,19578.205893,200.919831,5174.562952,0.002000,-0.014000,1.010000,192.000000,0.000000,0.000000,0.000000,0.000000,0.000000,0.000000,0.000000,0.000000,0.000000,1764346134.783554,0.000000
74.000000,23112.217857,26766.303392,14235.200195,20244.042008,26125.076547,-1742.184370,-9914.518585,17749.430865,24417.202105,21300.094879,3869.958683,-6392.800080,21949.435407,19564.280756,187.620543,5191.751443,0.002000,-0.014000,1.010000,192.000000,0.000000,0.000000,0.000000,0.000000,0.000000,0.000000,0.000000,0.000000,0.000000,1764346134.789570,0.000000
76.000000,23112.463726,26769.075009,14237.971811,20249.629945,26109.206809,-1730.472056,-9906.896640,17754.839987,24328.823308,21313.617684,3895.305561,-6355.696184,21951.245898,19592.980396,201.925659,5165.890475,0.002000,-0.014000,1.010000,192.000000,0.000000,0.000000,0.000000,0.000000,0.000000,0.000000,0.000000,0.000000,0.000000,1764346134.798569,0.000000
78.000000,23118.275180,26771.913680,14229.791073,20243.080883,26135.224239,-1748.688727,-9929.561309,17746.793359,24394.649195,21307.940341,3882.810936,-6378.964350,21950.396532,19574.115524,192.649685,5195.461833,0.002000,-0.014000,1.010000,192.000000,0.000000,0.000000,0.000000,0.000000,0.000000,0.000000,0.000000,0.000000,0.000000,1764346134.806663,0.000000
80.000000,23113.871886,26774.640593,14248.790055,20255.508453,26115.197076,-1722.783056,-9896.234858,17763.579519,24393.062221,21318.959751,3891.773986,-6364.502771,21960.991259,19587.235998,197.991752,5177.826307,0.002000,-0.016000,1.014000,192.000000,0.000000,8.000000,127.500000,64.000000,15.500000,88.000000,0.000000,0.000000,0.000000,1764346134.814653,0.000000
82.000000,23108.596874,26764.269383,14229.925183,20242.790311,26115.934684,-1747.101754,-9925.962678,17743.909984,24341.764968,21311.851896,3896.825480,-6361.082955,21953.726942,19586.587797,204.049075,5176.686368,0.002000,-0.016000,1.014000,192.000000,0.000000,0.000000,0.000000,0.000000,0.000000,0.000000,0.000000,0.000000,0.000000,1764346134.821659,0.000000
84.000000,23111.837877,26767.555090,14239.961116,20247.238308,26120.919123,-1745.425373,-9912.529279,17752.023667,24422.834745,21305.235780,3879.189954,-6386.608647,21952.587003,19567.186483,191.576802,5194.523060,0.002000,-0.016000,1.014000,192.000000,0.000000,0.000000,0.000000,0.000000,0.000000,0.000000,0.000000,0.000000,0.000000,1764346134.830668,0.000000
86.000000,23105.467630,26761.274250,14238.642363,20249.004096,26094.678175,-1746.095925,-9907.321323,17750.771970,24330.857316,21307.470954,3899.083006,-6356.523199,21954.039866,19586.766611,203.333819,5164.616426,0.002000,-0.016000,1.014000,192.000000,0.000000,0.000000,0.000000,0.000000,0.000000,0.000000,0.000000,0.000000,0.000000,1764346134.838734,0.000000
88.000000,23107.926322,26762.503596,14228.069988,20238.766997,26118.505134,-1754.187257,-9932.020000,17738.769083,24389.128314,21298.150277,3880.531058,-6387.167440,21947.401398,19565.420695,189.609848,5191.818499,0.002000,-0.016000,1.014000,192.000000,0.000000,0.000000,0.000000,0.000000,0.000000,0.000000,0.000000,0.000000,0.000000,1764346134.845666,0.000000
90.000000,23115.280046,26773.321840,14247.538358,20252.446264,26106.323434,-1727.007535,-9897.128927,17761.143179,24388.234244,21307.739175,3893.495070,-6368.771955,21956.587965,19580.061088,195.331895,5167.410394,0.002000,-0.016000,1.014000,192.000000,0.000000,0.000000,127.500000,40.000000,15.500000,72.000000,0.000000,0.000000,0.000000,1764346134.853764,0.000000
92.000000,23108.708633,26764.157625,14226.572421,20241.739779,26110.749079,-1747.839361,-9926.499120,17742.032438,24331.639627,21303.402937,3895.931410,-6363.407536,21944.674485,19578.272948,202.864433,5173.557123,0.002000,-0.016000,1.014000,192.000000,0.000000,0.000000,0.000000,0.000000,0.000000,0.000000,0.000000,0.000000,0.000000,1764346134.862827,0.000000
94.000000,23114.408328,26769.745561,14239.536433,20248.154729,26119.801536,-1738.250463,-9911.635210,17754.124731,24423.572352,21307.873286,3881.291018,-6385.625170,21950.754160,19565.174826,191.062712,5192.891382,0.002000,-0.016000,1.014000,192.000000,0.000000,0.000000,0.000000,0.000000,0.000000,0.000000,0.000000,0.000000,0.000000,1764346134.869872,0.000000
96.000000,23110.653235,26768.560918,14242.196291,20250.524014,26096.935701,-1734.070687,-9905.264962,17755.532891,24332.801918,21310.756661,3902.793396,-6350.577635,21950.731808,19589.761745,204.741979,5164.057632,0.002000,-0.016000,1.014000,192.000000,0.000000,0.000000,0.000000,0.000000,0.000000,0.000000,0.000000,0.000000,0.000000,1764346134.877892,0.000000
98.000000,23110.228552,26766.661020,14231.758026,20242.611497,26121.410861,-1754.120201,-9929.181329,17745.564013,24393.665718,21302.262998,3886.767195,-6379.120812,21948.183709,19569.108733,192.604982,5193.517231,0.002000,-0.016000,1.014000,192.000000,0.000000,0.000000,0.000000,0.000000,0.000000,0.000000,0.000000,0.000000,0.000000,1764346134.886944,0.000000
100.000000,23114.609494,26776.786360,14250.131160,20258.458884,26106.412841,-1721.956041,-9894.089090,17767.222854,24388.837741,21314.221181,3897.227811,-6360.077126,21955.000991,19583.011518,197.812938,5175.635836,0.002000,-0.016000,1.014000,192.000000,0.000000,0.000000,127.500000,24.000000,15.500000,104.000000,0.000000,0.000000,0.000000,1764346134.894936,0.000000
102.000000,23110.295607,26770.103189,14229.366389,20246.590107,26108.804477,-1745.000690,-9924.398056,17748.939127,24338.099282,21312.008358,3902.838099,-6355.897350,21950.351828,19586.118410,200.830424,5176.485202,0.002000,-0.016000,1.014000,192.000000,0.000000,0.000000,0.000000,0.000000,0.000000,0.000000,0.000000,0.000000,0.000000,1764346134.901989,0.000000
104.000000,23109.490944,26772.025439,14238.955288,20247.506529,26115.688815,-1744.397193,-9911.299933,17757.499845,24422.097137,21304.900504,3883.593247,-6381.914780,21949.256593,19566.918262,190.213345,5194.545411,0.002000,-0.016000,1.014000,192.000000,0.000000,0.000000,0.000000,0.000000,0.000000,0.000000,0.000000,0.000000,0.000000,1764346134.909993,0.000000
106.000000,23103.992415,26764.604660,14238.262384,20248.869985,26091.526579,-1734.741239,-9906.539012,17754.728228,24327.661017,21306.621588,3902.145195,-6351.158780,21945.143872,19586.453687,203.400875,5164.281149,0.002000,-0.016000,1.014000,192.000000,0.000000,0.000000,0.000000,0.000000,0.000000,0.000000,0.000000,0.000000,0.000000,1764346134.918990,0.000000
108.000000,23095.543456,26755.887479,14225.968924,20238.387017,26111.956073,-1753.337890,-9931.371800,17738.590269,24384.568558,21294.439887,3880.508707,-6384.261714,21939.980619,19562.403209,192.806148,5195.260667,0.002000,-0.016000,1.014000,192.000000,0.000000,0.000000,0.000000,0.000000,0.000000,0.000000,0.000000,0.000000,0.000000,1764346134.927024,0.000000
110.000000,23101.377261,26762.525947,14244.386762,20252.535671,26096.287500,-1727.566329,-9896.346616,17759.064467,24375.314936,21300.385451,3886.476622,-6371.700033,21939.421825,19573.668489,195.242488,5178.541562,0.003000,-0.018000,1.016000,192.000000,0.000000,16.000000,127.500000,48.000000,15.500000,104.000000,0.000000,0.000000,0.000000,1764346134.934049,0.000000
112.000000,23096.258711,26756.803901,14229.880480,20244.198471,26102.545989,-1746.431201,-9925.605050,17742.144196,24328.756252,21300.273693,3896.892535,-6364.569827,21944.450968,19579.725811,199.914002,5179.882667,0.003000,-0.018000,1.016000,192.000000,0.000000,0.000000,0.000000,0.000000,0.000000,0.000000,0.000000,0.000000,0.000000,1764346134.943106,0.000000
114.000000,23104.059470,26763.397665,14241.615145,20250.322849,26115.621759,-1737.669317,-9911.031712,17753.431827,24418.453803,21300.072527,3879.368768,-6389.648484,21947.624916,19566.314765,187.017046,5201.966191,0.003000,-0.018000,1.016000,192.000000,0.000000,0.000000,0.000000,0.000000,0.000000,0.000000,0.000000,0.000000,0.000000,1764346134.951182,0.000000
116.000000,23100.460839,26760.290773,14239.692895,20252.133340,26096.041631,-1728.795675,-9904.728520,17752.291888,24327.213982,21307.023919,3900.781739,-6355.226797,21950.083607,19591.326367,203.512633,5170.584341,0.003000,-0.018000,1.016000,192.000000,0.000000,0.000000,0.000000,0.000000,0.000000,0.000000,0.000000,0.000000,0.000000,1764346134.958133,0.000000
118.000000,23095.230531,26753.317029,14223.689046,20239.303439,26116.985216,-1747.995823,-9932.176463,17735.393969,24386.021422,21296.786821,3877.535925,-6389.357911,21941.657000,19566.851207,192.135595,5203.776682,0.003000,-0.018000,1.016000,192.000000,0.000000,0.000000,0.000000,0.000000,0.000000,0.000000,0.000000,0.000000,0.000000,1764346134.966161,0.000000
120.000000,23098.873865,26761.430712,14243.559747,20254.100293,26103.752983,-1722.023096,-9897.173631,17756.181092,24378.622994,21303.335882,3883.593247,-6374.538705,21944.316857,19580.016384,195.778930,5185.112975,0.004500,-0.017000,1.013000,192.000000,0.000000,24.000000,127.500000,64.000000,15.500000,72.000000,0.000000,0.000000,0.000000,1764346134.974240,0.000000
122.000000,23093.017708,26755.328686,14225.521889,20243.282049,26108.446849,-1742.854922,-9926.990858,17737.070350,24332.779566,21299.401975,3891.438710,-6366.648539,21942.260497,19585.492562,202.171529,5183.950685,0.004500,-0.017000,1.013000,192.000000,0.000000,0.000000,0.000000,0.000000,0.000000,0.000000,0.000000,0.000000,0.000000,1764346134.982210,0.000000
124.000000,23096.191656,26757.854433,14235.043733,20247.841805,26117.186381,-1733.243672,-9913.132776,17747.329801,24416.129221,21297.949111,3873.154983,-6396.845746,21942.528718,19571.120390,189.386331,5202.726150,0.004500,-0.017000,1.013000,192.000000,0.000000,0.000000,0.000000,0.000000,0.000000,0.000000,0.000000,0.000000,0.000000,1764346134.990219,0.000000
126.000000,23091.274272,26753.495843,14233.322648,20249.272317,26097.516846,-1731.366126,-9906.851936,17746.748656,24323.503592,21301.458335,3892.958628,-6361.820562,21941.500538,19593.181562,201.299811,5171.076080,0.004500,-0.017000,1.013000,192.000000,0.000000,0.000000,0.000000,0.000000,0.000000,0.000000,0.000000,0.000000,0.000000,1764346134.998359,0.000000
128.000000,23092.660081,26751.953572,14223.867860,20237.761168,26120.539143,-1749.158114,-9932.042352,17734.924583,24380.947576,21292.294120,3874.205515,-6392.442452,21934.437386,19567.857035,190.973305,5200.803900,0.004500,-0.017000,1.013000,192.000000,0.000000,0.000000,0.000000,0.000000,0.000000,0.000000,0.000000,0.000000,0.000000,1764346135.007329,0.000000
130.000000,23099.522066,26759.173186,14242.822140,20251.418084,26107.530428,-1715.585794,-9899.162936,17754.392952,24381.707535,21300.407803,3885.940181,-6376.751527,21944.026285,19581.581006,196.628296,5181.737862,0.004250,-0.016500,1.010500,192.000000,0.000000,16.000000,127.500000,64.000000,15.500000,64.000000,0.000000,0.000000,0.000000,1764346135.014314,0.000000
132.000000,23089.016746,26749.539584,14221.990314,20239.281087,26110.927893,-1744.218379,-9929.740123,17734.410493,24325.291732,21296.160972,3890.723454,-6370.470687,21937.924258,19579.614053,201.523328,5184.598885,0.004250,-0.016500,1.010500,192.000000,0.000000,0.000000,0.000000,0.000000,0.000000,0.000000,0.000000,0.000000,0.000000,1764346135.022324,0.000000
134.000000,23098.359775,26758.346171,14232.003895,20243.036180,26115.957036,-1735.970585,-9915.345599,17746.838063,24414.698710,21293.992852,3872.551486,-6398.253906,21937.186651,19563.252576,187.844060,5200.848603,0.004250,-0.016500,1.010500,192.000000,0.000000,0.000000,0.000000,0.000000,0.000000,0.000000,0.000000,0.000000,0.000000,1764346135.030403,0.000000
136.000000,23100.036156,26759.821386,14234.619049,20245.293706,26095.952224,-1735.925881,-9907.164861,17749.341458,24323.972979,21301.078355,3897.116053,-6362.111135,21940.025322,19584.374974,199.869299,5164.772888,0.004250,-0.016500,1.010500,192.000000,0.000000,0.000000,0.000000,0.000000,0.000000,0.000000,0.000000,0.000000,0.000000,1764346135.038407,0.000000
138.000000,23099.365604,26756.222755,14222.146776,20232.776729,26114.571227,-1764.469059,-9933.986954,17735.304562,24384.233282,21295.289254,3880.531058,-6392.241286,21938.863032,19560.235090,190.079235,5192.198478,0.004250,-0.016500,1.010500,192.000000,0.000000,0.000000,0.000000,0.000000,0.000000,0.000000,0.000000,0.000000,0.000000,1764346135.046489,0.000000
140.000000,23110.317959,26767.309221,14243.224471,20247.551232,26103.641224,-1735.635309,-9897.754776,17760.293813,24383.853302,21298.731422,3891.014027,-6376.125679,21943.802767,19569.958099,192.448520,5173.758289,0.004125,-0.018250,1.010250,192.000000,0.000000,16.000000,127.500000,48.000000,15.500000,72.000000,0.000000,0.000000,0.000000,1764346135.054499,0.000000
142.000000,23100.952578,26757.541508,14226.371256,20235.570697,26108.133925,-1745.425373,-9926.879099,17739.596097,24337.093453,21293.679928,3898.703027,-6367.922588,21944.361561,19571.388611,197.567069,5172.707757,0.004125,-0.018250,1.010250,192.000000,0.000000,0.000000,0.000000,0.000000,0.000000,0.000000,0.000000,0.000000,0.000000,1764346135.061523,0.000000
144.000000,23103.746546,26765.498729,14237.010686,20240.622192,26121.030882,-1740.753858,-9913.043369,17750.682563,24422.968855,21292.830562,3879.257009,-6394.118833,21945.903831,19556.323535,192.001485,5195.528888,0.004125,-0.018250,1.010250,192.000000,0.000000,0.000000,0.000000,0.000000,0.000000,0.000000,0.000000,0.000000,0.000000,1764346135.069502,0.000000
146.000000,23107.568694,26765.834006,14237.033038,20246.478349,26098.030936,-1734.875349,-9904.527355,17755.331726,24330.142061,21304.028786,3902.614582,-6354.958577,21946.730846,19581.983338,204.339648,5166.806897,0.004125,-0.018250,1.010250,192.000000,0.000000,0.000000,0.000000,0.000000,0.000000,0.000000,0.000000,0.000000,0.000000,1764346135.078552,0.000000
148.000000,23106.741680,26763.799997,14225.343075,20237.895279,26118.683948,-1750.052184,-9929.561309,17742.010086,24389.530646,21297.166800,3885.671960,-6380.439565,21943.892174,19563.073762,193.007313,5197.719359,0.004125,-0.018250,1.010250,192.000000,0.000000,0.000000,0.000000,0.000000,0.000000,0.000000,0.000000,0.000000,0.000000,1764346135.086571,0.000000
150.000000,23109.580351,26768.627974,14242.106884,20249.182910,26095.952224,-1731.321422,-9896.927762,17759.556205,24386.826084,21303.492344,3893.651532,-6369.241341,21946.060293,19574.137875,193.297886,5175.725243,0.004063,-0.018125,1.006125,192.000000,0.000000,16.000000,127.500000,56.000000,15.500000,40.000000,0.000000,0.000000,0.000000,1764346135.094166,0.000000
152.000000,23100.125563,26763.241203,14222.683218,20236.867098,26096.712184,-1756.690652,-9926.946154,17739.350228,24332.243125,21299.491382,3896.870184,-6364.972158,21938.773625,19573.310861,195.220136,5178.653321,0.004063,-0.018125,1.006125,192.000000,0.000000,0.000000,0.000000,0.000000,0.000000,0.000000,0.000000,0.000000,0.000000,1764346135.101685,0.000000
154.000000,23101.600778,26759.240241,14232.719151,20240.286915,26104.557646,-1752.600283,-9913.758625,17748.603850,24417.447974,21294.261073,3876.999483,-6392.598914,21941.522889,19554.758913,182.926677,5199.775720,0.004063,-0.018125,1.006125,192.000000,0.000000,0.000000,0.000000,0.000000,0.000000,0.000000,0.000000,0.000000,0.000000,1764346135.110642,0.000000
156.000000,23099.969101,26757.765026,14234.395532,20243.326753,26084.396372,-1740.262120,-9905.868459,17750.593156,24326.990465,21299.089050,3899.798262,-6356.545550,21940.382950,19577.423582,196.203613,5165.666958,0.004063,-0.018125,1.006125,192.000000,0.000000,0.000000,0.000000,0.000000,0.000000,0.000000,0.000000,0.000000,0.000000,1764346135.117693,0.000000
158.000000,23094.649386,26755.865128,14222.817328,20232.039122,26108.692719,-1766.503068,-9932.332925,17736.332743,24383.205102,21288.695489,3881.626294,-6385.647522,21936.896078,19551.339096,185.452424,5194.008970,0.004063,-0.018125,1.006125,192.000000,0.000000,0.000000,0.000000,0.000000,0.000000,0.000000,0.000000,0.000000,0.000000,1764346135.125705,0.000000
160.000000,23099.209142,26761.117787,14242.956250,20245.651334,26099.170875,-1744.173675,-9897.374797,17758.170397,24376.544282,21294.350480,3889.784681,-6372.929379,21943.646305,19560.995050,191.733264,5174.697062,0.003031,-0.018063,1.010063,192.000000,0.000000,8.000000,127.500000,56.000000,15.500000,88.000000,0.000000,0.000000,0.000000,1764346135.134720,0.000000
162.000000,23093.218874,26753.607601,14224.538413,20232.888488,26100.824905,-1758.054108,-9928.063742,17737.405626,24326.811651,21293.814038,3897.786605,-6368.391975,21940.114729,19563.744314,199.243450,5172.506591,0.003031,-0.018063,1.010063,192.000000,0.000000,0.000000,0.000000,0.000000,0.000000,0.000000,0.000000,0.000000,0.000000,1764346135.142801,0.000000
164.000000,23096.348118,26755.194575,14233.613221,20239.258735,26111.397280,-1751.482696,-9914.652695,17745.452254,24410.273064,21287.086163,3874.652550,-6399.662065,21937.276058,19546.645230,185.921810,5196.199441,0.003031,-0.018063,1.010063,192.000000,0.000000,0.000000,0.000000,0.000000,0.000000,0.000000,0.000000,0.000000,0.000000,1764346135.149761,0.000000
166.000000,23096.281063,26753.540546,14234.104959,20243.572622,26088.330279,-1751.192123,-9906.941343,17748.715609,24321.827212,21294.708108,3897.138405,-6358.467800,21939.153604,19573.824951,201.657438,5161.397774,0.003031,-0.018063,1.010063,192.000000,0.000000,0.000000,0.000000,0.000000,0.000000,0.000000,0.000000,0.000000,0.000000,1764346135.157845,0.000000
168.000000,23098.091554,26755.909831,14223.644343,20235.548346,26109.184457,-1759.328158,-9930.388323,17739.193766,24380.902872,21286.348556,3878.720567,-6388.307379,21934.258572,19552.724904,189.274572,5191.773795,0.003031,-0.018063,1.010063,192.000000,0.000000,0.000000,0.000000,0.000000,0.000000,0.000000,0.000000,0.000000,0.000000,1764346135.165845,0.000000
170.000000,23102.807772,26764.068218,14244.029134,20249.585241,26092.666518,-1739.144533,-9896.056044,17760.114999,24381.551073,21297.949111,3890.499936,-6368.727251,21940.919392,19569.868692,192.672037,5173.624179,0.003031,-0.018063,1.010063,192.000000,0.000000,0.000000,0.000000,0.000000,0.000000,0.000000,0.000000,0.000000,0.000000,1764346135.173915,0.000000
172.000000,23100.125563,26760.693104,14228.002933,20239.191680,26098.612082,-1758.188219,-9925.135663,17742.323010,24333.606581,21294.819867,3898.390102,-6362.424059,21937.656038,19571.366259,199.399912,5176.395795,0.008000,-0.022000,1.020000,192.000000,0.000000,32.000000,127.500000,40.000000,15.500000,112.000000,0.000000,0.000000,0.000000,1764346135.181930,0.000000
174.000000,23106.026424,26765.051695,14239.670544,20244.421988,26111.844315,-1749.225169,-9910.919954,17752.805978,24419.191410,21295.222198,3882.721529,-6389.112042,21942.215793,19557.619936,187.151156,5195.730054,0.008000,-0.022000,1.020000,192.000000,0.000000,0.000000,0.000000,0.000000,0.000000,0.000000,0.000000,0.000000,0.000000,1764346135.189890,0.000000
176.000000,23103.679491,26765.431674,14241.346924,20248.691171,26090.699564,-1741.491466,-9903.230954,17753.834159,24329.046825,21300.564265,3905.274439,-6355.293853,21943.534546,19579.278777,201.813901,5163.856466,0.008000,-0.022000,1.020000,192.000000,0.000000,0.000000,0.000000,0.000000,0.000000,0.000000,0.000000,0.000000,0.000000,1764346135.198952,0.000000
178.000000,23102.494848,26759.195537,14227.399436,20237.560003,26113.341881,-1756.645948,-9930.678896,17738.813786,24384.456800,21293.031727,3886.409567,-6384.574638,21938.617163,19559.318669,186.793528,5193.606638,0.008000,-0.022000,1.020000,192.000000,0.000000,0.000000,0.000000,0.000000,0.000000,0.000000,0.000000,0.000000,0.000000,1764346135.205961,0.000000
180.000000,23103.590084,26762.011857,14245.459645,20247.662991,26095.639300,-1737.892835,-9898.179459,17756.963403,24378.265366,21297.904408,3891.528117,-6375.656292,21943.400436,19568.885215,189.587496,5178.407452,0.008000,-0.022000,1.020000,192.000000,0.000000,0.000000,0.000000,0.000000,0.000000,0.000000,0.000000,0.000000,0.000000,1764346135.213990,0.000000
182.000000,23097.376299,26752.467662,14227.622953,20236.688284,26102.210713,-1749.828666,-9927.482596,17739.260821,24327.035168,21294.886922,3896.534907,-6368.749603,21939.824157,19571.746239,196.695351,5176.306388,0.008000,-0.024000,1.012000,192.000000,0.000000,32.000000,127.500000,32.000000,15.500000,80.000000,0.000000,0.000000,0.000000,1764346135.222040,0.000000
184.000000,23103.657139,26757.653267,14238.240032,20241.113930,26113.945379,-1746.252387,-9914.317419,17749.542624,24416.106870,21289.857780,3879.458175,-6393.716501,21942.148738,19554.267175,185.564182,5195.975923,0.008000,-0.024000,1.012000,192.000000,0.000000,0.000000,0.000000,0.000000,0.000000,0.000000,0.000000,0.000000,0.000000,1764346135.230042,0.000000
186.000000,23108.216895,26760.804863,14240.363448,20246.120721,26098.321509,-1734.852998,-9905.510832,17754.527063,24329.605619,21301.324225,3906.280268,-6358.601911,21949.614221,19579.479942,200.092816,5166.873952,0.008000,-0.024000,1.012000,192.000000,0.000000,0.000000,0.000000,0.000000,0.000000,0.000000,0.000000,0.000000,0.000000,1764346135.238170,0.000000
188.000000,23105.869961,26756.334514,14227.175918,20234.453110,26119.108632,-1756.511838,-9933.070532,17738.992600,24387.206064,21295.982158,3889.225887,-6385.915743,21946.328514,19560.682125,190.503918,5195.215964,0.008000,-0.024000,1.012000,192.000000,0.000000,0.000000,0.000000,0.000000,0.000000,0.000000,0.000000,0.000000,0.000000,1764346135.246118,0.000000
190.000000,23108.239246,26763.531776,14246.443122,20245.852500,26102.702451,-1731.611995,-9898.827660,17758.237452,24384.076820,21300.966597,3894.210326,-6374.426946,21947.535509,19567.789980,194.281363,5177.602789,0.008000,-0.024000,1.012000,192.000000,0.000000,0.000000,0.000000,0.000000,0.000000,0.000000,0.000000,0.000000,0.000000,1764346135.255350,0.000000
192.000000,23104.484153,26755.954535,14228.740541,20233.961372,26105.921102,-1753.114373,-9928.466073,17739.350228,24332.064311,21295.490419,3901.966381,-6366.581484,21946.574384,19569.913396,198.036456,5174.630007,0.004000,-0.020000,1.014000,192.000000,0.000000,16.000000,127.500000,48.000000,15.500000,88.000000,0.000000,0.000000,0.000000,1764346135.261168,0.000000
194.000000,23106.786383,26763.799997,14241.391628,20241.829186,26120.941475,-1748.308748,-9913.691570,17752.381295,24422.879448,21293.992852,3885.046111,-6391.794251,21950.374180,19551.674372,189.609848,5196.199441,0.004000,-0.020000,1.014000,192.000000,0.000000,0.000000,0.000000,0.000000,0.000000,0.000000,0.000000,0.000000,0.000000,1764346135.270189,0.000000
196.000000,23103.813601,26761.609526,14240.162282,20244.734912,26098.634434,-1744.240730,-9907.053102,17752.560109,24329.829136,21300.765431,3905.587364,-6359.361870,21952.475244,19574.786076,203.400875,5163.767059,0.004000,-0.020000,1.014000,192.000000,0.000000,0.000000,0.000000,0.000000,0.000000,0.000000,0.000000,0.000000,0.000000,1764346135.278240,0.000000
198.000000,23095.632863,26754.635782,14224.180785,20231.837956,26117.365195,-1756.422431,-9934.791617,17736.131577,24381.618128,21288.539027,3882.632122,-6388.352083,21941.992276,19552.233166,192.672037,5193.852507,0.004000,-0.020000,1.014000,192.000000,0.000000,0.000000,0.000000,0.000000,0.000000,0.000000,0.000000,0.000000,0.000000,1764346135.286220,0.000000
200.000000,23099.007976,26757.586212,14243.470340,20246.746569,26104.043556,-1735.702364,-9898.939419,17756.985755,24374.823198,21295.557475,3887.795375,-6373.912856,21942.975753,19565.353640,194.393122,5177.133402,0.004000,-0.020000,1.014000,192.000000,0.000000,0.000000,0.000000,0.000000,0.000000,0.000000,0.000000,0.000000,0.000000,1764346135.293248,0.000000
202.000000,23095.319938,26749.584287,14227.220622,20236.867098,26108.022166,-1749.426335,-9926.856747,17740.177243,24322.676578,21292.361175,3894.456195,-6366.290911,21945.188575,19569.891044,197.745883,5173.624179,0.006000,-0.018000,1.016000,192.000000,0.000000,24.000000,127.500000,56.000000,15.500000,96.000000,0.000000,0.000000,0.000000,1764346135.302280,0.000000
204.000000,23102.025461,26757.452101,14237.100093,20242.432683,26117.119326,-1747.794658,-9913.222183,17750.973135,24416.263332,21291.377698,3880.240486,-6390.207278,21948.518985,19554.066009,188.313447,5192.623161,0.006000,-0.018000,1.016000,192.000000,0.000000,0.000000,0.000000,0.000000,0.000000,0.000000,0.000000,0.000000,0.000000,1764346135.310310,0.000000
206.000000,23102.964235,26763.174148,14240.385799,20248.579413,26100.020242,-1738.652794,-9904.929686,17754.705877,24325.090566,21297.859704,3903.195727,-6356.165571,21950.463587,19576.417753,201.635087,5163.588245,0.006000,-0.018000,1.016000,192.000000,0.000000,0.000000,0.000000,0.000000,0.000000,0.000000,0.000000,0.000000,0.000000,1764346135.317362,0.000000
