Sample Index, EXG Channel 0, EXG Channel 1, EXG Channel 2, EXG Channel 3, EXG Channel 4, EXG Channel 5, EXG Channel 6, EXG Channel 7, EXG Channel 8, EXG Channel 9, EXG Channel 10, EXG Channel 11, EXG Channel 12, EXG Channel 13, EXG Channel 14, EXG Channel 15, Accel Channel 0, Accel Channel 1, Accel Channel 2, Not Used, Digital Channel 0 (D11), Digital Channel 1 (D12), Digital Channel 2 (D13), Digital Channel 3 (D17), Not Used, Digital Channel 4 (D18), Analog Channel 0, Analog Channel 1, Analog Channel 2, Timestamp, Marker Channel, Timestamp (Formatted)
28.000000,22315.936961,26462.543185,13703.094566,20326.408187,25317.552724,-1826.048115,-10362.313433,16967.030402,23517.790260,20812.178649,3235.012679,-6623.313620,21445.090645,18855.015201,503.227175,4746.839970,0.008000,-0.020000,1.010000,192.000000,0.000000,0.000000,0.000000,0.000000,0.000000,0.000000,0.000000,0.000000,0.000000,1764346501.700439,0.000000
30.000000,22298.323786,26445.846432,13722.227659,20340.690951,25305.080450,-1796.744978,-10327.221194,16984.263597,23505.608559,20805.495477,3233.738629,-6610.886051,21448.778683,18860.379620,507.406951,4728.444484,0.008000,-0.020000,1.010000,192.000000,0.000000,0.000000,0.000000,0.000000,0.000000,0.000000,0.000000,0.000000,0.000000,1764346501.709203,0.000000
32.000000,22275.793228,26412.117650,13701.865220,20325.581172,25303.135848,-1828.149179,-10358.692450,16958.380277,23445.504718,20786.474143,3233.448056,-6608.516766,21441.268497,18865.498169,513.821902,4723.527101,0.008000,-0.020000,1.010000,192.000000,0.000000,0.000000,0.000000,0.000000,0.000000,0.000000,0.000000,0.000000,0.000000,1764346501.718094,0.000000
34.000000,22284.421001,26417.973807,13713.868107,20331.526736,25316.681006,-1806.624449,-10344.208520,16970.651385,23528.116766,20774.851236,3212.415065,-6641.172664,21442.430787,18839.324276,498.488605,4751.891464,0.006000,-0.022000,1.006000,192.000000,0.000000,24.000000,127.500000,40.000000,15.500000,56.000000,0.000000,0.000000,0.000000,1764346501.725655,0.000000
36.000000,22272.999260,26417.169144,13711.118842,20334.901850,25291.490590,-1808.658458,-10337.346534,16970.830199,23446.108216,20787.971710,3239.415972,-6604.180527,21449.270421,18866.749867,511.564375,4716.978039,0.006000,-0.022000,1.006000,192.000000,0.000000,0.000000,0.000000,0.000000,0.000000,0.000000,0.000000,0.000000,0.000000,1764346501.732544,0.000000
38.000000,22285.784457,26421.617141,13696.433746,20323.390701,25302.510000,-1830.630223,-10364.392145,16957.106228,23489.224731,20770.067962,3213.934983,-6639.473932,21428.840927,18833.803395,493.995904,4752.360851,0.006000,-0.022000,1.006000,192.000000,0.000000,0.000000,0.000000,0.000000,0.000000,0.000000,0.000000,0.000000,0.000000,1764346501.741551,0.000000
40.000000,22316.205182,26452.328438,13721.288886,20340.400379,25296.184456,-1800.410664,-10327.511767,16987.102269,23504.334510,20790.318643,3231.034068,-6617.055132,21445.068293,18852.042419,504.210651,4729.405609,0.006000,-0.022000,1.006000,192.000000,0.000000,0.000000,0.000000,0.000000,0.000000,0.000000,0.000000,0.000000,0.000000,1764346501.748607,0.000000
42.000000,22319.267371,26456.597621,13703.228677,20328.285733,25292.004680,-1823.388257,-10355.294985,16972.014841,23456.814701,20795.593655,3242.344051,-6604.113472,21438.251011,18854.970497,507.853986,4727.572766,0.006000,-0.022000,1.006000,192.000000,0.000000,0.000000,0.000000,0.000000,0.000000,0.000000,0.000000,0.000000,0.000000,1764346501.756594,0.000000
44.000000,22336.142938,26472.847339,13715.119805,20333.381931,25301.548875,-1822.382429,-10341.861587,16985.381184,23550.066179,20802.723861,3229.983536,-6626.956955,21439.815633,18838.609021,496.432244,4743.777781,0.006000,-0.022000,1.004000,192.000000,0.000000,24.000000,127.500000,40.000000,15.500000,48.000000,0.000000,0.000000,0.000000,1764346501.764617,0.000000
46.000000,22348.615211,26489.499389,13718.472566,20342.724960,25287.847255,-1810.513653,-10331.557433,16993.405461,23467.565890,20817.900696,3258.660824,-6589.115451,21450.857395,18864.067657,508.390428,4716.732170,0.006000,-0.022000,1.004000,192.000000,0.000000,0.000000,0.000000,0.000000,0.000000,0.000000,0.000000,0.000000,0.000000,1764346501.773684,0.000000
48.000000,22348.637563,26485.274909,13703.787470,20331.012646,25301.280654,-1832.619528,-10358.379526,16978.988585,23531.871859,20810.323454,3244.221597,-6609.723760,21441.223793,18847.460311,497.371018,4744.291871,0.006000,-0.022000,1.004000,192.000000,0.000000,0.000000,0.000000,0.000000,0.000000,0.000000,0.000000,0.000000,0.000000,1764346501.780686,0.000000
50.000000,22365.848406,26503.357470,13725.870994,20345.362466,25292.943453,-1805.775083,-10323.153177,17003.486097,23529.614333,20818.884172,3252.089411,-6596.089196,21448.421055,18859.642012,500.209689,4725.292888,0.006000,-0.022000,1.004000,192.000000,0.000000,0.000000,0.000000,0.000000,0.000000,0.000000,0.000000,0.000000,0.000000,1764346501.788702,0.000000
52.000000,22362.138016,26498.618901,13702.424014,20331.817309,25289.590691,-1827.389220,-10354.758543,16981.849609,23476.595995,20818.280675,3258.213789,-6587.282608,21441.089683,18864.157064,506.155253,4729.629127,0.006000,-0.022000,1.004000,192.000000,0.000000,0.000000,0.000000,0.000000,0.000000,0.000000,0.000000,0.000000,0.000000,1764346501.796772,0.000000
54.000000,22377.873645,26514.376880,13713.421072,20336.265306,25299.648976,-1819.811978,-10343.001526,16991.706728,23565.198310,20816.961922,3237.739591,-6614.819958,21442.095511,18847.192090,495.627582,4745.141237,0.006000,-0.018000,1.012000,192.000000,0.000000,24.000000,127.500000,56.000000,15.500000,80.000000,0.000000,0.000000,0.000000,1764346501.804842,0.000000
56.000000,22371.861025,26514.779212,13717.511441,20341.406207,25280.225310,-1813.128807,-10334.261994,16995.484173,23477.288899,20826.751986,3261.141868,-6580.085347,21446.856433,18870.057925,509.329201,4713.111188,0.006000,-0.018000,1.012000,192.000000,0.000000,0.000000,0.000000,0.000000,0.000000,0.000000,0.000000,0.000000,0.000000,1764346501.812872,0.000000
58.000000,22378.544197,26514.846267,13701.798165,20329.112748,25295.357441,-1831.948976,-10360.905273,16982.296644,23535.157565,20820.091167,3242.142885,-6605.991019,21439.480357,18849.762541,499.248564,4738.480418,0.006000,-0.018000,1.012000,192.000000,0.000000,0.000000,0.000000,0.000000,0.000000,0.000000,0.000000,0.000000,0.000000,1764346501.820863,0.000000
60.000000,22385.741459,26529.151384,13726.452139,20346.435350,25291.043555,-1811.161853,-10324.583688,17007.554115,23532.609467,20828.495422,3252.245873,-6589.964818,21446.655267,18856.557471,503.160119,4724.532929,0.006000,-0.018000,1.012000,192.000000,0.000000,0.000000,0.000000,0.000000,0.000000,0.000000,0.000000,0.000000,0.000000,1764346501.829899,0.000000
62.000000,22389.943587,26532.861773,13711.945857,20335.326533,25293.368136,-1825.668135,-10353.417439,16991.684376,23484.888492,20832.608143,3263.578208,-6576.173791,21445.157700,18866.056963,510.267974,4721.850720,0.006000,-0.018000,1.012000,192.000000,0.000000,0.000000,0.000000,0.000000,0.000000,0.000000,0.000000,0.000000,0.000000,1764346501.835923,0.000000
64.000000,22408.249665,26543.300038,13721.512404,20338.366370,25305.929816,-1816.436865,-10341.459255,17001.005054,23580.777476,20834.932725,3245.853275,-6602.325332,21454.008991,18852.489454,494.420587,4746.236473,0.008000,-0.022000,1.006000,192.000000,0.000000,32.000000,127.500000,40.000000,15.500000,56.000000,0.000000,0.000000,0.000000,1764346501.845316,0.000000
66.000000,22392.469334,26544.842308,13725.423959,20342.412036,25291.781162,-1807.004429,-10331.400970,17006.056548,23492.644548,20841.325324,3270.350786,-6566.920169,21457.920546,18876.450524,518.895748,4720.911946,0.008000,-0.022000,1.006000,192.000000,0.000000,0.000000,0.000000,0.000000,0.000000,0.000000,0.000000,0.000000,0.000000,1764346501.852984,0.000000
68.000000,22401.387680,26543.322390,13712.616409,20331.772605,25308.030880,-1827.500978,-10356.434924,16992.064356,23551.049656,20835.871498,3255.285711,-6592.602324,21449.203366,18858.814998,505.730570,4745.901197,0.008000,-0.022000,1.006000,192.000000,0.000000,0.000000,0.000000,0.000000,0.000000,0.000000,0.000000,0.000000,0.000000,1764346501.861008,0.000000
70.000000,22402.393508,26550.162023,13733.135311,20350.592774,25292.339956,-1798.778987,-10319.889822,17013.387920,23549.149758,20841.638248,3263.377042,-6578.140745,21457.115883,18871.197864,506.021143,4729.606775,0.008000,-0.022000,1.006000,192.000000,0.000000,0.000000,0.000000,0.000000,0.000000,0.000000,0.000000,0.000000,0.000000,1764346501.869024,0.000000
72.000000,22398.660767,26543.277686,13712.415244,20338.344018,25286.148523,-1828.305641,-10349.818808,16993.114888,23494.745612,20838.374893,3270.171973,-6570.518800,21451.237375,18875.444695,508.770407,4726.857510,0.008000,-0.022000,1.006000,192.000000,0.000000,0.000000,0.000000,0.000000,0.000000,0.000000,0.000000,0.000000,0.000000,1764346501.877020,0.000000
74.000000,22410.216619,26549.625581,13724.999276,20344.200175,25299.805438,-1823.500016,-10335.826616,17005.542458,23582.543264,20838.665466,3253.631682,-6598.614943,21446.208232,18854.434056,494.554698,4744.269519,0.010000,-0.020000,1.016000,192.000000,0.000000,40.000000,127.500000,48.000000,15.500000,96.000000,0.000000,0.000000,0.000000,1764346501.885098,0.000000
76.000000,22412.340035,26548.440939,13728.150872,20350.369257,25279.778275,-1819.744923,-10326.237717,17011.398615,23495.036184,20846.823853,3280.073795,-6563.478001,21455.551261,18877.925739,509.597422,4712.574746,0.010000,-0.020000,1.016000,192.000000,0.000000,0.000000,0.000000,0.000000,0.000000,0.000000,0.000000,0.000000,0.000000,1764346501.892058,0.000000
78.000000,22411.311854,26543.210631,13711.722340,20338.478129,25295.200979,-1842.498999,-10352.411610,16996.646463,23554.894156,20837.145548,3261.343033,-6587.059091,21449.158662,18854.948146,494.174718,4736.289947,0.010000,-0.020000,1.016000,192.000000,0.000000,0.000000,0.000000,0.000000,0.000000,0.000000,0.000000,0.000000,0.000000,1764346501.901642,0.000000
80.000000,22402.393508,26551.726645,13731.034247,20352.850300,25287.444924,-1816.839196,-10316.894688,17018.394711,23549.172109,20843.761664,3269.367310,-6575.771460,21455.595965,18864.849969,498.600364,4718.654420,0.010000,-0.020000,1.016000,192.000000,0.000000,0.000000,0.000000,0.000000,0.000000,0.000000,0.000000,0.000000,0.000000,1764346501.909149,0.000000
82.000000,22406.238008,26544.417625,13711.476470,20335.214774,25285.433267,-1835.994641,-10349.841160,16995.215952,23495.393812,20840.230088,3274.329397,-6570.697614,21447.303468,18863.330050,502.891898,4717.693295,0.010000,-0.020000,1.016000,192.000000,0.000000,0.000000,0.000000,0.000000,0.000000,0.000000,0.000000,0.000000,0.000000,1764346501.918184,0.000000
84.000000,22412.943532,26557.515747,13726.005104,20338.679294,25300.028956,-1823.097685,-10336.653630,17009.006978,23586.544226,20840.475957,3255.956263,-6593.295228,21451.036209,18846.029800,491.067826,4736.334650,0.010000,-0.022000,1.010000,192.000000,0.000000,40.000000,127.500000,40.000000,15.500000,72.000000,0.000000,0.000000,0.000000,1764346501.925238,0.000000
86.000000,22419.202020,26562.075503,13728.128520,20343.239050,25285.053287,-1812.011220,-10328.338781,17013.566734,23500.802934,20853.708190,3283.739481,-6555.185503,21458.904023,18872.047230,506.959916,4707.478548,0.010000,-0.022000,1.010000,192.000000,0.000000,0.000000,0.000000,0.000000,0.000000,0.000000,0.000000,0.000000,0.000000,1764346501.933231,0.000000
88.000000,22420.632532,26559.728570,13711.498822,20331.258515,25300.900674,-1829.132656,-10355.540854,16998.725176,23562.471397,20843.314629,3265.209885,-6584.890972,21454.567785,18851.774198,490.799605,4741.028516,0.010000,-0.022000,1.010000,192.000000,0.000000,0.000000,0.000000,0.000000,0.000000,0.000000,0.000000,0.000000,0.000000,1764346501.941290,0.000000
90.000000,22427.494517,26562.835462,13731.794206,20345.563632,25296.564436,-1805.283344,-10320.202746,17018.886449,23561.979659,20847.472053,3272.407147,-6574.676225,21461.295660,18863.508864,494.331180,4727.237490,0.010000,-0.022000,1.010000,192.000000,0.000000,0.000000,0.000000,0.000000,0.000000,0.000000,0.000000,0.000000,0.000000,1764346501.948304,0.000000
92.000000,22417.525639,26561.807282,13712.348188,20334.901850,25294.508075,-1820.996621,-10349.081200,16999.663949,23511.554123,20838.285486,3275.894019,-6571.345815,21455.685372,18863.285346,504.322410,4724.890557,0.010000,-0.022000,1.010000,192.000000,0.000000,0.000000,0.000000,0.000000,0.000000,0.000000,0.000000,0.000000,0.000000,1764346501.956282,0.000000
94.000000,22420.699587,26559.281535,13721.288886,20340.132158,25305.952168,-1820.214310,-10337.815921,17005.855382,23594.255578,20836.273829,3259.957225,-6596.379768,21454.992468,18850.030762,490.129052,4746.147066,0.010000,-0.022000,1.010000,192.000000,0.000000,40.000000,127.500000,40.000000,15.500000,72.000000,0.000000,0.000000,0.000000,1764346501.965332,0.000000
96.000000,22417.592694,26564.645954,13724.976924,20347.999972,25287.534331,-1808.211423,-10327.020028,17012.829126,23501.808763,20841.593545,3281.794880,-6562.181599,21457.540567,18872.114285,510.782064,4720.710781,0.010000,-0.022000,1.010000,192.000000,0.000000,0.000000,0.000000,0.000000,0.000000,0.000000,0.000000,0.000000,0.000000,1764346501.972354,0.000000
98.000000,22417.436232,26559.482701,13708.570744,20336.466472,25303.962863,-1830.786685,-10355.898482,16996.557056,23563.544281,20845.370989,3264.986368,-6582.454632,21448.286944,18859.865530,491.134881,4742.839008,0.010000,-0.022000,1.010000,192.000000,0.000000,0.000000,0.000000,0.000000,0.000000,0.000000,0.000000,0.000000,0.000000,1764346501.982397,0.000000
100.000000,22422.845354,26565.338858,13728.307334,20348.469359,25288.584863,-1812.570013,-10321.856776,17016.874792,23550.267345,20848.276716,3267.445060,-6573.066899,21450.365657,18863.397105,509.597422,4723.482397,0.010000,-0.022000,1.010000,192.000000,0.000000,0.000000,0.000000,0.000000,0.000000,0.000000,0.000000,0.000000,0.000000,1764346501.988425,0.000000
102.000000,22415.558686,26556.889898,13708.995427,20337.941687,25285.030935,-1829.892615,-10349.550587,16999.507487,23500.959396,20847.047370,3274.821135,-6564.148553,21444.800072,18865.744038,507.988096,4723.907080,0.010000,-0.022000,1.010000,192.000000,0.000000,0.000000,0.000000,0.000000,0.000000,0.000000,0.000000,0.000000,0.000000,1764346501.997463,0.000000
104.000000,22410.820116,26556.755788,13716.952648,20338.344018,25290.797685,-1831.904272,-10338.441770,17004.223705,23584.912549,20834.999780,3253.832847,-6593.228172,21440.016799,18840.285401,492.096006,4749.030441,0.009000,-0.020000,1.007000,192.000000,0.000000,32.000000,127.500000,56.000000,15.500000,48.000000,0.000000,0.000000,0.000000,1764346502.005776,0.000000
106.000000,22416.922142,26557.001657,13720.774796,20341.115635,25275.419685,-1824.125865,-10330.797473,17008.649350,23491.258739,20833.256344,3275.849316,-6567.009576,21442.386084,18860.513730,511.899652,4719.816711,0.009000,-0.020000,1.007000,192.000000,0.000000,0.000000,0.000000,0.000000,0.000000,0.000000,0.000000,0.000000,0.000000,1764346502.012508,0.000000
108.000000,22424.544087,26566.009410,13710.917677,20330.789129,25298.017299,-1840.487342,-10355.786724,17001.899123,23558.761008,20834.463338,3262.885304,-6588.266085,21441.559069,18843.034666,500.343800,4744.493037,0.009000,-0.020000,1.007000,192.000000,0.000000,0.000000,0.000000,0.000000,0.000000,0.000000,0.000000,0.000000,0.000000,1764346502.021569,0.000000
110.000000,22420.297256,26568.378695,13731.369523,20345.273059,25290.954148,-1812.413551,-10319.398084,17022.440377,23555.832929,20843.918126,3274.709377,-6571.412870,21453.941936,18856.624527,501.416683,4727.416304,0.009000,-0.020000,1.007000,192.000000,0.000000,0.000000,0.000000,0.000000,0.000000,0.000000,0.000000,0.000000,0.000000,1764346502.028539,0.000000
112.000000,22413.882305,26560.175605,13711.834098,20331.146757,25287.377869,-1835.681717,-10349.952918,16999.663949,23499.752402,20834.865670,3276.341054,-6565.646120,21443.704837,18857.898576,506.602288,4724.734095,0.009000,-0.020000,1.007000,192.000000,0.000000,0.000000,0.000000,0.000000,0.000000,0.000000,0.000000,0.000000,0.000000,1764346502.036571,0.000000
114.000000,22414.999892,26563.483663,13721.780625,20339.595716,25295.849180,-1824.349382,-10334.910194,17011.689187,23586.477171,20833.926896,3256.291539,-6589.741300,21442.922526,18840.330105,496.499300,4740.715592,0.008500,-0.017000,1.010500,192.000000,0.000000,32.000000,127.500000,72.000000,15.500000,88.000000,0.000000,0.000000,0.000000,1764346502.044593,0.000000
116.000000,22414.105822,26560.957916,13721.177128,20343.507271,25276.581976,-1818.046191,-10327.779988,17012.247981,23492.689251,20843.001705,3279.269133,-6555.207855,21444.151872,18866.503998,504.322410,4713.580574,0.008500,-0.017000,1.010500,192.000000,0.000000,0.000000,0.000000,0.000000,0.000000,0.000000,0.000000,0.000000,0.000000,1764346502.052624,0.000000
118.000000,22410.842468,26555.481739,13708.637799,20329.537431,25295.089220,-1840.532045,-10355.697317,16995.305359,23551.250822,20830.171803,3260.001929,-6589.562486,21430.293790,18841.157119,494.130015,4738.838045,0.008500,-0.017000,1.010500,192.000000,0.000000,0.000000,0.000000,0.000000,0.000000,0.000000,0.000000,0.000000,0.000000,1764346502.060709,0.000000
120.000000,22418.352654,26563.058980,13732.643572,20346.569460,25282.326374,-1816.906252,-10319.889822,17015.757205,23550.133234,20838.374893,3270.931932,-6576.665530,21445.180052,18853.830559,499.695599,4719.660249,0.008500,-0.017000,1.010500,192.000000,0.000000,0.000000,0.000000,0.000000,0.000000,0.000000,0.000000,0.000000,0.000000,1764346502.068730,0.000000
122.000000,22411.065985,26553.067750,13711.297656,20334.991257,25279.040668,-1838.073354,-10351.226968,16993.248998,23501.473487,20835.268001,3275.826964,-6570.295283,21440.843814,18857.652707,501.975477,4717.961516,0.008500,-0.017000,1.010500,192.000000,0.000000,0.000000,0.000000,0.000000,0.000000,0.000000,0.000000,0.000000,0.000000,1764346502.076712,0.000000
124.000000,22419.984331,26562.276669,13723.278191,20340.154510,25292.921101,-1830.406705,-10336.832444,17006.190658,23588.019441,20829.367140,3255.173952,-6596.178603,21439.256840,18837.714951,490.933715,4734.300641,0.005250,-0.018500,1.011250,192.000000,0.000000,8.000000,127.500000,48.000000,15.500000,80.000000,0.000000,0.000000,0.000000,1764346502.083736,0.000000
126.000000,22417.168011,26562.634297,13721.355941,20342.948478,25277.453694,-1822.784760,-10329.724590,17006.816507,23502.255798,20842.286449,3279.738519,-6558.806486,21447.437578,18864.917024,504.188300,4705.243374,0.005250,-0.018500,1.011250,192.000000,0.000000,0.000000,0.000000,0.000000,0.000000,0.000000,0.000000,0.000000,0.000000,1764346502.092871,0.000000
128.000000,22405.410994,26556.018180,13704.368616,20327.972809,25292.921101,-1841.873150,-10356.457276,16990.432679,23556.659944,20829.948286,3254.861028,-6592.691731,21437.714569,18839.458387,492.811262,4730.746714,0.005250,-0.018500,1.011250,192.000000,0.000000,0.000000,0.000000,0.000000,0.000000,0.000000,0.000000,0.000000,0.000000,1764346502.100867,0.000000
130.000000,22415.513982,26570.144483,13727.547375,20342.456739,25288.048421,-1817.666211,-10319.800415,17012.963237,23549.261516,20837.279658,3263.935836,-6582.231114,21440.687351,18850.164872,495.471119,4716.687467,0.005250,-0.018500,1.011250,192.000000,0.000000,0.000000,0.000000,0.000000,0.000000,0.000000,0.000000,0.000000,0.000000,1764346502.107977,0.000000
132.000000,22424.789956,26563.081332,13715.365674,20332.085530,25301.101840,-1832.172493,-10346.980136,17001.228571,23500.177085,20835.022132,3273.725900,-6572.351643,21440.821462,18853.249413,505.998791,4714.452292,0.005250,-0.018500,1.011250,192.000000,0.000000,0.000000,0.000000,0.000000,0.000000,0.000000,0.000000,0.000000,0.000000,1764346502.115880,0.000000
134.000000,22418.822040,26563.237794,13722.585287,20335.594754,25301.124191,-1832.552473,-10336.497168,17006.347121,23596.289587,20840.855937,3263.041766,-6587.170850,21446.968192,18845.538061,501.170814,4724.018839,0.007625,-0.017250,1.011625,192.000000,0.000000,40.000000,127.500000,64.000000,15.500000,80.000000,0.000000,0.000000,0.000000,1764346502.124879,0.000000
136.000000,22400.784183,26546.004599,13714.829232,20333.314876,25271.351668,-1834.742944,-10333.502034,16998.389900,23487.973033,20828.406015,3269.881400,-6570.094117,21436.596982,18852.377695,503.920079,4711.993600,0.007625,-0.017250,1.011625,192.000000,0.000000,0.000000,0.000000,0.000000,0.000000,0.000000,0.000000,0.000000,0.000000,1764346502.132881,0.000000
138.000000,22399.398374,26544.618791,13704.301560,20320.864954,25288.629566,-1848.064583,-10358.938320,16986.454068,23543.807691,20814.123251,3246.166199,-6603.040588,21428.483299,18828.863660,492.565393,4741.967290,0.007625,-0.017250,1.011625,192.000000,0.000000,0.000000,0.000000,0.000000,0.000000,0.000000,0.000000,0.000000,0.000000,1764346502.140946,0.000000
140.000000,22410.753061,26564.288326,13729.939011,20341.719132,25290.417706,-1814.514615,-10319.152214,17017.992379,23540.946667,20827.087263,3261.678310,-6582.454632,21443.347209,18846.208614,502.556622,4717.559185,0.007625,-0.017250,1.011625,192.000000,0.000000,0.000000,0.000000,0.000000,0.000000,0.000000,0.000000,0.000000,0.000000,1764346502.148989,0.000000
142.000000,22413.211753,26560.108550,13709.107185,20330.453852,25288.763677,-1834.139447,-10350.869340,16999.328673,23497.271359,20831.624667,3276.229295,-6568.753012,21446.118825,18855.305774,507.697524,4717.872109,0.007625,-0.017250,1.011625,192.000000,0.000000,0.000000,0.000000,0.000000,0.000000,0.000000,0.000000,0.000000,0.000000,1764346502.157012,0.000000
144.000000,22422.107747,26571.977326,13722.853508,20340.042751,25302.644110,-1820.370772,-10336.094837,17014.036121,23587.415944,20833.144585,3259.197266,-6590.970646,21446.252936,18839.883070,496.409893,4735.664098,0.009813,-0.015625,1.010813,192.000000,0.000000,48.000000,127.500000,72.000000,15.500000,72.000000,0.000000,0.000000,0.000000,1764346502.165044,0.000000
146.000000,22432.501308,26579.129884,13727.390912,20345.898908,25288.048421,-1807.674981,-10327.087084,17020.652237,23503.865123,20850.355428,3286.555801,-6551.720983,21455.819482,18870.996698,508.435131,4710.116054,0.009813,-0.015625,1.010813,192.000000,0.000000,0.000000,0.000000,0.000000,0.000000,0.000000,0.000000,0.000000,0.000000,1764346502.172050,0.000000
148.000000,22422.420671,26568.982192,13715.231563,20332.197289,25304.052270,-1829.646746,-10352.813942,17006.190658,23565.824159,20843.135815,3269.702586,-6578.856001,21447.392875,18850.008410,493.928849,4738.681583,0.009813,-0.015625,1.010813,192.000000,0.000000,0.000000,0.000000,0.000000,0.000000,0.000000,0.000000,0.000000,0.000000,1764346502.181068,0.000000
150.000000,22433.931820,26584.248434,13737.583308,20350.056332,25295.737421,-1807.853795,-10315.084197,17032.319848,23563.164301,20851.383609,3281.236086,-6564.707347,21459.731038,18858.770294,504.300058,4719.503787,0.009813,-0.015625,1.010813,192.000000,0.000000,0.000000,0.000000,0.000000,0.000000,0.000000,0.000000,0.000000,0.000000,1764346502.189139,0.000000
152.000000,22431.942514,26576.268861,13716.103282,20337.785225,25293.211674,-1825.332859,-10345.996660,17012.493850,23515.711548,20846.913260,3289.573287,-6556.660719,21453.092569,18860.938413,505.350590,4720.777836,0.009813,-0.015625,1.010813,192.000000,0.000000,0.000000,0.000000,0.000000,0.000000,0.000000,0.000000,0.000000,0.000000,1764346502.196130,0.000000
154.000000,22433.216564,26580.403934,13727.569726,20342.546146,25306.801535,-1819.499054,-10333.457331,17021.769824,23601.184619,20843.918126,3270.730766,-6581.694672,21454.165453,18847.750884,495.985209,4738.614528,0.008906,-0.019813,1.010406,192.000000,0.000000,32.000000,127.500000,32.000000,15.500000,72.000000,0.000000,0.000000,0.000000,1764346502.204184,0.000000
156.000000,22427.226296,26576.537082,13726.675657,20344.691914,25286.036764,-1822.516539,-10327.735284,17019.646409,23509.251894,20848.880213,3292.300200,-6551.139838,21459.641631,18870.907291,512.078465,4708.260859,0.008906,-0.019813,1.010406,192.000000,0.000000,0.000000,0.000000,0.000000,0.000000,0.000000,0.000000,0.000000,0.000000,1764346502.213203,0.000000
158.000000,22427.047482,26573.363134,13714.963343,20331.906716,25301.682985,-1842.767220,-10352.232796,17005.028368,23566.070028,20835.268001,3269.702586,-6583.326350,21448.577517,18837.491433,498.622715,4731.417266,0.008906,-0.019813,1.010406,192.000000,0.000000,0.000000,0.000000,0.000000,0.000000,0.000000,0.000000,0.000000,0.000000,1764346502.220191,0.000000
160.000000,22427.740386,26573.541948,13735.146968,20344.155472,25290.484761,-1819.454350,-10319.085159,17020.518127,23560.437388,20840.699475,3278.799746,-6573.178658,21455.394799,18849.784893,502.556622,4712.284173,0.008906,-0.019813,1.010406,192.000000,0.000000,0.000000,0.000000,0.000000,0.000000,0.000000,0.000000,0.000000,0.000000,1764346502.228257,0.000000
162.000000,22421.705415,26560.242660,13712.795223,20329.202155,25284.449790,-1841.202598,-10351.003450,16998.635769,23503.216923,20832.026998,3280.342016,-6571.859905,21446.565860,18849.337858,506.222308,4720.599022,0.008906,-0.019813,1.010406,192.000000,0.000000,0.000000,0.000000,0.000000,0.000000,0.000000,0.000000,0.000000,0.000000,1764346502.238286,0.000000
164.000000,22420.923104,26570.055076,13727.413264,20336.041789,25305.594540,-1828.037420,-10334.776084,17012.873830,23591.260444,20830.082396,3264.516981,-6594.748091,21448.242241,18833.781044,494.733512,4736.647575,0.008906,-0.019813,1.010406,192.000000,0.000000,0.000000,0.000000,0.000000,0.000000,0.000000,0.000000,0.000000,0.000000,1764346502.245330,0.000000
166.000000,22420.654883,26560.287364,13725.870994,20337.226431,25283.555720,-1823.343554,-10328.674058,17010.616304,23500.713527,20832.429329,3286.220525,-6561.153419,21455.372447,18855.037553,509.306849,4706.919754,0.008000,-0.020000,1.014000,192.000000,0.000000,32.000000,127.500000,48.000000,15.500000,88.000000,0.000000,0.000000,0.000000,1764346502.252329,0.000000
168.000000,22421.303084,26564.265974,13714.672770,20326.430538,25307.181514,-1839.257996,-10353.663308,16998.725176,23562.985487,20822.683969,3266.685100,-6593.205821,21451.013857,18831.232945,497.303962,4729.338554,0.008000,-0.020000,1.014000,192.000000,0.000000,0.000000,0.000000,0.000000,0.000000,0.000000,0.000000,0.000000,0.000000,1764346502.260359,0.000000
170.000000,22420.051386,26564.109512,13726.988581,20339.551012,25291.781162,-1819.521406,-10323.466101,17013.723196,23553.173072,20830.998818,3273.792955,-6581.180582,21454.746599,18844.711047,502.377808,4718.028571,0.008000,-0.020000,1.014000,192.000000,0.000000,0.000000,0.000000,0.000000,0.000000,0.000000,0.000000,0.000000,0.000000,1764346502.268391,0.000000
172.000000,22413.971712,26556.196994,13702.356959,20326.095262,25282.996927,-1839.682679,-10356.189055,16988.890408,23498.903036,20827.333132,3273.502382,-6576.240847,21441.246145,18844.778102,502.511919,4726.365772,0.008000,-0.020000,1.014000,192.000000,0.000000,0.000000,0.000000,0.000000,0.000000,0.000000,0.000000,0.000000,0.000000,1764346502.276421,0.000000
174.000000,22418.531468,26560.868509,13715.566840,20331.258515,25297.905540,-1831.434885,-10340.274613,17001.832068,23580.196331,20818.683007,3250.122458,-6603.711141,21437.714569,18825.041512,491.827785,4743.040173,0.008000,-0.020000,1.014000,192.000000,0.000000,0.000000,0.000000,0.000000,0.000000,0.000000,0.000000,0.000000,0.000000,1764346502.284452,0.000000
176.000000,22416.318645,26566.009410,13717.332627,20336.041789,25282.818113,-1823.209443,-10331.088046,17008.559943,23492.063402,20828.920106,3276.341054,-6568.238922,21441.871994,18852.936489,507.384599,4710.451330,0.008000,-0.026000,1.010000,192.000000,0.000000,32.000000,127.500000,24.000000,15.500000,72.000000,0.000000,0.000000,0.000000,1764346502.292472,0.000000
178.000000,22414.575209,26561.986096,13708.302523,20323.837736,25296.407973,-1840.755563,-10356.591386,16998.881638,23556.749351,20820.046463,3260.337205,-6595.016312,21439.256840,18831.791738,496.566355,4736.021726,0.008000,-0.026000,1.010000,192.000000,0.000000,0.000000,0.000000,0.000000,0.000000,0.000000,0.000000,0.000000,0.000000,1764346502.301544,0.000000
180.000000,22430.109671,26576.470027,13735.169320,20341.428559,25292.541122,-1815.140464,-10318.749883,17025.346103,23557.866938,20833.077530,3277.324531,-6573.983320,21453.383142,18847.817939,500.276744,4717.603888,0.008000,-0.026000,1.010000,192.000000,0.000000,0.000000,0.000000,0.000000,0.000000,0.000000,0.000000,0.000000,0.000000,1764346502.309545,0.000000
182.000000,22424.432328,26572.424361,13715.075101,20329.738597,25291.445886,-1835.368792,-10350.578767,17004.871905,23510.257722,20832.071702,3283.225391,-6566.070803,21450.119787,18852.489454,508.166910,4716.083970,0.008000,-0.026000,1.010000,192.000000,0.000000,0.000000,0.000000,0.000000,0.000000,0.000000,0.000000,0.000000,0.000000,1764346502.316878,0.000000
184.000000,22440.592640,26583.153198,13729.201404,20338.835757,25305.259264,-1824.371734,-10333.099703,17023.110929,23596.446049,20831.848184,3267.512115,-6588.511954,21454.210157,18836.910288,500.857890,4731.596080,0.008000,-0.026000,1.010000,192.000000,0.000000,0.000000,0.000000,0.000000,0.000000,0.000000,0.000000,0.000000,0.000000,1764346502.324586,0.000000
186.000000,22433.127157,26582.125018,13727.681485,20342.143815,25282.460485,-1821.354249,-10325.030723,17025.368455,23509.408356,20842.509966,3294.825947,-6548.435277,21458.702857,18862.994774,508.144558,4703.701103,0.006000,-0.016000,1.010000,192.000000,0.000000,24.000000,127.500000,64.000000,15.500000,72.000000,0.000000,0.000000,0.000000,1764346502.333618,0.000000
188.000000,22427.896849,26571.105608,13711.163546,20326.497594,25297.190284,-1845.941168,-10351.964575,17007.151783,23564.594813,20831.736425,3271.848353,-6580.130050,21443.950706,18837.156157,492.967724,4731.909005,0.006000,-0.016000,1.010000,192.000000,0.000000,0.000000,0.000000,0.000000,0.000000,0.000000,0.000000,0.000000,0.000000,1764346502.340643,0.000000
190.000000,22428.634456,26579.733381,13729.357866,20340.176861,25283.063982,-1820.661345,-10317.989924,17027.201298,23549.060351,20832.854013,3274.798784,-6572.619864,21444.375389,18844.643992,504.076541,4713.759388,0.006000,-0.016000,1.010000,192.000000,0.000000,0.000000,0.000000,0.000000,0.000000,0.000000,0.000000,0.000000,0.000000,1764346502.348653,0.000000
192.000000,22433.440081,26574.972460,13707.587267,20328.933934,25285.992060,-1837.067525,-10350.444657,17006.145955,23505.988539,20837.078492,3282.532487,-6566.987224,21442.810767,18851.103646,502.601326,4713.044132,0.006000,-0.016000,1.010000,192.000000,0.000000,0.000000,0.000000,0.000000,0.000000,0.000000,0.000000,0.000000,0.000000,1764346502.356686,0.000000
194.000000,22429.372064,26577.833483,13722.138253,20336.354713,25297.704375,-1831.568996,-10337.279479,17014.617266,23588.175903,20829.858879,3262.572379,-6589.093100,21439.726226,18831.724683,493.973552,4737.318127,0.006000,-0.016000,1.010000,192.000000,0.000000,0.000000,0.000000,0.000000,0.000000,0.000000,0.000000,0.000000,0.000000,1764346502.363700,0.000000
196.000000,22422.241857,26576.872358,13723.568764,20340.400379,25281.119380,-1826.629260,-10330.305735,17015.645446,23496.377289,20839.358370,3289.640342,-6553.732640,21452.265555,18857.540948,509.999753,4704.058731,0.006000,-0.016000,1.006000,192.000000,0.000000,24.000000,127.500000,64.000000,15.500000,56.000000,0.000000,0.000000,0.000000,1764346502.372764,0.000000
198.000000,22426.198116,26577.900538,13711.901154,20331.571440,25299.112534,-1847.192865,-10354.155046,17005.453051,23559.006877,20831.311742,3269.367310,-6583.013425,21440.799110,18835.971515,496.342837,4733.227758,0.006000,-0.016000,1.006000,192.000000,0.000000,0.000000,0.000000,0.000000,0.000000,0.000000,0.000000,0.000000,0.000000,1764346502.380752,0.000000
200.000000,22437.351637,26586.461256,13735.906927,20345.407170,25288.249587,-1821.935394,-10317.073502,17030.487005,23556.212909,20843.739312,3283.493612,-6565.981396,21453.405494,18851.528329,500.097930,4713.111188,0.006000,-0.016000,1.006000,192.000000,0.000000,0.000000,0.000000,0.000000,0.000000,0.000000,0.000000,0.000000,0.000000,1764346502.388915,0.000000
202.000000,22416.452756,26569.451579,13713.756348,20329.313914,25286.506151,-1846.097630,-10349.639994,17005.408347,23508.715452,20837.011437,3290.713226,-6562.650986,21451.662058,18850.589556,505.507053,4716.531004,0.006000,-0.016000,1.006000,192.000000,0.000000,0.000000,0.000000,0.000000,0.000000,0.000000,0.000000,0.000000,0.000000,1764346502.395875,0.000000
204.000000,22429.841450,26575.821826,13725.066331,20337.695818,25302.711165,-1829.445580,-10334.306697,17017.657103,23591.662775,20830.372969,3267.713281,-6590.657722,21446.454101,18832.082311,493.548869,4736.021726,0.006000,-0.016000,1.006000,192.000000,0.000000,0.000000,0.000000,0.000000,0.000000,0.000000,0.000000,0.000000,0.000000,1764346502.404867,0.000000
206.000000,22427.360407,26577.811131,13724.172261,20341.070931,25278.280709,-1828.775028,-10329.277555,17017.970028,23502.121687,20845.460396,3293.507194,-6551.072782,21455.640668,18862.659498,507.518710,4705.310429,0.002000,-0.020000,1.004000,192.000000,0.000000,8.000000,127.500000,48.000000,15.500000,48.000000,0.000000,0.000000,0.000000,1764346502.412926,0.000000
208.000000,22430.064968,26578.168759,13712.974037,20329.626838,25298.643148,-1841.739040,-10353.842122,17005.184830,23560.750313,20836.117367,3271.133098,-6583.415757,21447.459930,18833.378712,495.538175,4731.484322,0.002000,-0.020000,1.004000,192.000000,0.000000,0.000000,0.000000,0.000000,0.000000,0.000000,0.000000,0.000000,0.000000,1764346502.419936,0.000000
210.000000,22432.009570,26583.711992,13731.995372,20343.797844,25287.891959,-1815.833368,-10319.129863,17027.782443,23555.452949,20845.750969,3280.453775,-6568.730661,21454.031343,18850.813073,499.762654,4714.921679,0.002000,-0.020000,1.004000,192.000000,0.000000,0.000000,0.000000,0.000000,0.000000,0.000000,0.000000,0.000000,0.000000,1764346502.428936,0.000000
212.000000,22428.656808,26569.675096,13710.381235,20328.218678,25287.713145,-1836.709897,-10348.969442,17006.436528,23506.681443,20838.956039,3283.828888,-6562.785097,21448.845738,18851.953012,501.662553,4719.414380,0.002000,-0.020000,1.004000,192.000000,0.000000,0.000000,0.000000,0.000000,0.000000,0.000000,0.000000,0.000000,0.000000,1764346502.436976,0.000000
214.000000,22432.456605,26577.609966,13723.792282,20334.901850,25306.421555,-1826.785723,-10332.451502,17019.758167,23591.372203,20832.585792,3263.935836,-6591.685902,21447.974020,18832.574050,492.230116,4736.714630,0.002000,-0.020000,1.004000,192.000000,0.000000,0.000000,0.000000,0.000000,0.000000,0.000000,0.000000,0.000000,0.000000,1764346502.443979,0.000000
216.000000,22430.310837,26581.342707,13725.759235,20340.333324,25286.752020,-1818.962612,-10325.745979,17023.401502,23500.847638,20842.353504,3291.294371,-6554.470248,21458.009953,18859.194977,507.138730,4709.512557,0.006000,-0.020000,1.008000,192.000000,0.000000,24.000000,127.500000,48.000000,15.500000,64.000000,0.000000,0.000000,0.000000,1764346502.452023,0.000000
218.000000,22429.349712,26574.368963,13713.823404,20330.029169,25302.398241,-1836.374621,-10352.411610,17009.498717,23565.622993,20836.027960,3274.262342,-6582.231114,21453.159625,18840.195994,492.297172,4736.424057,0.006000,-0.020000,1.008000,192.000000,0.000000,0.000000,0.000000,0.000000,0.000000,0.000000,0.000000,0.000000,0.000000,1764346502.461040,0.000000
220.000000,22433.216564,26583.287309,13731.101302,20343.663733,25292.496418,-1816.012182,-10319.934525,17027.849499,23556.481130,20843.538146,3280.207906,-6568.350681,21459.194596,18852.332992,500.746131,4723.169473,0.006000,-0.020000,1.008000,192.000000,0.000000,0.000000,0.000000,0.000000,0.000000,0.000000,0.000000,0.000000,0.000000,1764346502.469091,0.000000
222.000000,22426.578096,26575.598309,13709.755386,20331.437329,25289.545988,-1833.468894,-10350.310546,17005.765975,23507.642568,20838.598411,3280.967865,-6563.835628,21448.443407,18853.271765,504.031837,4723.683563,0.006000,-0.020000,1.008000,192.000000,0.000000,0.000000,0.000000,0.000000,0.000000,0.000000,0.000000,0.000000,0.000000,1764346502.476137,0.000000
224.000000,22426.712206,26584.024916,13721.780625,20338.656943,25299.112534,-1821.935394,-10334.954898,17015.600743,23589.852284,20837.570231,3263.354690,-6590.233039,21452.466721,18839.748960,487.759768,4736.245243,0.006000,-0.020000,1.008000,192.000000,0.000000,0.000000,0.000000,0.000000,0.000000,0.000000,0.000000,0.000000,0.000000,1764346502.484118,0.000000
226.000000,22422.040692,26575.039515,13722.138253,20340.959172,25281.477008,-1821.443656,-10328.271726,17015.757205,23497.986614,20842.577021,3284.722958,-6555.744297,21454.970116,18860.290213,506.848157,4708.506728,0.008000,-0.016000,1.012000,192.000000,0.000000,32.000000,127.500000,64.000000,15.500000,80.000000,0.000000,0.000000,0.000000,1764346502.493148,0.000000
228.000000,22416.206886,26568.110474,13709.844793,20325.849393,25299.492514,-1842.051964,-10354.266805,16999.418080,23554.737694,20829.635361,3261.991234,-6588.936638,21447.191709,18833.557526,494.822919,4735.597043,0.008000,-0.016000,1.012000,192.000000,0.000000,0.000000,0.000000,0.000000,0.000000,0.000000,0.000000,0.000000,0.000000,1764346502.500156,0.000000
230.000000,22421.437195,26576.581785,13730.631915,20343.730789,25293.278729,-1814.536967,-10317.878165,17021.501603,23547.518080,20834.373931,3271.870705,-6575.525591,21453.785474,18845.068675,505.752922,4713.737036,0.008000,-0.016000,1.012000,192.000000,0.000000,0.000000,0.000000,0.000000,0.000000,0.000000,0.000000,0.000000,0.000000,1764346502.508236,0.000000
232.000000,22414.172878,26568.423399,13701.887572,20332.376102,25282.952223,-1842.119019,-10350.824636,16994.657158,23495.349109,20831.758777,3273.301217,-6568.842419,21446.275287,18847.639125,507.272840,4720.911946,0.008000,-0.016000,1.012000,192.000000,0.000000,0.000000,0.000000,0.000000,0.000000,0.000000,0.000000,0.000000,0.000000,1764346502.516242,0.000000
234.000000,22413.323511,26565.785893,13714.337494,20339.752178,25299.291348,-1829.445580,-10336.519520,17004.581333,23570.518025,20824.002722,3244.847446,-6600.872469,21436.351113,18828.081349,492.028951,4747.152894,0.008000,-0.016000,1.012000,192.000000,0.000000,0.000000,0.000000,0.000000,0.000000,0.000000,0.000000,0.000000,0.000000,1764346502.525747,0.000000
236.000000,22407.534409,26570.323297,13717.757311,20344.691914,25279.733572,-1822.382429,-10328.808168,17011.108042,23486.654280,20839.604239,3274.329397,-6557.845361,21447.415226,18860.133750,505.887032,4714.161720,0.007000,-0.017000,1.009000,192.000000,0.000000,24.000000,127.500000,56.000000,15.500000,56.000000,0.000000,0.000000,0.000000,1764346502.532819,0.000000
238.000000,22418.844392,26575.598309,13710.515345,20331.034998,25300.833619,-1840.867322,-10352.769238,17001.854420,23555.341191,20832.541088,3259.890170,-6585.762690,21445.314162,18837.826709,493.303000,4740.536778,0.007000,-0.017000,1.009000,192.000000,0.000000,0.000000,0.000000,0.000000,0.000000,0.000000,0.000000,0.000000,0.000000,1764346502.540345,0.000000
240.000000,22423.560610,26582.817922,13730.855433,20346.033018,25295.111572,-1816.861548,-10318.369903,17023.088577,23553.441292,20844.767492,3274.731728,-6568.998881,21457.249994,18851.505977,503.718913,4718.810882,0.007000,-0.017000,1.009000,192.000000,0.000000,0.000000,0.000000,0.000000,0.000000,0.000000,0.000000,0.000000,0.000000,1764346502.548361,0.000000
242.000000,22409.434308,26571.686753,13709.308351,20335.728864,25291.445886,-1837.894540,-10349.662346,17002.100289,23495.326757,20837.905507,3276.072833,-6562.785097,21447.526985,18853.875262,507.608117,4721.001353,0.007000,-0.017000,1.009000,192.000000,0.000000,0.000000,0.000000,0.000000,0.000000,0.000000,0.000000,0.000000,0.000000,1764346502.556386,0.000000
244.000000,22421.079567,26579.867492,13720.484223,20342.635553,25301.571226,-1826.964537,-10333.725552,17014.639618,23584.867845,20839.917164,3258.414955,-6585.561524,21446.811729,18839.726608,491.604268,4738.323955,0.007000,-0.017000,1.009000,192.000000,0.000000,0.000000,0.000000,0.000000,0.000000,0.000000,0.000000,0.000000,0.000000,1764346502.564399,0.000000
246.000000,22419.112613,26575.218329,13718.003180,20342.054408,25285.097991,-1818.828502,-10330.037514,17014.103176,23491.191684,20840.922992,3280.967865,-6555.006689,21450.767988,18859.954936,506.468178,4713.580574,0.006500,-0.018500,1.005500,192.000000,0.000000,24.000000,127.500000,48.000000,15.500000,40.000000,0.000000,0.000000,0.000000,1764346502.572438,0.000000
248.000000,22415.893962,26572.334954,13705.955590,20330.029169,25301.906502,-1838.073354,-10354.892654,17001.697958,23552.636630,20835.223298,3260.851295,-6584.309826,21444.867128,18838.564317,496.365189,4734.479455,0.006500,-0.018500,1.005500,192.000000,0.000000,0.000000,0.000000,0.000000,0.000000,0.000000,0.000000,0.000000,0.000000,1764346502.580456,0.000000
250.000000,22420.811346,26583.667288,13726.295677,20342.412036,25288.249587,-1820.348420,-10319.688656,17025.346103,23540.432577,20842.957001,3271.311912,-6570.787021,21450.767988,18852.489454,500.008523,4722.521272,0.006500,-0.018500,1.005500,192.000000,0.000000,0.000000,0.000000,0.000000,0.000000,0.000000,0.000000,0.000000,0.000000,1764346502.587517,0.000000
252.000000,22408.607293,26566.568204,13706.827308,20326.408187,25283.913348,-1848.735136,-10348.611814,17005.989493,23491.012870,20834.195117,3277.056310,-6566.674300,21439.636819,18844.442826,501.394332,4719.503787,0.006500,-0.018500,1.005500,192.000000,0.000000,0.000000,0.000000,0.000000,0.000000,0.000000,0.000000,0.000000,0.000000,1764346502.596552,0.000000
254.000000,22418.598523,26577.766428,13720.081892,20336.555879,25294.508075,-1836.776952,-10331.512729,17020.249906,23576.821217,20829.143623,3258.124382,-6593.809318,21439.748578,18827.455500,491.000770,4732.512502,0.006500,-0.018500,1.005500,192.000000,0.000000,0.000000,0.000000,0.000000,0.000000,0.000000,0.000000,0.000000,0.000000,1764346502.604564,0.000000
0.000000,22422.554782,26577.498207,13719.657209,20340.556841,25280.068848,-1831.211368,-10326.997677,17022.596839,23489.560007,20836.407940,3283.694778,-6556.012518,21449.829215,18854.210538,505.752922,4704.818690,0.006250,-0.018250,1.006750,192.000000,0.000000,24.000000,127.500000,56.000000,15.500000,64.000000,0.000000,0.000000,0.000000,1764346502.612599,0.000000
2.000000,22424.857011,26580.001602,13708.347226,20331.191460,25304.856933,-1839.660327,-10352.322203,17010.973932,23560.884423,20832.608143,3267.310949,-6580.062995,21447.884613,18836.798529,495.493471,4732.601909,0.006250,-0.018250,1.006750,192.000000,0.000000,0.000000,0.000000,0.000000,0.000000,0.000000,0.000000,0.000000,0.000000,1764346502.620647,0.000000
4.000000,22424.320570,26585.790704,13725.625125,20344.066065,25291.781162,-1816.638031,-10320.023932,17030.263487,23549.686199,20840.073626,3275.670502,-6566.830762,21454.880709,18850.097817,499.963820,4716.799225,0.006250,-0.018250,1.006750,192.000000,0.000000,0.000000,0.000000,0.000000,0.000000,0.000000,0.000000,0.000000,0.000000,1764346502.628657,0.000000
6.000000,22427.583924,26585.388373,13711.141194,20331.705550,25290.618872,-1834.966461,-10348.343593,17015.332522,23503.976882,20836.653809,3282.800708,-6559.812314,21449.672753,18852.444750,503.115416,4716.329839,0.006250,-0.018250,1.006750,192.000000,0.000000,0.000000,0.000000,0.000000,0.000000,0.000000,0.000000,0.000000,0.000000,1764346502.636675,0.000000
8.000000,22424.678197,26583.801399,13721.177128,20336.913507,25299.492514,-1831.568996,-10332.116226,17021.859231,23595.149648,20840.163033,3267.981502,-6583.236943,21456.154758,18840.151291,491.738378,4727.148083,0.006250,-0.018250,1.006750,192.000000,0.000000,0.000000,0.000000,0.000000,0.000000,0.000000,0.000000,0.000000,0.000000,1764346502.644688,0.000000
10.000000,22412.720014,26567.171701,13712.906982,20337.896983,25272.536310,-1837.715726,-10329.813997,17010.772766,23486.698984,20835.245649,3276.385757,-6562.248655,21445.180052,18853.942317,498.957991,4711.568917,0.009125,-0.018125,1.006375,192.000000,0.000000,48.000000,127.500000,56.000000,15.500000,56.000000,0.000000,0.000000,0.000000,1764346502.652732,0.000000
12.000000,22409.054328,26564.109512,13702.267552,20329.090396,25290.708279,-1850.210351,-10353.462142,16997.518182,23545.729941,20825.992027,3251.485914,-6591.887068,21433.400683,18830.003599,494.912326,4736.982851,0.009125,-0.018125,1.006375,192.000000,0.000000,0.000000,0.000000,0.000000,0.000000,0.000000,0.000000,0.000000,0.000000,1764346502.660727,0.000000
14.000000,22424.164107,26578.973422,13723.524061,20345.697742,25286.014412,-1819.119074,-10317.945220,17021.747472,23541.684275,20843.068760,3263.354690,-6571.256408,21447.504633,18850.634259,497.996866,4721.649554,0.009125,-0.018125,1.006375,192.000000,0.000000,0.000000,0.000000,0.000000,0.000000,0.000000,0.000000,0.000000,0.000000,1764346502.667781,0.000000
16.000000,22417.503287,26576.648841,13706.827308,20332.264344,25290.887092,-1839.995604,-10347.382468,17005.944789,23502.747536,20843.873423,3272.541257,-6563.478001,21445.403569,18853.718800,503.249526,4717.402723,0.009125,-0.018125,1.006375,192.000000,0.000000,0.000000,0.000000,0.000000,0.000000,0.000000,0.000000,0.000000,0.000000,1764346502.675866,0.000000
18.000000,22432.635418,26581.767390,13719.344284,20335.304181,25303.359366,-1832.552473,-10332.853834,17016.785385,23586.879502,20839.559536,3256.023318,-6585.986207,21450.119787,18836.396198,494.308829,4732.221929,0.009125,-0.018125,1.006375,192.000000,0.000000,0.000000,0.000000,0.000000,0.000000,0.000000,0.000000,0.000000,0.000000,1764346502.684870,0.000000
20.000000,22403.779316,26566.545852,13718.338456,20336.354713,25285.992060,-1828.685621,-10326.997677,17012.404443,23488.732992,20840.319495,3277.391586,-6558.359451,21450.231546,18856.713934,511.452617,4707.009161,0.008563,-0.017063,1.006188,192.000000,0.000000,32.000000,127.500000,64.000000,15.500000,56.000000,0.000000,0.000000,0.000000,1764346502.692935,0.000000
22.000000,22404.136944,26562.164910,13704.770947,20325.290600,25307.159162,-1839.436810,-10353.104514,16991.036176,23549.641496,20826.103786,3250.368327,-6596.647989,21442.564898,18834.272782,498.063922,4735.865263,0.008563,-0.017063,1.006188,192.000000,0.000000,0.000000,0.000000,0.000000,0.000000,0.000000,0.000000,0.000000,0.000000,1764346502.699881,0.000000
24.000000,22416.296293,26578.392277,13724.708703,20344.133120,25299.581921,-1813.754656,-10318.749883,17016.092481,23542.801862,20836.631457,3260.672481,-6580.174754,21454.947764,18850.276631,502.511919,4721.604850,0.008563,-0.017063,1.006188,192.000000,0.000000,0.000000,0.000000,0.000000,0.000000,0.000000,0.000000,0.000000,0.000000,1764346502.707922,0.000000
26.000000,22415.871610,26576.358268,13703.183973,20333.381931,25297.346747,-1833.938281,-10350.288194,17001.988530,23504.110992,20841.034751,3271.758946,-6564.953216,21454.031343,18857.719762,503.405989,4726.097551,0.008563,-0.017063,1.006188,192.000000,0.000000,0.000000,0.000000,0.000000,0.000000,0.000000,0.000000,0.000000,0.000000,1764346502.716985,0.000000
28.000000,22430.512003,26592.317413,13719.076064,20342.657905,25311.785974,-1817.621507,-10333.010296,17024.429682,23592.199217,20847.360295,3262.572379,-6580.800603,21453.785474,18847.147387,489.704369,4740.492075,0.008563,-0.017063,1.006188,192.000000,0.000000,0.000000,0.000000,0.000000,0.000000,0.000000,0.000000,0.000000,0.000000,1764346502.724020,0.000000
30.000000,22431.920163,26593.792629,13721.735921,20343.373161,25294.351613,-1813.553490,-10328.025857,17026.150766,23506.100298,20857.843263,3293.998932,-6543.719058,21461.183901,18873.410687,505.819977,4713.737036,0.005281,-0.018531,1.008094,192.000000,0.000000,8.000000,127.500000,48.000000,15.500000,72.000000,0.000000,0.000000,0.000000,1764346502.732001,0.000000
32.000000,22422.308913,26583.197902,13710.135366,20330.722073,25311.942436,-1835.011165,-10352.031631,17008.224667,23566.338249,20841.839414,3271.960112,-6576.486716,21453.517253,18847.057980,495.962858,4736.357002,0.005281,-0.018531,1.008094,192.000000,0.000000,0.000000,0.000000,0.000000,0.000000,0.000000,0.000000,0.000000,0.000000,1764346502.741022,0.000000
34.000000,22416.318645,26578.839311,13723.099378,20346.010667,25293.859874,-1818.627336,-10319.263973,17019.489946,23545.484071,20843.985181,3271.758946,-6567.411908,21455.953593,18854.523463,503.405989,4716.598060,0.005281,-0.018531,1.008094,192.000000,0.000000,0.000000,0.000000,0.000000,0.000000,0.000000,0.000000,0.000000,0.000000,1764346502.749636,0.000000
36.000000,22412.652959,26573.407838,13700.546467,20332.554916,25292.898749,-1835.279385,-10350.846988,16997.965216,23493.315100,20832.965771,3267.400356,-6570.541152,21440.128558,18852.020067,502.690733,4727.684525,0.005281,-0.018531,1.008094,192.000000,0.000000,0.000000,0.000000,0.000000,0.000000,0.000000,0.000000,0.000000,0.000000,1764346502.756073,0.000000
38.000000,22428.388587,26584.650765,13717.243220,20338.545184,25307.405032,-1824.036458,-10332.093874,17019.802871,23585.694860,20835.692684,3255.576283,-6588.154326,21446.901136,18840.464215,492.185413,4739.195673,0.005281,-0.018531,1.008094,192.000000,0.000000,0.000000,0.000000,0.000000,0.000000,0.000000,0.000000,0.000000,0.000000,1764346502.764107,0.000000
40.000000,22411.736537,26581.543873,13719.366636,20338.276963,25285.992060,-1823.008278,-10326.930621,17025.368455,23495.259702,20844.991010,3287.606333,-6550.625748,21451.617354,18863.352402,508.569242,4713.871147,0.007641,-0.018266,1.011047,192.000000,0.000000,40.000000,127.500000,56.000000,15.500000,88.000000,0.000000,0.000000,0.000000,1764346502.773142,0.000000
42.000000,22417.212715,26581.812093,13711.454119,20325.357655,25305.885113,-1837.894540,-10349.528235,17015.041949,23556.391723,20830.976466,3272.049519,-6581.761728,21441.380255,18834.719817,494.845270,4741.922586,0.007641,-0.018266,1.011047,192.000000,0.000000,0.000000,0.000000,0.000000,0.000000,0.000000,0.000000,0.000000,0.000000,1764346502.780168,0.000000
44.000000,22427.271000,26586.975346,13734.364657,20338.411073,25292.608177,-1820.773103,-10313.698389,17035.382037,23551.474339,20838.196080,3285.795842,-6566.160210,21455.864186,18845.985096,503.875375,4719.794359,0.007641,-0.018266,1.011047,192.000000,0.000000,0.000000,0.000000,0.000000,0.000000,0.000000,0.000000,0.000000,0.000000,1764346502.788176,0.000000
46.000000,22407.824982,26570.479759,13707.967247,20327.414015,25289.434229,-1844.063621,-10346.488398,17008.738757,23505.273283,20827.601353,3284.611199,-6562.650986,21446.230584,18840.352457,506.691695,4721.068409,0.007641,-0.018266,1.011047,192.000000,0.000000,0.000000,0.000000,0.000000,0.000000,0.000000,0.000000,0.000000,0.000000,1764346502.796222,0.000000
48.000000,22411.893000,26574.838349,13714.404549,20340.109806,25302.308834,-1832.083086,-10331.982116,17015.041949,23579.034040,20825.969675,3257.207961,-6588.914286,21442.497843,18824.862698,491.179584,4741.386144,0.007641,-0.018266,1.011047,192.000000,0.000000,0.000000,0.000000,0.000000,0.000000,0.000000,0.000000,0.000000,0.000000,1764346502.805269,0.000000
50.000000,22411.267151,26577.252338,13709.442462,20343.842547,25286.729668,-1825.735191,-10330.529252,17008.649350,23487.280129,20834.195117,3274.307045,-6559.432335,21445.694142,18855.886919,510.245622,4713.871147,0.008820,-0.017133,1.013523,192.000000,0.000000,40.000000,127.500000,64.000000,15.500000,96.000000,0.000000,0.000000,0.000000,1764346502.812253,0.000000
52.000000,22422.174802,26579.733381,13701.485241,20331.973771,25301.660633,-1841.671984,-10356.546683,16997.808754,23553.061313,20828.361312,3252.067060,-6592.177640,21440.553241,18834.339837,500.567317,4744.023650,0.008820,-0.017133,1.013523,192.000000,0.000000,0.000000,0.000000,0.000000,0.000000,0.000000,0.000000,0.000000,0.000000,1764346502.820281,0.000000
54.000000,22424.432328,26587.891768,13726.832119,20344.758969,25297.212636,-1815.967478,-10320.940354,17023.289743,23548.859185,20840.274792,3266.573342,-6569.602379,21454.411322,18849.539024,506.758750,4724.622336,0.008820,-0.017133,1.013523,192.000000,0.000000,0.000000,0.000000,0.000000,0.000000,0.000000,0.000000,0.000000,0.000000,1764346502.830361,0.000000
56.000000,22411.311854,26577.073524,13708.213116,20328.486899,25293.032860,-1840.777915,-10351.897520,17003.575504,23500.668824,20832.406978,3273.658845,-6567.121335,21444.330686,18847.750884,509.664477,4725.494054,0.008820,-0.017133,1.013523,192.000000,0.000000,0.000000,0.000000,0.000000,0.000000,0.000000,0.000000,0.000000,0.000000,1764346502.836384,0.000000
58.000000,22413.949360,26583.890806,13721.847680,20335.639457,25307.896770,-1832.261900,-10332.786779,17020.249906,23588.310014,20832.585792,3261.790068,-6589.383672,21447.236412,18829.668323,498.980343,4737.966327,0.008820,-0.017133,1.013523,192.000000,0.000000,0.000000,0.000000,0.000000,0.000000,0.000000,0.000000,0.000000,0.000000,1764346502.844420,0.000000
60.000000,22413.122346,26580.918024,13719.187822,20338.612239,25287.511979,-1826.226929,-10329.255203,17018.729987,23496.556103,20841.750007,3285.527621,-6551.676280,21452.623183,18856.423361,511.765541,4710.585440,0.008820,-0.017133,1.013523,192.000000,0.000000,0.000000,0.000000,0.000000,0.000000,0.000000,0.000000,0.000000,0.000000,1764346502.852492,0.000000
62.000000,22408.517886,26576.246509,13704.547430,20333.136062,25308.187343,-1840.464990,-10353.551549,17003.217876,23556.525833,20833.211641,3261.097164,-6581.158230,21441.335552,18828.528384,498.980343,4739.732115,0.008000,-0.018000,1.020000,192.000000,0.000000,32.000000,127.500000,56.000000,15.500000,112.000000,0.000000,0.000000,0.000000,1764346502.860468,0.000000
64.000000,22408.853162,26576.313564,13721.758273,20351.688010,25297.391450,-1814.715781,-10318.414607,17020.339313,23542.935973,20841.794710,3268.853220,-6562.986262,21446.767026,18849.293154,504.456521,4722.811845,0.008000,-0.018000,1.020000,192.000000,0.000000,0.000000,0.000000,0.000000,0.000000,0.000000,0.000000,0.000000,0.000000,1764346502.867465,0.000000
66.000000,22394.905674,26560.846157,13701.865220,20333.158414,25292.295252,-1840.532045,-10351.986927,16992.578446,23488.688289,20832.339922,3264.382871,-6567.188390,21438.340418,18847.057980,504.143596,4721.962478,0.008000,-0.018000,1.020000,192.000000,0.000000,0.000000,0.000000,0.000000,0.000000,0.000000,0.000000,0.000000,0.000000,1764346502.876478,0.000000
68.000000,22405.880380,26571.396181,13722.004142,20336.242954,25305.862761,-1830.473760,-10334.731380,17005.251885,23573.557862,20826.304951,3243.595748,-6601.163042,21439.301543,18828.908363,495.895802,4738.078086,0.008000,-0.018000,1.020000,192.000000,0.000000,0.000000,0.000000,0.000000,0.000000,0.000000,0.000000,0.000000,0.000000,1764346502.884505,0.000000
70.000000,22406.662691,26575.061867,13724.015799,20337.941687,25289.657747,-1820.214310,-10328.875223,17012.180926,23489.336489,20837.704341,3273.725900,-6560.996957,21454.634840,18857.384486,512.927832,4704.036379,0.008000,-0.018000,1.020000,192.000000,0.000000,0.000000,0.000000,0.000000,0.000000,0.000000,0.000000,0.000000,0.000000,1764346502.891531,0.000000
72.000000,22413.569380,26580.359230,13709.710683,20328.799823,25307.226218,-1838.743906,-10353.506846,17003.106118,23556.503481,20832.854013,3257.297368,-6586.634408,21445.761197,18834.920983,501.796663,4734.725324,0.004000,-0.016000,1.014000,192.000000,0.000000,16.000000,127.500000,64.000000,15.500000,88.000000,0.000000,0.000000,0.000000,1764346502.899588,0.000000
74.000000,22424.611142,26594.194960,13724.127558,20346.167129,25299.224293,-1816.794493,-10320.135691,17026.374284,23545.059388,20850.288373,3272.854182,-6563.567408,21454.120750,18853.651745,507.764579,4719.302621,0.004000,-0.016000,1.014000,192.000000,0.000000,0.000000,0.000000,0.000000,0.000000,0.000000,0.000000,0.000000,0.000000,1764346502.908621,0.000000
76.000000,22417.749157,26587.288271,13702.289903,20333.158414,25291.848217,-1840.129714,-10351.606947,17007.799984,23499.193609,20849.103731,3274.776432,-6558.627672,21450.700933,18850.902480,506.468178,4730.299679,0.004000,-0.016000,1.014000,192.000000,0.000000,0.000000,0.000000,0.000000,0.000000,0.000000,0.000000,0.000000,0.000000,1764346502.916729,0.000000
78.000000,22432.210735,26595.044326,13716.527965,20342.188518,25306.399203,-1827.836255,-10333.211462,17020.607534,23588.712345,20845.549803,3259.107859,-6580.510030,21450.857395,18837.156157,491.693675,4741.855531,0.004000,-0.016000,1.014000,192.000000,0.000000,0.000000,0.000000,0.000000,0.000000,0.000000,0.000000,0.000000,0.000000,1764346502.923665,0.000000
80.000000,22412.854125,26584.382544,13717.064407,20345.720094,25290.551816,-1822.225967,-10328.875223,17014.304342,23496.712565,20849.282545,3280.163202,-6548.547035,21455.417151,18862.190111,508.569242,4714.496996,0.004000,-0.016000,1.014000,192.000000,0.000000,0.000000,0.000000,0.000000,0.000000,0.000000,0.000000,0.000000,0.000000,1764346502.932681,0.000000
82.000000,22407.087375,26583.577881,13707.453156,20337.315838,25304.566360,-1838.006298,-10351.294023,17002.592027,23555.899984,20839.045446,3255.576283,-6581.024120,21445.358866,18839.547794,495.225250,4739.285080,0.006000,-0.022000,1.008000,192.000000,0.000000,24.000000,127.500000,40.000000,15.500000,64.000000,0.000000,0.000000,0.000000,1764346502.940706,0.000000
84.000000,22425.393453,26592.831503,13728.284982,20352.559728,25296.966767,-1808.122016,-10315.374770,17029.615287,23550.401455,20855.786902,3271.848353,-6557.420678,21458.591099,18858.658535,497.371018,4719.749656,0.006000,-0.022000,1.008000,192.000000,0.000000,0.000000,0.000000,0.000000,0.000000,0.000000,0.000000,0.000000,0.000000,1764346502.947773,0.000000
86.000000,22414.865782,26585.656594,13708.481337,20334.141890,25291.378831,-1840.174418,-10347.337764,17010.057510,23504.580379,20845.169824,3277.458641,-6556.414849,21451.013857,18852.601213,503.674210,4722.834196,0.006000,-0.022000,1.008000,192.000000,0.000000,0.000000,0.000000,0.000000,0.000000,0.000000,0.000000,0.000000,0.000000,1764346502.955782,0.000000
88.000000,22433.015398,26602.465105,13724.619296,20339.975696,25302.867627,-1832.731287,-10329.165796,17028.944734,23593.585025,20847.740274,3266.327472,-6578.364262,21450.678581,18836.418550,493.817090,4735.731153,0.006000,-0.022000,1.008000,192.000000,0.000000,0.000000,0.000000,0.000000,0.000000,0.000000,0.000000,0.000000,0.000000,1764346502.964807,0.000000
90.000000,22426.309875,26597.100687,13722.182956,20341.875594,25287.579034,-1829.400877,-10324.829558,17030.442301,23504.669786,20854.445798,3294.155394,-6538.600509,21456.355924,18858.099742,508.949221,4705.936278,0.006000,-0.022000,1.008000,192.000000,0.000000,0.000000,0.000000,0.000000,0.000000,0.000000,0.000000,0.000000,0.000000,1764346502.972925,0.000000
92.000000,22420.297256,26596.072506,13710.001255,20332.197289,25307.494439,-1843.795400,-10349.170607,17016.405406,23563.812502,20837.592582,3269.993159,-6569.848248,21448.331648,18834.518651,497.952163,4732.445447,0.010000,-0.022000,1.012000,192.000000,0.000000,40.000000,127.500000,40.000000,15.500000,80.000000,0.000000,0.000000,0.000000,1764346502.979909,0.000000
94.000000,22409.926046,26583.577881,13723.009971,20342.501443,25286.126171,-1830.272595,-10318.325200,17024.675551,23545.238202,20837.704341,3271.691891,-6560.125239,21450.812692,18840.352457,503.517747,4713.938202,0.010000,-0.022000,1.012000,192.000000,0.000000,0.000000,0.000000,0.000000,0.000000,0.000000,0.000000,0.000000,0.000000,1764346502.987877,0.000000
96.000000,22400.024223,26572.625527,13702.021683,20329.559783,25283.712182,-1852.669043,-10351.606947,17000.848591,23492.197513,20825.969675,3266.953321,-6563.969739,21438.765101,18840.553622,502.489567,4720.464912,0.010000,-0.022000,1.012000,192.000000,0.000000,0.000000,0.000000,0.000000,0.000000,0.000000,0.000000,0.000000,0.000000,1764346502.996919,0.000000
98.000000,22411.669482,26588.204692,13717.556145,20339.729826,25300.833619,-1833.155970,-10334.597270,17016.964199,23579.905758,20828.473071,3250.211865,-6592.647027,21444.263630,18822.426358,494.465291,4738.033383,0.010000,-0.022000,1.012000,192.000000,0.000000,0.000000,0.000000,0.000000,0.000000,0.000000,0.000000,0.000000,0.000000,1764346503.003967,0.000000
100.000000,22416.631569,26591.333937,13718.226697,20346.100074,25292.541122,-1820.303717,-10328.070560,17023.490909,23499.081850,20843.336981,3281.303141,-6548.122352,21456.646497,18859.060867,510.044457,4707.344438,0.010000,-0.022000,1.012000,192.000000,0.000000,0.000000,0.000000,0.000000,0.000000,0.000000,0.000000,0.000000,0.000000,1764346503.011989,0.000000
102.000000,22415.983369,26584.561358,13705.083871,20334.074835,25303.404069,-1839.325051,-10353.328032,17010.124565,23567.321726,20836.206774,3263.131173,-6576.889047,21451.170319,18838.497262,499.114454,4738.838045,0.008000,-0.016000,1.016000,192.000000,0.000000,32.000000,127.500000,64.000000,15.500000,96.000000,0.000000,0.000000,0.000000,1764346503.019983,0.000000
104.000000,22423.761776,26594.999623,13725.781587,20350.793940,25294.731593,-1810.692467,-10318.906345,17030.799929,23552.994258,20845.326286,3271.647188,-6562.092192,21454.411322,18853.472931,503.853024,4723.884728,0.008000,-0.016000,1.016000,192.000000,0.000000,0.000000,0.000000,0.000000,0.000000,0.000000,0.000000,0.000000,0.000000,1764346503.029005,0.000000
106.000000,22409.009625,26585.544835,13706.983770,20335.125367,25293.770467,-1835.257034,-10351.361078,17007.017673,23509.363652,20846.130949,3274.575266,-6557.934768,21449.784511,18858.926756,505.574108,4724.622336,0.008000,-0.016000,1.016000,192.000000,0.000000,0.000000,0.000000,0.000000,0.000000,0.000000,0.000000,0.000000,0.000000,1764346503.036059,0.000000
108.000000,22406.126250,26579.599271,13718.271401,20340.199213,25300.900674,-1828.663269,-10335.580747,17013.834955,23584.018479,20835.826795,3251.620025,-6587.506126,21450.119787,18836.463253,496.588707,4738.949804,0.008000,-0.016000,1.016000,192.000000,0.000000,0.000000,0.000000,0.000000,0.000000,0.000000,0.000000,0.000000,0.000000,1764346503.044102,0.000000
110.000000,22412.652959,26575.799474,13716.147985,20341.383856,25282.192264,-1823.611775,-10331.602136,17011.912705,23493.180989,20837.816100,3273.368272,-6559.208817,21450.142139,18856.579823,512.033762,4708.082045,0.008000,-0.016000,1.016000,192.000000,0.000000,0.000000,0.000000,0.000000,0.000000,0.000000,0.000000,0.000000,0.000000,1764346503.053169,0.000000
112.000000,22399.063098,26569.608041,13701.596999,20329.671541,25290.283595,-1848.913950,-10357.194883,16996.199429,23550.401455,20823.041597,3249.653071,-6592.177640,21437.535755,18831.478814,497.259259,4738.838045,0.008000,-0.022000,1.010000,192.000000,0.000000,32.000000,127.500000,40.000000,15.500000,72.000000,0.000000,0.000000,0.000000,1764346503.060169,0.000000
114.000000,22410.462488,26580.336878,13721.981790,20346.033018,25284.561549,-1821.644821,-10321.342685,17018.729987,23538.398568,20831.222335,3262.281807,-6574.609169,21448.309296,18842.364114,501.483739,4719.973173,0.008000,-0.022000,1.010000,192.000000,0.000000,0.000000,0.000000,0.000000,0.000000,0.000000,0.000000,0.000000,0.000000,1764346503.068172,0.000000
116.000000,22396.425592,26571.865567,13701.418185,20331.325571,25288.406049,-1848.779839,-10353.328032,16998.032272,23493.918597,20829.925934,3265.813382,-6568.775364,21442.542546,18838.497262,505.775274,4719.928470,0.008000,-0.022000,1.010000,192.000000,0.000000,0.000000,0.000000,0.000000,0.000000,0.000000,0.000000,0.000000,0.000000,1764346503.076227,0.000000
118.000000,22410.864819,26584.784875,13721.043017,20340.087454,25309.014357,-1829.870263,-10332.362095,17016.405406,23581.537435,20833.278696,3252.759964,-6587.349664,21450.365657,18827.299038,494.152366,4733.563034,0.008000,-0.022000,1.010000,192.000000,0.000000,0.000000,0.000000,0.000000,0.000000,0.000000,0.000000,0.000000,0.000000,1764346503.085251,0.000000
120.000000,22401.611197,26575.933585,13722.115901,20337.852280,25287.914310,-1834.430019,-10328.137616,17012.337388,23488.285957,20840.207737,3276.475164,-6554.514951,21451.527947,18853.785855,507.518710,4701.980019,0.008000,-0.022000,1.010000,192.000000,0.000000,0.000000,0.000000,0.000000,0.000000,0.000000,0.000000,0.000000,0.000000,1764346503.092283,0.000000
122.000000,22399.979520,26572.044381,13712.102319,20327.682236,25303.672290,-1849.182171,-10350.869340,17000.245094,23550.826138,20825.544992,3252.469391,-6591.350626,21442.497843,18825.332084,501.751960,4731.573729,0.006000,-0.020000,1.014000,192.000000,0.000000,24.000000,127.500000,48.000000,15.500000,88.000000,0.000000,0.000000,0.000000,1764346503.101135,0.000000
124.000000,22406.528581,26580.158064,13733.895270,20349.117559,25294.463372,-1818.180301,-10315.441825,17027.134243,23536.811595,20837.637286,3266.327472,-6573.670396,21456.892366,18843.280535,506.110550,4715.279307,0.006000,-0.020000,1.014000,192.000000,0.000000,0.000000,0.000000,0.000000,0.000000,0.000000,0.000000,0.000000,0.000000,1764346503.108323,0.000000
126.000000,22411.311854,26579.845140,13709.688331,20338.366370,25295.849180,-1836.151104,-10348.544758,17009.185792,23500.467658,20839.894812,3274.172935,-6561.265178,21455.774779,18853.294117,504.680038,4719.302621,0.006000,-0.020000,1.014000,192.000000,0.000000,0.000000,0.000000,0.000000,0.000000,0.000000,0.000000,0.000000,0.000000,1764346503.116372,0.000000
128.000000,22427.271000,26597.771239,13722.071197,20347.374123,25307.248569,-1823.835292,-10330.842177,17026.664856,23585.739563,20845.259231,3259.398432,-6578.096041,21454.500729,18842.185300,496.879279,4736.960499,0.006000,-0.020000,1.014000,192.000000,0.000000,0.000000,0.000000,0.000000,0.000000,0.000000,0.000000,0.000000,0.000000,1764346503.124380,0.000000
130.000000,22404.606331,26582.773218,13718.092587,20346.681219,25283.198092,-1823.455313,-10329.791645,17021.993342,23490.319966,20852.858824,3282.286618,-6543.584948,21457.741732,18866.436942,506.892861,4712.887670,0.006000,-0.020000,1.014000,192.000000,0.000000,0.000000,0.000000,0.000000,0.000000,0.000000,0.000000,0.000000,0.000000,1764346503.132408,0.000000
132.000000,22411.155392,26576.738247,13710.582401,20332.532565,25299.023127,-1840.733211,-10353.238625,17009.655179,23553.083665,20839.984219,3259.376080,-6579.303036,21444.889479,18837.647896,497.013390,4743.554264,0.007000,-0.021000,1.015000,192.000000,0.000000,32.000000,127.500000,40.000000,15.500000,96.000000,0.000000,0.000000,0.000000,1764346503.140451,0.000000
134.000000,22411.177744,26582.773218,13730.587212,20345.496576,25288.897787,-1814.559318,-10319.643953,17028.542403,23540.097301,20847.762626,3273.457679,-6564.081498,21453.427846,18851.573032,504.344762,4719.101455,0.007000,-0.021000,1.015000,192.000000,0.000000,0.000000,0.000000,0.000000,0.000000,0.000000,0.000000,0.000000,0.000000,1764346503.148486,0.000000
136.000000,22406.305064,26572.469064,13707.967247,20329.738597,25282.304023,-1841.582577,-10353.529197,17002.614379,23500.266492,20835.066835,3272.116574,-6567.009576,21448.577517,18847.192090,503.629506,4722.700086,0.007000,-0.021000,1.015000,192.000000,0.000000,0.000000,0.000000,0.000000,0.000000,0.000000,0.000000,0.000000,0.000000,1764346503.156495,0.000000
138.000000,22407.892037,26578.839311,13719.120767,20339.238088,25295.536255,-1829.199711,-10337.860625,17012.493850,23579.726944,20829.300085,3252.134115,-6593.541097,21446.744674,18831.679980,491.559564,4735.015897,0.007000,-0.021000,1.015000,192.000000,0.000000,0.000000,0.000000,0.000000,0.000000,0.000000,0.000000,0.000000,0.000000,1764346503.164512,0.000000
140.000000,22408.450831,26578.548739,13716.326799,20343.864899,25280.627642,-1825.332859,-10334.776084,17011.644484,23491.549312,20839.447777,3275.826964,-6556.124277,21452.779645,18855.462236,507.921041,4707.545603,0.007000,-0.021000,1.015000,192.000000,0.000000,0.000000,0.000000,0.000000,0.000000,0.000000,0.000000,0.000000,0.000000,1764346503.173566,0.000000
142.000000,22408.473183,26575.419495,13704.770947,20334.633629,25300.297177,-1844.890636,-10358.312471,16999.865115,23558.358676,20832.630495,3253.005833,-6585.740338,21443.727189,18833.646933,497.639239,4736.111133,0.005500,-0.021500,1.012500,192.000000,0.000000,16.000000,127.500000,40.000000,15.500000,72.000000,0.000000,0.000000,0.000000,1764346503.180571,0.000000
144.000000,22416.162183,26586.662422,13728.732017,20350.123388,25294.396316,-1816.772141,-10319.956877,17024.049702,23545.461720,20843.761664,3266.372176,-6566.964873,21453.003163,18849.471968,502.087236,4721.582499,0.005500,-0.021500,1.012500,192.000000,0.000000,0.000000,0.000000,0.000000,0.000000,0.000000,0.000000,0.000000,0.000000,1764346503.188613,0.000000
146.000000,22408.517886,26573.005506,13712.012912,20336.377065,25294.776296,-1834.407667,-10351.137561,17002.547324,23503.440440,20837.547879,3271.602484,-6566.830762,21448.689276,18849.874300,508.591593,4723.437694,0.005500,-0.021500,1.012500,192.000000,0.000000,0.000000,0.000000,0.000000,0.000000,0.000000,0.000000,0.000000,0.000000,1764346503.196621,0.000000
148.000000,22416.430404,26577.677021,13723.300543,20344.110768,25301.548875,-1830.741981,-10334.664325,17013.097347,23584.063182,20832.004646,3255.151600,-6589.428376,21449.985677,18833.713989,499.919116,4731.730191,0.005500,-0.021500,1.012500,192.000000,0.000000,0.000000,0.000000,0.000000,0.000000,0.000000,0.000000,0.000000,0.000000,1764346503.203653,0.000000
150.000000,22410.618950,26580.716858,13717.779662,20349.519890,25287.176703,-1823.879996,-10331.646840,17013.298513,23488.956510,20839.492481,3273.614141,-6558.538265,21448.376351,18855.328125,510.849120,4711.278345,0.005500,-0.021500,1.012500,192.000000,0.000000,0.000000,0.000000,0.000000,0.000000,0.000000,0.000000,0.000000,0.000000,1764346503.212684,0.000000
152.000000,22404.293407,26582.102666,13707.117880,20341.562669,25304.722822,-1834.988813,-10354.222101,17002.770841,23563.276060,20838.129024,3254.928083,-6581.135879,21446.297639,18839.927773,496.387541,4737.876920,0.006750,-0.019750,1.014250,192.000000,0.000000,32.000000,127.500000,56.000000,15.500000,96.000000,0.000000,0.000000,0.000000,1764346503.220904,0.000000
154.000000,22403.846372,26580.046306,13722.652343,20352.269155,25287.623738,-1816.816845,-10323.667267,17016.539516,23547.585135,20847.829681,3266.662749,-6562.606283,21457.540567,18856.289250,505.060018,4722.454217,0.006750,-0.019750,1.014250,192.000000,0.000000,0.000000,0.000000,0.000000,0.000000,0.000000,0.000000,0.000000,0.000000,1764346503.227737,0.000000
156.000000,22404.919255,26571.709105,13704.480374,20340.310972,25294.843351,-1836.128752,-10355.116171,16997.831106,23503.328681,20837.391417,3264.986368,-6566.115506,21452.712590,18852.668268,506.535233,4731.193749,0.006750,-0.019750,1.014250,192.000000,0.000000,0.000000,0.000000,0.000000,0.000000,0.000000,0.000000,0.000000,0.000000,1764346503.235770,0.000000
158.000000,22411.825944,26582.817922,13716.818537,20348.178786,25304.678119,-1819.163778,-10338.173549,17011.912705,23591.327499,20842.465263,3251.754135,-6583.885143,21454.232508,18841.246526,493.571221,4745.968252,0.006750,-0.019750,1.014250,192.000000,0.000000,0.000000,0.000000,0.000000,0.000000,0.000000,0.000000,0.000000,0.000000,1764346503.244816,0.000000
160.000000,22413.949360,26589.478742,13718.584325,20351.330382,25289.523636,-1809.507824,-10334.083180,17015.936019,23503.194571,20855.362219,3277.883324,-6548.077649,21460.535700,18869.946166,511.944355,4714.698161,0.006750,-0.019750,1.014250,192.000000,0.000000,0.000000,0.000000,0.000000,0.000000,0.000000,0.000000,0.000000,0.000000,1764346503.252882,0.000000
162.000000,22407.154430,26578.034649,13701.596999,20338.656943,25298.687851,-1837.671022,-10360.458238,16997.473478,23565.332421,20841.325324,3254.056365,-6582.365225,21447.728151,18841.671210,500.902593,4747.890502,0.006375,-0.017875,1.012125,192.000000,0.000000,24.000000,127.500000,64.000000,15.500000,72.000000,0.000000,0.000000,0.000000,1764346503.259975,0.000000
164.000000,22410.484840,26583.980213,13723.032322,20354.191405,25293.099915,-1812.704124,-10322.929659,17020.942810,23543.695932,20846.577984,3262.617083,-6565.914341,21449.270421,18855.730457,502.333105,4727.796284,0.006375,-0.017875,1.012125,192.000000,0.000000,0.000000,0.000000,0.000000,0.000000,0.000000,0.000000,0.000000,0.000000,1764346503.268236,0.000000
166.000000,22409.769584,26576.402971,13704.614485,20338.411073,25287.534331,-1836.464028,-10352.836293,17002.793193,23504.423917,20841.682952,3267.579170,-6561.891027,21445.649439,18855.126960,509.306849,4728.086856,0.006375,-0.017875,1.012125,192.000000,0.000000,0.000000,0.000000,0.000000,0.000000,0.000000,0.000000,0.000000,0.000000,1764346503.276912,0.000000
168.000000,22409.635473,26577.475855,13716.975000,20343.417864,25296.139752,-1827.880958,-10335.714857,17013.678493,23588.332366,20834.485690,3253.475219,-6587.640236,21447.191709,18831.635276,494.845270,4741.967290,0.006375,-0.017875,1.012125,192.000000,0.000000,0.000000,0.000000,0.000000,0.000000,0.000000,0.000000,0.000000,0.000000,1764346503.283969,0.000000
170.000000,22404.360462,26571.284422,13713.175203,20343.395513,25277.431342,-1831.166665,-10332.786779,17008.962275,23493.650376,20836.720864,3273.010644,-6557.666547,21448.689276,18853.294117,508.345724,4712.574746,0.006375,-0.017875,1.012125,192.000000,0.000000,0.000000,0.000000,0.000000,0.000000,0.000000,0.000000,0.000000,0.000000,1764346503.291952,0.000000
172.000000,22410.507191,26565.450617,13699.540639,20330.632666,25288.718973,-1851.819676,-10356.636090,16992.980777,23546.691066,20821.074643,3247.060269,-6592.803489,21430.114976,18824.907401,492.408930,4738.145141,0.006188,-0.017938,1.011062,192.000000,0.000000,24.000000,127.500000,56.000000,15.500000,72.000000,0.000000,0.000000,0.000000,1764346503.299993,0.000000
174.000000,22399.130154,26574.659535,13722.540584,20346.412998,25276.112589,-1826.025763,-10319.643953,17018.841746,23533.682350,20829.143623,3257.900865,-6576.307902,21438.921563,18839.301925,497.572183,4715.525176,0.006188,-0.017938,1.011062,192.000000,0.000000,0.000000,0.000000,0.000000,0.000000,0.000000,0.000000,0.000000,0.000000,1764346503.309026,0.000000
176.000000,22404.539276,26575.173625,13704.502726,20333.448986,25283.443962,-1846.097630,-10350.824636,17005.989493,23498.746574,20826.863745,3268.473240,-6565.690823,21437.401645,18838.609021,501.662553,4718.855586,0.006188,-0.017938,1.011062,192.000000,0.000000,0.000000,0.000000,0.000000,0.000000,0.000000,0.000000,0.000000,0.000000,1764346503.316053,0.000000
178.000000,22424.521735,26592.138599,13723.099378,20341.585021,25294.820999,-1833.938281,-10331.222156,17029.145900,23589.539360,20831.781129,3262.192400,-6580.487678,21442.274325,18825.421491,491.894840,4733.227758,0.006188,-0.017938,1.011062,192.000000,0.000000,0.000000,0.000000,0.000000,0.000000,0.000000,0.000000,0.000000,0.000000,1764346503.324065,0.000000
180.000000,22427.092186,26599.648786,13723.367598,20346.345943,25287.914310,-1825.869301,-10329.121092,17031.403426,23499.774754,20844.432216,3292.635476,-6542.780285,21450.253898,18855.775160,508.233965,4712.194766,0.006188,-0.017938,1.011062,192.000000,0.000000,0.000000,0.000000,0.000000,0.000000,0.000000,0.000000,0.000000,0.000000,1764346503.332100,0.000000
182.000000,22432.724825,26600.185227,13713.890459,20338.522832,25311.495401,-1839.325051,-10353.886825,17018.439414,23572.708496,20841.660600,3274.016473,-6569.669434,21451.550299,18837.983172,499.673247,4735.217063,0.007094,-0.018969,1.015531,192.000000,0.000000,32.000000,127.500000,48.000000,15.500000,112.000000,0.000000,0.000000,0.000000,1764346503.340104,0.000000
184.000000,22440.682046,26612.545742,13735.906927,20356.359524,25303.716994,-1806.803263,-10317.475834,17041.618173,23558.559842,20855.295164,3284.946476,-6549.061125,21464.626070,18858.926756,505.328239,4720.800188,0.007094,-0.018969,1.015531,192.000000,0.000000,0.000000,0.000000,0.000000,0.000000,0.000000,0.000000,0.000000,0.000000,1764346503.348182,0.000000
186.000000,22428.522698,26597.793591,13714.046921,20341.048579,25301.571226,-1830.585519,-10348.455351,17018.484118,23518.237295,20854.848129,3289.327418,-6544.814294,21459.574575,18861.340745,509.798588,4717.939164,0.007094,-0.018969,1.015531,192.000000,0.000000,0.000000,0.000000,0.000000,0.000000,0.000000,0.000000,0.000000,0.000000,1764346503.356206,0.000000
188.000000,22422.443023,26591.870378,13720.305409,20342.769664,25306.175686,-1831.121961,-10335.066656,17023.379150,23591.662775,20838.330190,3262.505324,-6577.336082,21448.286944,18836.642067,495.158195,4738.011031,0.007094,-0.018969,1.015531,192.000000,0.000000,0.000000,0.000000,0.000000,0.000000,0.000000,0.000000,0.000000,0.000000,1764346503.364219,0.000000
190.000000,22422.621837,26592.607986,13722.071197,20345.787149,25290.842389,-1820.124903,-10330.641011,17025.144938,23500.221789,20842.644077,3286.265229,-6545.082515,21453.785474,18851.707143,509.217442,4717.872109,0.007094,-0.018969,1.015531,192.000000,0.000000,0.000000,0.000000,0.000000,0.000000,0.000000,0.000000,0.000000,0.000000,1764346503.372236,0.000000
192.000000,22419.202020,26584.918986,13708.838965,20334.208946,25308.992005,-1842.431944,-10355.205578,17007.956446,23572.976717,20832.652847,3265.656920,-6579.884181,21448.242241,18829.623619,497.683942,4744.068354,0.007547,-0.018484,1.011766,192.000000,0.000000,32.000000,127.500000,56.000000,15.500000,64.000000,0.000000,0.000000,0.000000,1764346503.380246,0.000000
194.000000,22421.124270,26591.311585,13727.994410,20350.324553,25299.134886,-1814.224042,-10320.158043,17026.418987,23547.719246,20839.961867,3272.496554,-6566.517838,21457.115883,18842.945259,506.267012,4723.124769,0.007547,-0.018484,1.011766,192.000000,0.000000,0.000000,0.000000,0.000000,0.000000,0.000000,0.000000,0.000000,0.000000,1764346503.388308,0.000000
196.000000,22417.011549,26582.884977,13705.799127,20335.773568,25299.336052,-1828.618566,-10351.852817,17005.654216,23510.704757,20835.737388,3275.670502,-6562.785097,21453.450197,18846.655649,508.658649,4727.751580,0.007547,-0.018484,1.011766,192.000000,0.000000,0.000000,0.000000,0.000000,0.000000,0.000000,0.000000,0.000000,0.000000,1764346503.395365,0.000000
198.000000,22413.167049,26585.366021,13718.271401,20341.830890,25307.226218,-1822.963574,-10333.569090,17017.835917,23590.992223,20835.916202,3258.124382,-6585.650931,21447.415226,18832.350532,496.275782,4742.526083,0.007547,-0.018484,1.011766,192.000000,0.000000,0.000000,0.000000,0.000000,0.000000,0.000000,0.000000,0.000000,0.000000,1764346503.404363,0.000000
200.000000,22409.456659,26579.420457,13715.298619,20343.842547,25291.781162,-1816.727438,-10332.764427,17013.499679,23493.248045,20839.760702,3278.062138,-6554.917282,21449.560994,18853.070599,507.228137,4721.381333,0.007547,-0.018484,1.011766,192.000000,0.000000,0.000000,0.000000,0.000000,0.000000,0.000000,0.000000,0.000000,0.000000,1764346503.412418,0.000000
202.000000,22407.601465,26582.013259,13702.401662,20334.700684,25313.440003,-1832.217196,-10357.284290,16999.395728,23558.671601,20830.507079,3253.475219,-6587.841402,21441.044979,18831.210593,496.655762,4748.561054,0.007547,-0.018484,1.011766,192.000000,0.000000,0.000000,0.000000,0.000000,0.000000,0.000000,0.000000,0.000000,0.000000,1764346503.419436,0.000000
204.000000,22415.491630,26591.937434,13726.362732,20348.894042,25305.639244,-1806.155062,-10323.197880,17022.283914,23546.780473,20845.281583,3266.416879,-6567.948349,21450.924450,18850.053114,506.915213,4731.976060,0.006000,-0.018000,1.012000,192.000000,0.000000,24.000000,127.500000,56.000000,15.500000,80.000000,0.000000,0.000000,0.000000,1764346503.427444,0.000000
206.000000,22405.500401,26584.941338,13707.587267,20335.103015,25306.868590,-1827.411571,-10355.093820,17004.290760,23508.268417,20842.375856,3273.658845,-6564.349719,21450.924450,18848.443788,510.826768,4729.450313,0.006000,-0.018000,1.012000,192.000000,0.000000,0.000000,0.000000,0.000000,0.000000,0.000000,0.000000,0.000000,0.000000,1764346503.436476,0.000000
208.000000,22412.541200,26596.787762,13721.199479,20343.708437,25318.111517,-1822.337725,-10335.267822,17019.199374,23589.762877,20838.799577,3258.124382,-6581.359396,21449.225718,18833.088140,501.707256,4742.302566,0.006000,-0.018000,1.012000,192.000000,0.000000,0.000000,0.000000,0.000000,0.000000,0.000000,0.000000,0.000000,0.000000,1764346503.447507,0.000000
210.000000,22405.165125,26579.107532,13716.550316,20344.602507,25287.936662,-1818.716743,-10333.390276,17013.209106,23495.371460,20843.068760,3278.576228,-6550.648099,21452.533776,18857.585652,514.648916,4718.229737,0.006000,-0.018000,1.012000,192.000000,0.000000,0.000000,0.000000,0.000000,0.000000,0.000000,0.000000,0.000000,0.000000,1764346503.454575,0.000000
212.000000,22408.160258,26581.521521,13707.788433,20337.561707,25312.076546,-1833.066563,-10355.853779,17003.284932,23561.957307,20831.155280,3254.928083,-6585.092137,21443.615430,18828.193108,501.282573,4747.018784,0.006000,-0.018000,1.012000,192.000000,0.000000,0.000000,0.000000,0.000000,0.000000,0.000000,0.000000,0.000000,0.000000,1764346503.460567,0.000000
214.000000,22412.362386,26592.049192,13730.363694,20352.179748,25305.102802,-1811.742999,-10320.426264,17028.542403,23549.909717,20842.934649,3272.474202,-6563.947387,21455.931241,18846.298021,507.988096,4724.532929,0.006000,-0.016000,1.006000,192.000000,0.000000,24.000000,127.500000,64.000000,15.500000,56.000000,0.000000,0.000000,0.000000,1764346503.468611,0.000000
216.000000,22408.607293,26585.142503,13709.844793,20335.550050,25297.927892,-1837.089877,-10351.919872,17009.364606,23508.022548,20835.804443,3277.190420,-6560.080535,21452.444369,18844.532233,508.569242,4728.556243,0.006000,-0.016000,1.006000,192.000000,0.000000,0.000000,0.000000,0.000000,0.000000,0.000000,0.000000,0.000000,0.000000,1764346503.475631,0.000000
218.000000,22413.122346,26592.652690,13722.250011,20344.937783,25308.008529,-1824.774066,-10332.831482,17023.334446,23589.584063,20834.262172,3261.655958,-6580.241809,21453.763122,18830.182413,495.851099,4737.631051,0.006000,-0.016000,1.006000,192.000000,0.000000,0.000000,0.000000,0.000000,0.000000,0.000000,0.000000,0.000000,0.000000,1764346503.483651,0.000000
220.000000,22407.668520,26585.097800,13716.907944,20344.200175,25287.824903,-1826.316336,-10330.484549,17021.903935,23495.393812,20841.772359,3284.275923,-6545.596605,21454.545433,18853.897614,509.619774,4712.619449,0.006000,-0.016000,1.006000,192.000000,0.000000,0.000000,0.000000,0.000000,0.000000,0.000000,0.000000,0.000000,0.000000,1764346503.492670,0.000000
222.000000,22403.287578,26580.135713,13706.044997,20333.314876,25305.840409,-1843.281310,-10352.299851,17011.599781,23557.911641,20826.483765,3259.867818,-6578.923056,21445.425921,18824.974456,494.688808,4743.554264,0.006000,-0.016000,1.006000,192.000000,0.000000,0.000000,0.000000,0.000000,0.000000,0.000000,0.000000,0.000000,0.000000,1764346503.500751,0.000000
224.000000,22409.009625,26590.596329,13726.720360,20347.575289,25298.889017,-1813.441731,-10317.386427,17030.844632,23541.192536,20835.111539,3272.317740,-6560.706384,21452.444369,18842.386465,503.160119,4724.465874,0.002000,-0.022000,1.002000,192.000000,0.000000,8.000000,127.500000,40.000000,15.500000,40.000000,0.000000,0.000000,0.000000,1764346503.507732,0.000000
226.000000,22400.605369,26574.436018,13702.580476,20331.929068,25292.742287,-1837.648670,-10352.523369,17004.871905,23503.753365,20830.775300,3272.787127,-6561.443992,21447.616392,18842.766445,505.976439,4729.763237,0.002000,-0.022000,1.002000,192.000000,0.000000,0.000000,0.000000,0.000000,0.000000,0.000000,0.000000,0.000000,0.000000,1764346503.515762,0.000000
228.000000,22410.194267,26585.209559,13718.919601,20341.160338,25310.869552,-1824.170568,-10333.993773,17020.495775,23587.371241,20829.143623,3254.056365,-6584.578047,21450.745636,18828.662494,497.080445,4745.945900,0.002000,-0.022000,1.002000,192.000000,0.000000,0.000000,0.000000,0.000000,0.000000,0.000000,0.000000,0.000000,0.000000,1764346503.523820,0.000000
230.000000,22410.306026,26583.086143,13715.164508,20342.613201,25290.194188,-1826.361039,-10333.166758,17017.478289,23495.617330,20840.990048,3280.811403,-6548.055297,21458.389933,18853.204710,517.532291,4718.743827,0.002000,-0.022000,1.002000,192.000000,0.000000,0.000000,0.000000,0.000000,0.000000,0.000000,0.000000,0.000000,0.000000,1764346503.531800,0.000000
232.000000,22401.007700,26579.800436,13705.307389,20331.102053,25308.276750,-1838.475685,-10355.138523,17005.855382,23560.258575,20826.170841,3255.330414,-6584.287475,21445.962363,18823.879221,503.830672,4750.393897,0.002000,-0.022000,1.002000,192.000000,0.000000,0.000000,0.000000,0.000000,0.000000,0.000000,0.000000,0.000000,0.000000,1764346503.539806,0.000000
234.000000,22414.910485,26593.166780,13727.994410,20348.357600,25298.084354,-1813.173510,-10318.325200,17030.934039,23546.244031,20838.218431,3271.848353,-6564.081498,21458.456988,18842.140596,508.636297,4729.986755,0.006000,-0.018000,1.008000,192.000000,0.000000,24.000000,127.500000,56.000000,15.500000,64.000000,0.000000,0.000000,0.000000,1764346503.547881,0.000000
236.000000,22409.993101,26583.868454,13707.207287,20337.159376,25300.565398,-1832.083086,-10350.712878,17012.337388,23512.157620,20841.593545,3280.140851,-6555.073745,21451.840872,18849.650782,513.553681,4732.020763,0.006000,-0.018000,1.008000,192.000000,0.000000,0.000000,0.000000,0.000000,0.000000,0.000000,0.000000,0.000000,0.000000,1764346503.556993,0.000000
238.000000,22416.631569,26590.462219,13720.931258,20346.971792,25308.701433,-1819.811978,-10330.797473,17023.736778,23593.607377,20839.939516,3260.024281,-6577.537248,21452.310258,18831.009427,501.014352,4747.778743,0.006000,-0.018000,1.008000,192.000000,0.000000,0.000000,0.000000,0.000000,0.000000,0.000000,0.000000,0.000000,0.000000,1764346503.563942,0.000000
240.000000,22416.899790,26585.656594,13718.450215,20346.144777,25295.200979,-1818.783798,-10329.679886,17020.205202,23501.518190,20848.924917,3284.655903,-6547.451800,21459.328706,18858.457370,512.592556,4716.441598,0.006000,-0.018000,1.008000,192.000000,0.000000,0.000000,0.000000,0.000000,0.000000,0.000000,0.000000,0.000000,0.000000,1764346503.571966,0.000000
242.000000,22407.646168,26580.448637,13707.587267,20334.633629,25308.612026,-1838.229816,-10352.456314,17009.051682,23571.769723,20834.910373,3261.611254,-6580.420623,21448.376351,18833.892802,500.947297,4747.711688,0.006000,-0.018000,1.008000,192.000000,0.000000,0.000000,0.000000,0.000000,0.000000,0.000000,0.000000,0.000000,0.000000,1764346503.579986,0.000000
244.000000,22423.627665,26596.251320,13731.481282,20352.470321,25300.632453,-1806.915022,-10313.966610,17037.371342,23552.815444,20844.566327,3278.375063,-6557.778306,21461.183901,18850.567204,506.199957,4725.918737,0.010000,-0.016000,1.010000,192.000000,0.000000,40.000000,127.500000,64.000000,15.500000,72.000000,0.000000,0.000000,0.000000,1764346503.588992,0.000000
246.000000,22408.115555,26582.862625,13708.302523,20335.795919,25297.950244,-1833.558301,-10347.047192,17011.935057,23513.789298,20843.605202,3282.554839,-6553.553826,21456.847663,18851.461274,508.233965,4727.773932,0.010000,-0.016000,1.010000,192.000000,0.000000,0.000000,0.000000,0.000000,0.000000,0.000000,0.000000,0.000000,0.000000,1764346503.595994,0.000000
248.000000,22409.590770,26585.790704,13718.941953,20343.194347,25306.712128,-1822.538891,-10329.724590,17022.708598,23590.567540,20836.184423,3260.381908,-6581.918190,21450.522119,18836.552660,497.594535,4742.906063,0.010000,-0.016000,1.010000,192.000000,0.000000,0.000000,0.000000,0.000000,0.000000,0.000000,0.000000,0.000000,0.000000,1764346503.604090,0.000000
250.000000,22412.295331,26587.198864,13720.104244,20346.703571,25297.056174,-1815.922775,-10327.087084,17024.742606,23499.014795,20843.828719,3285.102938,-6547.138875,21454.076046,18859.060867,512.458445,4719.794359,0.010000,-0.016000,1.010000,192.000000,0.000000,0.000000,0.000000,0.000000,0.000000,0.000000,0.000000,0.000000,0.000000,1764346503.613040,0.000000
252.000000,22410.708357,26582.817922,13709.934200,20333.806614,25309.796668,-1835.882883,-10351.964575,17010.325731,23573.893139,20838.397245,3266.908618,-6576.509068,21454.746599,18837.938468,502.422512,4741.766124,0.010000,-0.016000,1.010000,192.000000,0.000000,0.000000,0.000000,0.000000,0.000000,0.000000,0.000000,0.000000,0.000000,1764346503.619063,0.000000
254.000000,22415.066947,26586.416553,13727.592078,20348.692876,25297.503209,-1808.680810,-10318.839290,17029.615287,23551.742560,20842.420559,3274.038824,-6563.656815,21459.105189,18850.164872,506.781102,4730.076162,0.010000,-0.018000,1.014000,192.000000,0.000000,40.000000,127.500000,56.000000,15.500000,88.000000,0.000000,0.000000,0.000000,1764346503.628105,0.000000
0.000000,22411.557723,26585.231910,13706.380273,20335.550050,25297.190284,-1833.021859,-10349.595290,17011.376263,23517.320873,20841.705303,3280.610237,-6556.459553,21453.159625,18850.969535,506.401122,4732.020763,0.010000,-0.018000,1.014000,192.000000,0.000000,0.000000,0.000000,0.000000,0.000000,0.000000,0.000000,0.000000,0.000000,1764346503.636118,0.000000
2.000000,22417.816212,26585.611890,13723.814633,20343.060236,25308.388508,-1823.611775,-10329.523424,17025.793138,23594.300281,20839.738350,3265.075775,-6579.861829,21447.191709,18834.451596,497.080445,4747.421115,0.010000,-0.018000,1.014000,192.000000,0.000000,0.000000,0.000000,0.000000,0.000000,0.000000,0.000000,0.000000,0.000000,1764346503.644156,0.000000
4.000000,22423.538258,26590.909253,13722.406473,20346.636515,25293.412840,-1816.325106,-10327.355305,17026.597801,23504.848600,20849.103731,3290.847336,-6544.389611,21458.077008,18859.686716,519.521596,4715.860452,0.010000,-0.018000,1.014000,192.000000,0.000000,0.000000,0.000000,0.000000,0.000000,0.000000,0.000000,0.000000,0.000000,1764346503.652173,0.000000
6.000000,22423.202982,26581.499169,13708.838965,20334.767739,25307.762660,-1830.876092,-10352.277500,17008.872868,23571.814426,20838.687818,3264.494629,-6579.034815,21443.749540,18836.977343,504.903556,4750.036269,0.010000,-0.018000,1.014000,192.000000,0.000000,0.000000,0.000000,0.000000,0.000000,0.000000,0.000000,0.000000,0.000000,1764346503.660215,0.000000
8.000000,22423.001817,26597.547722,13729.268459,20352.537376,25302.755869,-1805.104530,-10317.073502,17034.040932,23553.508348,20847.136777,3276.296351,-6557.979471,21457.205290,18853.450579,511.497320,4728.064505,0.014000,-0.016000,1.012000,192.000000,0.000000,56.000000,127.500000,64.000000,15.500000,80.000000,0.000000,0.000000,0.000000,1764346503.668245,0.000000
10.000000,22413.748194,26589.098762,13705.195630,20337.405245,25303.001738,-1830.049077,-10350.087029,17010.482193,23518.483164,20845.549803,3279.850278,-6554.313785,21453.181976,18850.746018,511.519672,4732.244281,0.014000,-0.016000,1.012000,192.000000,0.000000,0.000000,0.000000,0.000000,0.000000,0.000000,0.000000,0.000000,0.000000,1764346503.675452,0.000000
12.000000,22417.905619,26594.709050,13718.383159,20343.686085,25307.583846,-1815.855720,-10331.423322,17026.441339,23595.082592,20842.800539,3261.477144,-6576.665530,21446.208232,18835.747997,500.768483,4749.321014,0.014000,-0.016000,1.012000,192.000000,0.000000,0.000000,0.000000,0.000000,0.000000,0.000000,0.000000,0.000000,0.000000,1764346503.684273,0.000000
14.000000,22423.605314,26597.748887,13718.047883,20345.407170,25295.513904,-1810.334839,-10328.808168,17027.357760,23504.245103,20852.501196,3287.829851,-6540.925090,21455.931241,18860.290213,515.006544,4721.850720,0.014000,-0.016000,1.012000,192.000000,0.000000,0.000000,0.000000,0.000000,0.000000,0.000000,0.000000,0.000000,0.000000,1764346503.692330,0.000000
16.000000,22424.432328,26598.665309,13707.453156,20335.058312,25311.674215,-1827.232757,-10350.891692,17015.801908,23574.094304,20845.013362,3266.260417,-6572.843382,21448.890442,18839.816015,504.165948,4750.639767,0.014000,-0.016000,1.012000,192.000000,0.000000,0.000000,0.000000,0.000000,0.000000,0.000000,0.000000,0.000000,0.000000,1764346503.699333,0.000000
18.000000,22431.495480,26606.734289,13729.559032,20353.498501,25307.762660,-1799.382484,-10315.061845,17040.925269,23555.877633,20859.184368,3280.900810,-6548.457628,21458.032305,18860.826655,509.329201,4728.846816,0.012000,-0.019000,1.013000,192.000000,0.000000,40.000000,127.500000,40.000000,15.500000,88.000000,0.000000,0.000000,0.000000,1764346503.710120,0.000000
20.000000,22425.460509,26597.748887,13705.776776,20336.935858,25302.308834,-1826.673964,-10349.528235,17015.913667,23516.627969,20854.043466,3281.347845,-6551.139838,21450.388008,18857.898576,512.167872,4734.099476,0.012000,-0.019000,1.013000,192.000000,0.000000,0.000000,0.000000,0.000000,0.000000,0.000000,0.000000,0.000000,0.000000,1764346503.716395,0.000000
22.000000,22425.169936,26601.034594,13720.774796,20341.942649,25309.863724,-1815.721609,-10330.819825,17029.056493,23592.959177,20846.287411,3265.098127,-6574.922094,21448.957497,18836.887936,500.187337,4746.929377,0.012000,-0.019000,1.013000,192.000000,0.000000,0.000000,0.000000,0.000000,0.000000,0.000000,0.000000,0.000000,0.000000,1764346503.724389,0.000000
24.000000,22421.101918,26604.007376,13719.746616,20343.775492,25295.536255,-1814.849891,-10327.981153,17029.570583,23502.702833,20853.887004,3289.215659,-6539.651041,21454.634840,18859.172625,514.246585,4719.950821,0.012000,-0.019000,1.013000,192.000000,0.000000,0.000000,0.000000,0.000000,0.000000,0.000000,0.000000,0.000000,0.000000,1764346503.731429,0.000000
26.000000,22423.202982,26595.089030,13709.755386,20331.280867,25311.294235,-1821.622470,-10350.824636,17015.801908,23572.216758,20844.968658,3268.473240,-6574.698576,21446.834081,18836.105625,505.976439,4748.851627,0.012000,-0.019000,1.013000,192.000000,0.000000,0.000000,0.000000,0.000000,0.000000,0.000000,0.000000,0.000000,0.000000,1764346503.740687,0.000000
28.000000,22425.527564,26600.207579,13731.280116,20345.317763,25298.397279,-1801.550603,-10317.118206,17035.203223,23553.910679,20850.936574,3279.246781,-6555.654890,21459.082837,18850.678963,511.810245,4730.098513,0.010000,-0.018500,1.010500,192.000000,0.000000,32.000000,127.500000,56.000000,15.500000,64.000000,0.000000,0.000000,0.000000,1764346503.748453,0.000000
30.000000,22419.760814,26590.082239,13703.295732,20331.280867,25291.825866,-1831.412534,-10351.808113,17008.336426,23514.146926,20844.946306,3277.637455,-6557.398326,21450.343305,18847.035628,513.441922,4735.395877,0.010000,-0.018500,1.010500,192.000000,0.000000,0.000000,0.000000,0.000000,0.000000,0.000000,0.000000,0.000000,0.000000,1764346503.755505,0.000000
32.000000,22418.129136,26589.545797,13715.499784,20338.142853,25300.341880,-1822.673002,-10332.630316,17020.763996,23584.912549,20838.240783,3255.263359,-6584.086309,21438.988619,18828.215459,496.588707,4749.097496,0.010000,-0.018500,1.010500,192.000000,0.000000,0.000000,0.000000,0.000000,0.000000,0.000000,0.000000,0.000000,0.000000,1764346503.765535,0.000000
34.000000,22410.730709,26582.795570,13714.248087,20336.712341,25281.856988,-1823.187092,-10331.669191,17017.858269,23496.310234,20840.900641,3278.375063,-6552.838570,21445.001238,18850.410742,509.351553,4719.302621,0.010000,-0.018500,1.010500,192.000000,0.000000,0.000000,0.000000,0.000000,0.000000,0.000000,0.000000,0.000000,0.000000,1764346503.772527,0.000000
36.000000,22410.261322,26588.227044,13708.526040,20328.822175,25308.030880,-1833.223025,-10351.674003,17011.398615,23561.845548,20831.937591,3261.410089,-6582.834611,21440.732055,18827.164927,497.572183,4746.102362,0.010000,-0.018500,1.010500,192.000000,0.000000,0.000000,0.000000,0.000000,0.000000,0.000000,0.000000,0.000000,0.000000,1764346503.780580,0.000000
38.000000,22417.145660,26594.105553,13725.312200,20344.691914,25294.932758,-1809.798397,-10320.180395,17029.101196,23547.495728,20844.700437,3275.469336,-6561.019309,21453.852529,18848.957878,507.384599,4725.449351,0.010000,-0.017250,1.011250,192.000000,0.000000,40.000000,127.500000,64.000000,15.500000,80.000000,0.000000,0.000000,0.000000,1764346503.787604,0.000000
40.000000,22409.635473,26586.237739,13702.625180,20329.917411,25295.737421,-1835.793476,-10353.685660,17006.548286,23508.514286,20840.610068,3272.250685,-6558.538265,21445.090645,18842.766445,508.032800,4733.406572,0.010000,-0.017250,1.011250,192.000000,0.000000,0.000000,0.000000,0.000000,0.000000,0.000000,0.000000,0.000000,0.000000,1764346503.795598,0.000000
42.000000,22419.783165,26591.088067,13717.042055,20338.947515,25300.364232,-1819.119074,-10332.652668,17021.523955,23587.192427,20835.402111,3255.352766,-6582.834611,21441.782587,18829.645971,501.863718,4744.336575,0.010000,-0.017250,1.011250,192.000000,0.000000,0.000000,0.000000,0.000000,0.000000,0.000000,0.000000,0.000000,0.000000,1764346503.804655,0.000000
44.000000,22424.298218,26594.217312,13714.292790,20340.780358,25286.707316,-1817.532100,-10331.020991,17019.713464,23494.924425,20846.265059,3280.185554,-6548.591739,21449.248069,18857.429189,513.352515,4717.112150,0.010000,-0.017250,1.011250,192.000000,0.000000,0.000000,0.000000,0.000000,0.000000,0.000000,0.000000,0.000000,0.000000,1764346503.811724,0.000000
46.000000,22414.821078,26585.924814,13706.313217,20333.426634,25310.064889,-1830.719630,-10351.271671,17011.353911,23568.573423,20840.095978,3259.644301,-6579.079518,21440.776758,18836.105625,501.014352,4742.749601,0.010000,-0.017250,1.011250,192.000000,0.000000,0.000000,0.000000,0.000000,0.000000,0.000000,0.000000,0.000000,0.000000,1764346503.819666,0.000000
48.000000,22414.239933,26592.451524,13724.954572,20346.301239,25291.490590,-1807.809092,-10318.883993,17029.548231,23547.696894,20847.740274,3273.256513,-6560.259349,21451.572651,18851.304811,505.127073,4726.991621,0.009000,-0.019625,1.013625,192.000000,0.000000,32.000000,127.500000,40.000000,15.500000,96.000000,0.000000,0.000000,0.000000,1764346503.827548,0.000000
50.000000,22410.484840,26585.433076,13704.234505,20335.438291,25291.848217,-1831.032554,-10351.919872,17009.208144,23507.039071,20842.532318,3272.988292,-6562.405117,21441.603773,18849.382561,509.060980,4732.668964,0.009000,-0.019625,1.013625,192.000000,0.000000,0.000000,0.000000,0.000000,0.000000,0.000000,0.000000,0.000000,0.000000,1764346503.836719,0.000000
52.000000,22413.614084,26588.204692,13718.226697,20343.395513,25302.442944,-1817.643859,-10332.116226,17022.976818,23589.025270,20841.951173,3256.537408,-6575.793812,21444.777721,18838.564317,498.689771,4742.883711,0.009000,-0.019625,1.013625,192.000000,0.000000,0.000000,0.000000,0.000000,0.000000,0.000000,0.000000,0.000000,0.000000,1764346503.843767,0.000000
54.000000,22404.382813,26579.219291,13710.314180,20340.534489,25279.577110,-1820.013144,-10332.540909,17015.444281,23488.978861,20846.019190,3273.748252,-6548.748201,21443.794244,18860.647841,512.324335,4716.039266,0.009000,-0.019625,1.013625,192.000000,0.000000,0.000000,0.000000,0.000000,0.000000,0.000000,0.000000,0.000000,0.000000,1764346503.851784,0.000000
56.000000,22412.049462,26580.940375,13704.100395,20331.973771,25303.180552,-1833.111266,-10352.456314,17008.381129,23556.592888,20834.440986,3251.776487,-6585.203896,21435.300581,18834.675114,497.996866,4746.817618,0.009000,-0.019625,1.013625,192.000000,0.000000,0.000000,0.000000,0.000000,0.000000,0.000000,0.000000,0.000000,0.000000,1764346503.860016,0.000000
58.000000,22420.699587,26594.172608,13725.401607,20347.351771,25289.925967,-1806.691504,-10318.213441,17031.336371,23546.199327,20846.935612,3271.781298,-6561.913378,21448.666924,18849.606079,504.367114,4726.768103,0.007500,-0.020812,1.015813,192.000000,0.000000,24.000000,127.500000,40.000000,15.500000,104.000000,0.000000,0.000000,0.000000,1764346503.867918,0.000000
60.000000,22405.388642,26582.639108,13704.949761,20330.789129,25288.338994,-1836.732249,-10352.433962,17007.107080,23505.787373,20844.655734,3275.089356,-6559.454687,21448.957497,18853.204710,507.071675,4729.964403,0.007500,-0.020812,1.015813,192.000000,0.000000,0.000000,0.000000,0.000000,0.000000,0.000000,0.000000,0.000000,0.000000,1764346503.875920,0.000000
62.000000,22415.134003,26586.260091,13723.255840,20338.813405,25306.600369,-1820.124903,-10331.646840,17024.273220,23584.130238,20835.223298,3259.465487,-6582.342873,21450.700933,18832.059959,504.992962,4738.256900,0.007500,-0.020812,1.015813,192.000000,0.000000,0.000000,0.000000,0.000000,0.000000,0.000000,0.000000,0.000000,0.000000,1764346503.883968,0.000000
64.000000,22410.574247,26583.354364,13718.025532,20336.086492,25284.293328,-1820.884862,-10332.831482,17018.506470,23493.203341,20843.404036,3283.739481,-6549.463457,21455.484206,18857.719762,518.672230,4715.301659,0.007500,-0.020812,1.015813,192.000000,0.000000,0.000000,0.000000,0.000000,0.000000,0.000000,0.000000,0.000000,0.000000,1764346503.892972,0.000000
66.000000,22402.147639,26578.705201,13708.123709,20325.558820,25305.818058,-1836.396973,-10354.490322,17006.235362,23565.265365,20833.099882,3260.650129,-6586.254428,21446.610564,18832.328180,507.943393,4741.542607,0.007500,-0.020812,1.015813,192.000000,0.000000,0.000000,0.000000,0.000000,0.000000,0.000000,0.000000,0.000000,0.000000,1764346503.900094,0.000000
68.000000,22406.081546,26579.509864,13724.440482,20339.282792,25291.088258,-1807.719685,-10321.409741,17025.636676,23542.690103,20841.302972,3273.837659,-6566.607245,21452.891404,18846.521538,508.770407,4726.969269,0.006750,-0.022406,1.013906,192.000000,0.000000,24.000000,127.500000,32.000000,15.500000,80.000000,0.000000,0.000000,0.000000,1764346503.908032,0.000000
70.000000,22401.521790,26569.608041,13699.652398,20325.514117,25289.344822,-1840.017955,-10355.339689,17000.848591,23499.059498,20829.389492,3271.915409,-6568.887123,21440.463834,18839.726608,511.117340,4729.874996,0.006750,-0.022406,1.013906,192.000000,0.000000,0.000000,0.000000,0.000000,0.000000,0.000000,0.000000,0.000000,0.000000,1764346503.916019,0.000000
72.000000,22401.566494,26572.558471,13712.102319,20335.438291,25297.950244,-1826.226929,-10337.234776,17013.566734,23578.117618,20827.780167,3253.318757,-6589.003693,21441.380255,18827.880183,496.387541,4744.850665,0.006750,-0.022406,1.013906,192.000000,0.000000,0.000000,0.000000,0.000000,0.000000,0.000000,0.000000,0.000000,0.000000,1764346503.924071,0.000000
74.000000,22400.895941,26579.487512,13709.800090,20336.377065,25278.839502,-1824.617603,-10336.430113,17011.219801,23480.887530,20835.647981,3272.653016,-6556.638367,21438.452177,18852.154178,512.234928,4716.061618,0.006750,-0.022406,1.013906,192.000000,0.000000,0.000000,0.000000,0.000000,0.000000,0.000000,0.000000,0.000000,0.000000,1764346503.932061,0.000000
76.000000,22403.578151,26573.027858,13706.022645,20329.090396,25301.235950,-1840.219121,-10355.294985,17002.524972,23555.408246,20826.126138,3252.827019,-6587.684940,21436.708741,18824.661532,500.299096,4738.815694,0.006750,-0.022406,1.013906,192.000000,0.000000,0.000000,0.000000,0.000000,0.000000,0.000000,0.000000,0.000000,0.000000,1764346503.940143,0.000000
78.000000,22405.813325,26574.324259,13724.887517,20343.261402,25288.651918,-1819.901385,-10321.566203,17019.802871,23542.287772,20841.347675,3272.407147,-6565.936692,21453.941936,18846.454483,508.368076,4714.318182,0.007375,-0.023203,1.009953,192.000000,0.000000,32.000000,127.500000,32.000000,15.500000,56.000000,0.000000,0.000000,0.000000,1764346503.948130,0.000000
80.000000,22403.131116,26569.988021,13704.480374,20328.375140,25290.797685,-1845.494133,-10354.378564,16998.836934,23500.244141,20825.142661,3268.942627,-6572.418698,21442.989581,18835.479776,509.552718,4730.277327,0.007375,-0.023203,1.009953,192.000000,0.000000,0.000000,0.000000,0.000000,0.000000,0.000000,0.000000,0.000000,0.000000,1764346503.955181,0.000000
82.000000,22403.086412,26574.234852,13716.885593,20335.438291,25298.799610,-1828.216234,-10336.743037,17012.315036,23586.745392,20828.271905,3256.492705,-6587.327312,21446.565860,18828.170756,501.997829,4743.934243,0.007375,-0.023203,1.009953,192.000000,0.000000,0.000000,0.000000,0.000000,0.000000,0.000000,0.000000,0.000000,0.000000,1764346503.964222,0.000000
84.000000,22398.772526,26570.099779,13712.527002,20338.411073,25281.521712,-1827.143350,-10335.938375,17008.001150,23483.703850,20833.546917,3272.787127,-6555.073745,21445.895308,18849.784893,510.603250,4721.806016,0.007375,-0.023203,1.009953,192.000000,0.000000,0.000000,0.000000,0.000000,0.000000,0.000000,0.000000,0.000000,0.000000,1764346503.972245,0.000000
86.000000,22400.784183,26568.088122,13701.328778,20329.179803,25299.447811,-1843.236607,-10356.613738,16997.406423,23552.658981,20825.008550,3250.658900,-6588.713120,21443.056636,18830.517689,497.862756,4745.275348,0.007375,-0.023203,1.009953,192.000000,0.000000,0.000000,0.000000,0.000000,0.000000,0.000000,0.000000,0.000000,0.000000,1764346503.979287,0.000000
88.000000,22404.718090,26580.560396,13721.177128,20347.798806,25283.421610,-1816.861548,-10319.599249,17021.680417,23531.134251,20836.631457,3263.958188,-6569.088288,21445.984715,18844.621640,503.853024,4724.644688,0.007375,-0.023203,1.009953,192.000000,0.000000,0.000000,0.000000,0.000000,0.000000,0.000000,0.000000,0.000000,0.000000,1764346503.987304,0.000000
90.000000,22404.785145,26574.503073,13701.619351,20332.264344,25286.595558,-1843.169551,-10351.964575,17002.770841,23498.388946,20835.335056,3269.747289,-6565.132030,21442.207270,18843.168776,505.439997,4724.868205,0.010000,-0.022000,1.014000,192.000000,0.000000,40.000000,127.500000,40.000000,15.500000,88.000000,0.000000,0.000000,0.000000,1764346503.998335,0.000000
92.000000,22416.340997,26581.409762,13721.355941,20345.943611,25300.543046,-1825.601080,-10330.305735,17022.127452,23585.381935,20840.163033,3259.957225,-6582.119355,21451.460892,18837.245564,495.582878,4736.446409,0.010000,-0.022000,1.014000,192.000000,0.000000,0.000000,0.000000,0.000000,0.000000,0.000000,0.000000,0.000000,0.000000,1764346504.004375,0.000000
94.000000,22404.628683,26578.079352,13716.751482,20345.898908,25284.338031,-1826.696316,-10331.579784,17016.628923,23495.192646,20851.048333,3284.633551,-6545.574253,21458.836968,18862.994774,508.949221,4712.150063,0.010000,-0.022000,1.014000,192.000000,0.000000,0.000000,0.000000,0.000000,0.000000,0.000000,0.000000,0.000000,0.000000,1764346504.011370,0.000000
96.000000,22411.378910,26575.330088,13704.390967,20336.511175,25303.337014,-1836.821656,-10354.087991,17004.246057,23562.672563,20838.151376,3258.839638,-6580.577085,21449.695104,18837.334971,496.409893,4744.694203,0.010000,-0.022000,1.014000,192.000000,0.000000,0.000000,0.000000,0.000000,0.000000,0.000000,0.000000,0.000000,0.000000,1764346504.019436,0.000000
98.000000,22414.172878,26581.566224,13721.758273,20351.822120,25292.384659,-1805.976248,-10319.532194,17023.759129,23538.376217,20846.957963,3270.619007,-6560.862846,21453.137273,18854.210538,499.092102,4724.935260,0.010000,-0.022000,1.014000,192.000000,0.000000,0.000000,0.000000,0.000000,0.000000,0.000000,0.000000,0.000000,0.000000,1764346504.028409,0.000000
100.000000,22394.592749,26572.379657,13699.294770,20332.845489,25293.859874,-1835.145275,-10353.372735,17000.155687,23500.646472,20838.911335,3272.809478,-6562.293358,21444.822424,18848.421436,499.405026,4734.077124,0.010000,-0.022000,1.014000,192.000000,0.000000,40.000000,127.500000,40.000000,15.500000,88.000000,0.000000,0.000000,0.000000,1764346504.035430,0.000000
102.000000,22404.114593,26579.532216,13717.891421,20342.322629,25300.610101,-1823.947051,-10331.535081,17016.181888,23578.810522,20834.731559,3255.062193,-6588.467251,21443.190747,18836.530308,499.583840,4742.257862,0.010000,-0.022000,1.014000,192.000000,0.000000,0.000000,0.000000,0.000000,0.000000,0.000000,0.000000,0.000000,0.000000,1764346504.043427,0.000000
104.000000,22409.300197,26579.129884,13718.874898,20345.474225,25285.299156,-1822.315374,-10329.344610,17019.735815,23490.409373,20845.169824,3282.331322,-6549.977547,21458.479340,18859.731419,512.212576,4712.105359,0.010000,-0.022000,1.014000,192.000000,0.000000,0.000000,0.000000,0.000000,0.000000,0.000000,0.000000,0.000000,0.000000,1764346504.051461,0.000000
106.000000,22408.003796,26578.280518,13708.548392,20335.862975,25304.879284,-1838.498037,-10350.489360,17008.962275,23567.142912,20837.078492,3265.567513,-6576.710233,21448.152834,18838.407855,499.717951,4737.832217,0.010000,-0.022000,1.014000,192.000000,0.000000,0.000000,0.000000,0.000000,0.000000,0.000000,0.000000,0.000000,0.000000,1764346504.060527,0.000000
108.000000,22415.066947,26587.377678,13726.027456,20353.163225,25291.781162,-1811.586536,-10315.531232,17030.084673,23548.054522,20847.852033,3274.396452,-6556.705422,21456.177110,18853.741152,504.992962,4723.862377,0.010000,-0.022000,1.014000,192.000000,0.000000,0.000000,0.000000,0.000000,0.000000,0.000000,0.000000,0.000000,0.000000,1764346504.067540,0.000000
110.000000,22406.550933,26578.347573,13702.960456,20338.589887,25291.602348,-1835.905234,-10349.639994,17008.135260,23507.150830,20845.348638,3273.658845,-6555.274910,21447.795206,18856.088085,505.842329,4734.166531,0.012000,-0.022000,1.020000,192.000000,0.000000,48.000000,127.500000,40.000000,15.500000,112.000000,0.000000,0.000000,0.000000,1764346504.075586,0.000000
112.000000,22412.697662,26582.974384,13719.947782,20347.172957,25305.661596,-1820.638993,-10329.881052,17022.105100,23584.309052,20845.929783,3257.587940,-6576.218495,21453.874881,18843.749922,496.029913,4745.364755,0.012000,-0.022000,1.020000,192.000000,0.000000,0.000000,0.000000,0.000000,0.000000,0.000000,0.000000,0.000000,0.000000,1764346504.084582,0.000000
114.000000,22413.122346,26585.522483,13716.192688,20345.317763,25292.138790,-1816.772141,-10331.803302,17017.433586,23495.818495,20852.970583,3283.650074,-6545.328384,21457.026477,18866.883977,512.771370,4717.313316,0.012000,-0.022000,1.020000,192.000000,0.000000,0.000000,0.000000,0.000000,0.000000,0.000000,0.000000,0.000000,0.000000,1764346504.091656,0.000000
116.000000,22409.926046,26580.538044,13705.665017,20332.577268,25307.941473,-1831.792513,-10355.004413,17004.782498,23567.925223,20841.034751,3261.186571,-6580.510030,21449.739808,18839.436035,501.215518,4747.264653,0.012000,-0.022000,1.020000,192.000000,0.000000,0.000000,0.000000,0.000000,0.000000,0.000000,0.000000,0.000000,0.000000,1764346504.099671,0.000000
118.000000,22413.927008,26586.863588,13724.842814,20347.619992,25298.263168,-1808.881975,-10319.442787,17025.636676,23545.953458,20846.130949,3275.089356,-6561.488695,21459.596927,18855.216367,507.272840,4725.628164,0.012000,-0.022000,1.020000,192.000000,0.000000,0.000000,0.000000,0.000000,0.000000,0.000000,0.000000,0.000000,0.000000,1764346504.107674,0.000000
120.000000,22404.740441,26575.084218,13701.842869,20331.437329,25301.101840,-1834.430019,-10354.825599,17000.289798,23509.453059,20841.660600,3274.843487,-6563.276835,21453.271383,18855.328125,510.357381,4730.389086,0.008000,-0.020000,1.014000,192.000000,0.000000,32.000000,127.500000,48.000000,15.500000,88.000000,0.000000,0.000000,0.000000,1764346504.116746,0.000000
122.000000,22410.641302,26576.470027,13717.332627,20336.734693,25308.746136,-1823.120036,-10336.743037,17009.610475,23583.973775,20834.865670,3255.285711,-6589.517783,21449.739808,18831.679980,500.276744,4745.208293,0.008000,-0.020000,1.014000,192.000000,0.000000,0.000000,0.000000,0.000000,0.000000,0.000000,0.000000,0.000000,0.000000,1764346504.123742,0.000000
124.000000,22407.087375,26577.632317,13718.025532,20340.556841,25294.686889,-1813.441731,-10335.133712,17009.342254,23496.310234,20841.481786,3278.464470,-6555.118448,21456.065351,18857.965631,517.286422,4716.910984,0.008000,-0.020000,1.014000,192.000000,0.000000,0.000000,0.000000,0.000000,0.000000,0.000000,0.000000,0.000000,0.000000,1764346504.131801,0.000000
126.000000,22405.567456,26575.195977,13707.229639,20331.057350,25313.149430,-1836.642842,-10356.971366,16996.691167,23566.181787,20832.585792,3257.789106,-6586.992036,21449.002200,18830.808262,505.261183,4744.738906,0.008000,-0.020000,1.014000,192.000000,0.000000,0.000000,0.000000,0.000000,0.000000,0.000000,0.000000,0.000000,0.000000,1764346504.139799,0.000000
128.000000,22410.440136,26582.057963,13727.301505,20345.362466,25301.079488,-1815.833368,-10322.169700,17019.691112,23541.572516,20842.577021,3270.797821,-6567.680129,21455.372447,18846.745056,511.899652,4725.985792,0.008000,-0.020000,1.014000,192.000000,0.000000,0.000000,0.000000,0.000000,0.000000,0.000000,0.000000,0.000000,0.000000,1764346504.147830,0.000000
130.000000,22401.790011,26577.475855,13706.044997,20329.492727,25300.878322,-1837.492208,-10355.071468,16998.345196,23504.468620,20835.111539,3272.094223,-6568.015405,21444.956534,18843.258183,511.206747,4734.479455,0.010000,-0.016000,1.016000,192.000000,0.000000,40.000000,127.500000,64.000000,15.500000,96.000000,0.000000,0.000000,0.000000,1764346504.155874,0.000000
132.000000,22412.809421,26582.147370,13721.534755,20340.556841,25310.288407,-1818.828502,-10333.166758,17016.897144,23586.298357,20838.777225,3259.219618,-6588.489603,21451.572651,18835.256259,500.008523,4742.101400,0.010000,-0.016000,1.016000,192.000000,0.000000,0.000000,0.000000,0.000000,0.000000,0.000000,0.000000,0.000000,0.000000,1764346504.163973,0.000000
134.000000,22410.574247,26582.326184,13715.902116,20340.936821,25292.809342,-1813.821711,-10333.323220,17014.751376,23499.506533,20851.361257,3284.655903,-6545.127218,21458.166415,18864.917024,511.251451,4712.753560,0.010000,-0.016000,1.016000,192.000000,0.000000,0.000000,0.000000,0.000000,0.000000,0.000000,0.000000,0.000000,0.000000,1764346504.172928,0.000000
136.000000,22402.058232,26574.480721,13701.731110,20328.330437,25300.699508,-1840.040307,-10357.597215,16999.462783,23563.499577,20836.787920,3254.726917,-6583.952198,21440.754407,18834.496300,499.941468,4748.538703,0.010000,-0.016000,1.016000,192.000000,0.000000,0.000000,0.000000,0.000000,0.000000,0.000000,0.000000,0.000000,0.000000,1764346504.178956,0.000000
138.000000,22405.478049,26582.303832,13721.154776,20343.261402,25291.736459,-1816.347458,-10323.466101,17018.953504,23532.654170,20843.851071,3266.103955,-6565.914341,21447.549337,18849.628431,505.775274,4725.225833,0.010000,-0.016000,1.016000,192.000000,0.000000,0.000000,0.000000,0.000000,0.000000,0.000000,0.000000,0.000000,0.000000,1764346504.187978,0.000000
140.000000,22401.879418,26575.508902,13701.775813,20329.582134,25296.273863,-1841.873150,-10355.607910,16998.926341,23500.199437,20840.990048,3270.887228,-6564.662643,21443.637782,18850.455445,509.016276,4727.885691,0.008000,-0.018000,1.010000,192.000000,0.000000,32.000000,127.500000,56.000000,15.500000,72.000000,0.000000,0.000000,0.000000,1764346504.196059,0.000000
142.000000,22412.652959,26587.467085,13718.226697,20341.965001,25306.913293,-1819.700220,-10335.513691,17016.338350,23578.676412,20839.246612,3257.252664,-6583.505164,21445.783549,18830.897669,497.281611,4743.084877,0.008000,-0.018000,1.010000,192.000000,0.000000,0.000000,0.000000,0.000000,0.000000,0.000000,0.000000,0.000000,0.000000,1764346504.205003,0.000000
144.000000,22411.624779,26586.416553,13714.672770,20343.440216,25290.842389,-1816.839196,-10336.497168,17013.454975,23490.051745,20853.082341,3281.928990,-6546.065992,21451.438540,18861.608966,514.224233,4718.833234,0.008000,-0.018000,1.010000,192.000000,0.000000,0.000000,0.000000,0.000000,0.000000,0.000000,0.000000,0.000000,0.000000,1764346504.212043,0.000000
146.000000,22420.677235,26583.667288,13707.229639,20335.930030,25306.421555,-1826.651612,-10356.256110,17006.458879,23563.767798,20841.839414,3258.504362,-6579.593608,21446.990543,18838.407855,504.836500,4751.064450,0.008000,-0.018000,1.010000,192.000000,0.000000,0.000000,0.000000,0.000000,0.000000,0.000000,0.000000,0.000000,0.000000,1764346504.220084,0.000000
148.000000,22415.916314,26593.300890,13723.613468,20351.151568,25291.490590,-1806.043304,-10323.309639,17023.915592,23543.226545,20856.502158,3274.105880,-6554.917282,21458.233471,18860.401971,510.692657,4722.990659,0.008000,-0.018000,1.010000,192.000000,0.000000,0.000000,0.000000,0.000000,0.000000,0.000000,0.000000,0.000000,0.000000,1764346504.229105,0.000000
150.000000,22406.662691,26582.907329,13703.094566,20335.974733,25290.149485,-1835.972290,-10356.122000,17001.429737,23502.591074,20846.957963,3270.551952,-6558.895893,21445.895308,18856.065733,509.262146,4738.748638,0.006000,-0.022000,1.004000,192.000000,0.000000,24.000000,127.500000,40.000000,15.500000,48.000000,0.000000,0.000000,0.000000,1764346504.235162,0.000000
152.000000,22425.393453,26600.498152,13722.518232,20345.898908,25304.946340,-1824.908176,-10332.965592,17023.625019,23588.578235,20852.098865,3261.655958,-6577.179620,21451.326782,18842.989962,502.914250,4747.130543,0.006000,-0.022000,1.004000,192.000000,0.000000,0.000000,0.000000,0.000000,0.000000,0.000000,0.000000,0.000000,0.000000,1764346504.244197,0.000000
154.000000,22409.344901,26588.875245,13715.924468,20346.636515,25282.035802,-1816.235699,-10333.636145,17018.327656,23493.695080,20864.057048,3286.689912,-6539.941614,21451.639706,18873.231873,513.643088,4719.034400,0.006000,-0.022000,1.004000,192.000000,0.000000,0.000000,0.000000,0.000000,0.000000,0.000000,0.000000,0.000000,0.000000,1764346504.252168,0.000000
156.000000,22409.858991,26582.214425,13705.530906,20333.650152,25294.463372,-1834.765295,-10356.233758,17006.570638,23556.548185,20848.164958,3260.001929,-6577.269027,21440.016799,18838.094930,500.299096,4746.929377,0.006000,-0.022000,1.004000,192.000000,0.000000,0.000000,0.000000,0.000000,0.000000,0.000000,0.000000,0.000000,0.000000,1764346504.260226,0.000000
158.000000,22413.837601,26589.903425,13726.541546,20348.357600,25282.929871,-1812.681772,-10320.873299,17027.782443,23529.346112,20857.038600,3270.574304,-6557.599492,21445.783549,18853.316468,510.111512,4726.231662,0.006000,-0.022000,1.004000,192.000000,0.000000,0.000000,0.000000,0.000000,0.000000,0.000000,0.000000,0.000000,0.000000,1764346504.267260,0.000000
160.000000,22408.160258,26579.107532,13706.424976,20331.817309,25282.058153,-1836.732249,-10352.925700,17007.040025,23500.735879,20850.333077,3276.519868,-6556.392498,21442.207270,18850.500149,511.765541,4728.355077,0.008000,-0.019000,1.006000,192.000000,0.000000,40.000000,127.500000,64.000000,15.500000,64.000000,0.000000,0.000000,0.000000,1764346504.276280,0.000000
162.000000,22409.233142,26584.561358,13720.439520,20341.070931,25293.435191,-1825.556377,-10332.563261,17023.557964,23572.037944,20842.375856,3258.727879,-6579.683015,21436.284058,18832.395236,495.202898,4746.392935,0.008000,-0.019000,1.006000,192.000000,0.000000,0.000000,0.000000,0.000000,0.000000,0.000000,0.000000,0.000000,0.000000,1764346504.284280,0.000000
164.000000,22409.099032,26586.081277,13718.539622,20341.741483,25277.632508,-1824.438789,-10333.077351,17021.233382,23483.815608,20854.177577,3284.253572,-6542.668526,21446.588212,18859.865530,517.152311,4718.967345,0.008000,-0.019000,1.006000,192.000000,0.000000,0.000000,0.000000,0.000000,0.000000,0.000000,0.000000,0.000000,0.000000,1764346504.291274,0.000000
166.000000,22408.562590,26582.169721,13707.676674,20332.890193,25300.252473,-1840.867322,-10354.982061,17008.314074,23555.877633,20847.025019,3261.387737,-6576.129088,21440.039151,18838.094930,506.311715,4746.683508,0.008000,-0.019000,1.006000,192.000000,0.000000,0.000000,0.000000,0.000000,0.000000,0.000000,0.000000,0.000000,0.000000,1764346504.299350,0.000000
168.000000,22408.003796,26586.349498,13724.619296,20346.703571,25286.237930,-1812.368847,-10321.946182,17025.860193,23532.095377,20854.557556,3269.769641,-6561.600454,21446.655267,18851.975364,510.916175,4729.047981,0.008000,-0.019000,1.006000,192.000000,0.000000,0.000000,0.000000,0.000000,0.000000,0.000000,0.000000,0.000000,0.000000,1764346504.308326,0.000000
170.000000,22405.366290,26580.381582,13703.139270,20334.477166,25292.317604,-1833.468894,-10354.646785,17003.061414,23501.875818,20850.422484,3270.395490,-6562.025137,21443.146043,18854.121131,508.636297,4735.373525,0.011000,-0.017500,1.008000,192.000000,0.000000,56.000000,127.500000,64.000000,15.500000,72.000000,0.000000,0.000000,0.000000,1764346504.315403,0.000000
