Sample Index, EXG Channel 0, EXG Channel 1, EXG Channel 2, EXG Channel 3, EXG Channel 4, EXG Channel 5, EXG Channel 6, EXG Channel 7, EXG Channel 8, EXG Channel 9, EXG Channel 10, EXG Channel 11, EXG Channel 12, EXG Channel 13, EXG Channel 14, EXG Channel 15, Accel Channel 0, Accel Channel 1, Accel Channel 2, Not Used, Digital Channel 0 (D11), Digital Channel 1 (D12), Digital Channel 2 (D13), Digital Channel 3 (D17), Not Used, Digital Channel 4 (D18), Analog Channel 0, Analog Channel 1, Analog Channel 2, Timestamp, Marker Channel, Timestamp (Formatted)
12.000000,23807.513572,24415.950407,14594.683301,20606.430841,27480.642793,-3626.749352,-9851.821941,17698.759460,25017.502906,21933.923296,4673.325082,-6613.970591,21848.986667,21055.365629,-1711.249555,5372.241780,0.004828,-0.014891,1.005281,192.000000,0.000000,0.000000,0.000000,0.000000,0.000000,0.000000,0.000000,0.000000,0.000000,1764344874.705455,0.000000
14.000000,23810.531057,24419.571390,14584.982644,20600.909960,27505.944968,-3632.158474,-9876.632378,17694.959664,25058.384247,21927.731863,4659.623463,-6633.774237,21843.666952,21038.646524,-1722.425428,5413.436045,0.008000,-0.018000,1.016000,192.000000,0.000000,32.000000,127.500000,56.000000,15.500000,96.000000,0.000000,0.000000,0.000000,1764344874.713479,0.000000
16.000000,23813.190915,24422.611227,14601.522935,20611.169411,27487.281261,-3624.804750,-9849.542063,17704.705024,25102.998329,21945.613259,4666.999539,-6623.358324,21858.575566,21053.845710,-1729.533282,5402.863670,0.008000,-0.018000,1.016000,192.000000,0.000000,0.000000,0.000000,0.000000,0.000000,0.000000,0.000000,0.000000,0.000000,1764344874.723750,0.000000
18.000000,23804.183162,24414.229323,14587.821315,20600.977016,27488.801180,-3642.842608,-9869.345709,17693.931483,24988.669156,21924.468508,4669.704100,-6617.435112,21840.068321,21048.548347,-1711.227204,5377.785012,0.008000,-0.018000,1.016000,192.000000,0.000000,0.000000,0.000000,0.000000,0.000000,0.000000,0.000000,0.000000,0.000000,1764344874.729553,0.000000
20.000000,23807.424165,24416.151573,14588.670682,20602.720452,27493.942081,-3645.346003,-9869.189247,17694.467925,25127.048806,21932.962171,4653.387326,-6641.284423,21850.663048,21035.226707,-1723.408904,5425.595394,0.008000,-0.018000,1.016000,192.000000,0.000000,0.000000,0.000000,0.000000,0.000000,0.000000,0.000000,0.000000,0.000000,1764344874.737563,0.000000
22.000000,23805.568970,24416.978588,14593.565714,20608.733071,27472.484407,-3633.320765,-9852.023107,17699.251199,25009.143354,21925.742558,4663.110335,-6616.898670,21840.135376,21047.497815,-1709.416712,5376.980350,0.008000,-0.018000,1.016000,192.000000,0.000000,0.000000,0.000000,0.000000,0.000000,0.000000,0.000000,0.000000,0.000000,1764344874.745567,0.000000
24.000000,23799.332833,24409.781326,14578.500638,20597.557199,27496.467828,-3652.722079,-9880.454526,17687.225960,25055.187947,21925.340226,4652.515608,-6633.818940,21834.793310,21038.266544,-1713.998820,5413.972487,0.008000,-0.018000,1.016000,192.000000,0.000000,0.000000,127.500000,48.000000,15.500000,88.000000,0.000000,0.000000,0.000000,1764344874.752655,0.000000
26.000000,23817.594208,24425.025216,14600.628865,20611.996426,27492.511570,-3621.116712,-9848.938566,17704.190934,25096.851599,21936.784319,4657.231826,-6630.197958,21848.293763,21048.078960,-1711.160149,5406.484652,0.008000,-0.018000,1.016000,192.000000,0.000000,0.000000,0.000000,0.000000,0.000000,0.000000,0.000000,0.000000,0.000000,1764344874.762623,0.000000
28.000000,23808.720566,24418.207934,14589.363586,20605.380309,27495.149075,-3633.477227,-9867.088183,17696.859562,24998.146295,21928.603581,4673.392138,-6610.863699,21844.113987,21054.560966,-1707.561518,5385.697530,0.008000,-0.018000,1.016000,192.000000,0.000000,0.000000,0.000000,0.000000,0.000000,0.000000,0.000000,0.000000,0.000000,1764344874.769677,0.000000
30.000000,23816.901304,24424.555829,14597.007882,20609.873010,27506.593169,-3630.370334,-9864.093049,17703.967417,25129.909829,21940.315895,4659.176428,-6633.193092,21853.412313,21044.726198,-1715.876367,5433.664374,0.008000,-0.018000,1.016000,192.000000,0.000000,0.000000,0.000000,0.000000,0.000000,0.000000,0.000000,0.000000,0.000000,1764344874.776653,0.000000
32.000000,23815.962531,24423.192373,14602.372301,20614.075138,27481.112180,-3620.647326,-9847.664517,17706.716681,25022.733214,21939.019494,4679.874144,-6605.879260,21853.188795,21061.490007,-1710.221375,5382.322417,0.008000,-0.018000,1.016000,192.000000,0.000000,0.000000,0.000000,0.000000,0.000000,0.000000,0.000000,0.000000,0.000000,1764344874.784706,0.000000
34.000000,23803.534961,24412.418832,14583.418022,20601.692271,27497.004270,-3643.647271,-9878.353462,17690.131687,25065.447398,21930.995218,4663.602074,-6628.499225,21848.137301,21044.636791,-1719.698515,5418.979277,0.004000,-0.022000,1.010000,192.000000,0.000000,16.000000,127.500000,40.000000,15.500000,72.000000,0.000000,0.000000,0.000000,1764344874.793735,0.000000
36.000000,23819.605865,24426.388672,14604.316903,20619.059577,27491.528093,-3612.645401,-9846.457523,17706.984902,25098.907959,21941.321724,4662.238617,-6625.258222,21854.373438,21054.583318,-1722.783056,5410.932649,0.004000,-0.022000,1.010000,192.000000,0.000000,0.000000,0.000000,0.000000,0.000000,0.000000,0.000000,0.000000,0.000000,1764344874.800750,0.000000
38.000000,23811.022796,24419.549038,14593.163382,20609.180106,27493.383288,-3629.699782,-9866.730555,17696.814859,25003.153086,21936.270229,4675.895533,-6607.354475,21851.266545,21063.501664,-1716.457512,5382.009492,0.004000,-0.022000,1.010000,192.000000,0.000000,0.000000,0.000000,0.000000,0.000000,0.000000,0.000000,0.000000,0.000000,1764344874.809776,0.000000
40.000000,23815.068461,24420.666626,14596.896124,20612.644626,27505.743802,-3625.497654,-9865.411802,17699.809992,25135.318951,21945.367389,4661.523361,-6631.941394,21858.508510,21051.230556,-1714.401151,5427.383533,0.004000,-0.022000,1.010000,192.000000,0.000000,0.000000,0.000000,0.000000,0.000000,0.000000,0.000000,0.000000,0.000000,1764344874.817829,0.000000
42.000000,23811.492182,24417.000939,14597.589028,20613.471641,27481.335697,-3623.933032,-9851.218444,17700.860524,25021.570924,21933.565668,4675.493202,-6611.936583,21849.634868,21059.947736,-1709.886099,5386.390434,0.004000,-0.022000,1.010000,192.000000,0.000000,0.000000,0.000000,0.000000,0.000000,0.000000,0.000000,0.000000,0.000000,1764344874.825819,0.000000
44.000000,23807.222999,24411.480059,14584.155629,20602.139306,27511.935235,-3646.150666,-9879.672215,17690.019928,25068.420180,21928.961209,4663.423260,-6629.773275,21849.098426,21043.273335,-1715.608146,5418.219318,0.004000,-0.020000,1.010000,192.000000,0.000000,16.000000,127.500000,48.000000,15.500000,72.000000,0.000000,0.000000,0.000000,1764344874.832939,0.000000
46.000000,23812.140383,24415.279855,14601.187658,20612.421109,27498.188913,-3621.608451,-9851.509017,17698.334777,25103.445363,21934.236221,4662.283321,-6630.466179,21856.809778,21048.660105,-1712.434198,5409.122158,0.004000,-0.020000,1.010000,192.000000,0.000000,0.000000,0.000000,0.000000,0.000000,0.000000,0.000000,0.000000,0.000000,1764344874.840910,0.000000
48.000000,23802.529133,24409.960140,14584.803830,20605.514420,27495.730221,-3631.107942,-9869.859799,17689.461135,24998.548627,21924.870840,4671.358129,-6617.435112,21847.198528,21053.711600,-1711.696590,5384.356425,0.004000,-0.020000,1.010000,192.000000,0.000000,0.000000,0.000000,0.000000,0.000000,0.000000,0.000000,0.000000,0.000000,1764344874.849947,0.000000
50.000000,23810.106374,24417.604437,14589.542400,20608.151926,27504.961491,-3638.238148,-9866.931721,17695.406699,25123.003140,21932.761005,4653.499085,-6640.770333,21849.567813,21042.491024,-1719.743218,5431.228033,0.004000,-0.020000,1.010000,192.000000,0.000000,0.000000,0.000000,0.000000,0.000000,0.000000,0.000000,0.000000,0.000000,1764344874.856980,0.000000
52.000000,23813.593246,24422.365358,14595.085632,20612.979902,27481.760380,-3625.587061,-9851.061982,17701.307559,25017.815830,21934.660904,4674.666187,-6609.075559,21848.249060,21058.539576,-1714.535262,5387.619780,0.004000,-0.020000,1.010000,192.000000,0.000000,0.000000,0.000000,0.000000,0.000000,0.000000,0.000000,0.000000,0.000000,1764344874.865030,0.000000
54.000000,23812.654473,24418.878486,14581.786344,20601.379347,27506.749631,-3645.994204,-9879.158125,17692.679786,25063.502796,21930.726997,4663.199742,-6626.308754,21845.388036,21043.541556,-1716.479864,5425.014248,0.004000,-0.026000,1.008000,192.000000,0.000000,16.000000,127.500000,24.000000,15.500000,64.000000,0.000000,0.000000,0.000000,1764344874.873998,0.000000
56.000000,23819.762328,24427.439204,14603.311074,20613.739862,27499.150038,-3616.936936,-9847.105723,17707.968379,25106.686366,21938.326590,4669.301768,-6621.369019,21858.597917,21052.258736,-1718.133893,5413.525452,0.004000,-0.026000,1.008000,192.000000,0.000000,0.000000,0.000000,0.000000,0.000000,0.000000,0.000000,0.000000,0.000000,1764344874.882064,0.000000
58.000000,23804.943121,24414.564599,14587.866019,20604.575646,27492.869197,-3636.002974,-9867.356404,17694.289111,24998.012185,21930.928162,4678.443632,-6606.326295,21847.623211,21057.846672,-1711.741294,5384.468184,0.004000,-0.026000,1.008000,192.000000,0.000000,0.000000,0.000000,0.000000,0.000000,0.000000,0.000000,0.000000,0.000000,1764344874.889116,0.000000
60.000000,23809.994615,24418.498506,14594.280969,20606.050862,27506.280244,-3635.466532,-9865.814133,17695.719623,25123.316064,21930.145851,4655.533094,-6638.736324,21851.355952,21038.802986,-1719.184425,5433.954946,0.004000,-0.026000,1.008000,192.000000,0.000000,0.000000,0.000000,0.000000,0.000000,0.000000,0.000000,0.000000,0.000000,1764344874.897086,0.000000
62.000000,23809.592284,24417.336216,14598.237228,20610.677673,27486.096619,-3619.172110,-9850.726706,17699.430013,25017.435851,21929.587058,4673.861524,-6611.914231,21849.992496,21055.387980,-1704.700494,5375.393376,0.004000,-0.026000,1.008000,192.000000,0.000000,0.000000,0.000000,0.000000,0.000000,0.000000,0.000000,0.000000,0.000000,1764344874.905141,0.000000
64.000000,23804.853714,24414.139916,14581.719289,20600.194705,27508.917750,-3648.452896,-9879.359291,17689.729356,25063.413389,21928.156546,4659.735222,-6629.147426,21847.422045,21041.976934,-1717.150416,5418.912222,0.004000,-0.024000,1.004000,192.000000,0.000000,16.000000,127.500000,32.000000,15.500000,48.000000,0.000000,0.000000,0.000000,1764344874.913107,0.000000
66.000000,23813.637950,24424.265256,14598.661911,20611.080004,27493.025660,-3621.787265,-9849.877340,17703.408623,25096.695137,21936.136119,4660.472829,-6627.180472,21853.904051,21045.083826,-1712.858881,5410.619725,0.004000,-0.024000,1.004000,192.000000,0.000000,0.000000,0.000000,0.000000,0.000000,0.000000,0.000000,0.000000,0.000000,1764344874.921154,0.000000
68.000000,23804.384327,24417.112698,14585.116754,20602.608693,27495.082020,-3634.997146,-9868.943378,17694.087946,24994.100630,21931.911639,4673.973283,-6608.159138,21848.919612,21054.583318,-1708.455587,5385.138736,0.004000,-0.024000,1.004000,192.000000,0.000000,0.000000,0.000000,0.000000,0.000000,0.000000,0.000000,0.000000,0.000000,1764344874.929186,0.000000
70.000000,23804.429031,24416.732719,14589.698862,20606.341434,27507.688404,-3635.131256,-9867.445811,17695.965492,25119.136288,21934.191517,4650.839228,-6638.736324,21850.618345,21037.394826,-1718.178596,5434.871368,0.004000,-0.024000,1.004000,192.000000,0.000000,0.000000,0.000000,0.000000,0.000000,0.000000,0.000000,0.000000,0.000000,1764344874.938251,0.000000
72.000000,23808.228828,24419.772556,14597.119641,20613.538696,27487.750648,-3622.368410,-9849.497360,17701.106393,25015.155973,21937.544279,4671.358129,-6609.142615,21851.870042,21060.059495,-1712.970640,5379.751966,0.004000,-0.024000,1.004000,192.000000,0.000000,0.000000,0.000000,0.000000,0.000000,0.000000,0.000000,0.000000,0.000000,1764344874.945237,0.000000
74.000000,23792.224978,24405.199218,14580.422888,20603.011024,27504.313291,-3646.552997,-9878.398166,17687.181257,25052.706904,21931.263439,4654.929597,-6629.527405,21844.561022,21045.732027,-1719.653811,5420.521548,0.002000,-0.024000,1.010000,192.000000,0.000000,8.000000,127.500000,32.000000,15.500000,72.000000,0.000000,0.000000,0.000000,1764344874.953268,0.000000
76.000000,23805.144287,24419.906666,14598.550153,20616.310312,27490.432857,-3619.440331,-9848.893863,17701.978112,25083.954642,21936.605506,4653.543789,-6628.365115,21846.170347,21051.789350,-1718.044486,5412.005533,0.002000,-0.024000,1.010000,192.000000,0.000000,0.000000,0.000000,0.000000,0.000000,0.000000,0.000000,0.000000,0.000000,1764344874.961324,0.000000
78.000000,23792.739069,24410.027195,14582.300434,20603.882742,27485.761343,-3640.294509,-9870.887979,17689.014100,24984.511731,21936.650209,4667.424222,-6610.237850,21839.286010,21057.734914,-1714.647021,5387.016283,0.002000,-0.024000,1.010000,192.000000,0.000000,0.000000,0.000000,0.000000,0.000000,0.000000,0.000000,0.000000,0.000000,1764344874.969359,0.000000
80.000000,23794.482505,24410.451878,14584.714423,20606.542600,27497.607767,-3632.136122,-9868.183418,17691.338681,25105.457020,21932.939819,4643.887835,-6642.334955,21839.263658,21036.500756,-1726.135817,5436.815970,0.002000,-0.024000,1.010000,192.000000,0.000000,0.000000,0.000000,0.000000,0.000000,0.000000,0.000000,0.000000,0.000000,1764344874.978362,0.000000
82.000000,23799.310481,24415.257503,14589.564751,20612.286998,27477.133569,-3620.781436,-9851.777238,17695.473754,25000.917912,21937.566631,4664.853771,-6612.070693,21837.453167,21057.712562,-1717.888024,5383.685873,0.002000,-0.024000,1.010000,192.000000,0.000000,0.000000,0.000000,0.000000,0.000000,0.000000,0.000000,0.000000,0.000000,1764344874.985422,0.000000
84.000000,23790.682708,24409.490753,14576.421926,20602.049899,27503.553331,-3641.657965,-9880.275712,17684.811972,25047.543651,21935.644381,4651.576835,-6631.092028,21834.972124,21043.273335,-1723.252442,5420.074513,0.003000,-0.023000,1.011000,192.000000,0.000000,16.000000,127.500000,40.000000,15.500000,80.000000,0.000000,0.000000,0.000000,1764344874.995430,0.000000
86.000000,23803.803182,24419.906666,14598.013711,20613.717510,27496.713698,-3616.668715,-9850.190264,17698.155963,25085.139285,21944.361561,4653.789658,-6628.119246,21846.058589,21049.867100,-1716.904547,5409.390379,0.003000,-0.023000,1.011000,192.000000,0.000000,0.000000,0.000000,0.000000,0.000000,0.000000,0.000000,0.000000,0.000000,1764344875.001442,0.000000
88.000000,23797.790563,24416.777422,14583.932112,20605.425013,27494.947910,-3632.761971,-9869.055136,17690.534018,24987.819789,21937.700741,4666.217228,-6611.601306,21840.068321,21054.337448,-1710.579003,5383.551763,0.003000,-0.023000,1.011000,192.000000,0.000000,0.000000,0.000000,0.000000,0.000000,0.000000,0.000000,0.000000,0.000000,1764344875.009474,0.000000
90.000000,23799.466944,24419.727852,14587.597798,20609.068347,27506.794334,-3633.678393,-9866.462334,17695.384347,25114.375366,21943.400436,4647.821742,-6635.405914,21847.086769,21041.820472,-1719.162073,5432.993821,0.003000,-0.023000,1.011000,192.000000,0.000000,0.000000,0.000000,0.000000,0.000000,0.000000,0.000000,0.000000,0.000000,1764344875.018506,0.000000
92.000000,23809.189953,24429.719082,14595.242094,20618.389025,27487.571834,-3619.172110,-9847.373944,17705.062652,25009.277464,21946.037942,4666.083117,-6605.365170,21843.845766,21061.154730,-1711.182500,5382.814155,0.003000,-0.023000,1.011000,192.000000,0.000000,0.000000,0.000000,0.000000,0.000000,0.000000,0.000000,0.000000,0.000000,1764344875.025536,0.000000
94.000000,23808.854676,24424.824050,14584.401498,20607.704891,27508.560122,-3639.311032,-9873.771354,17696.613693,25060.820587,21943.802767,4661.009271,-6620.385542,21844.046932,21051.610536,-1721.240785,5419.001629,0.003000,-0.023000,1.011000,192.000000,0.000000,0.000000,127.500000,16.000000,15.500000,64.000000,0.000000,0.000000,0.000000,1764344875.033572,0.000000
96.000000,23814.420261,24428.869716,14602.439356,20618.746652,27490.946947,-3618.814483,-9843.372982,17708.571876,25101.277244,21950.910622,4666.507800,-6617.233946,21853.993458,21054.963297,-1724.526492,5408.742179,0.003000,-0.023000,1.011000,192.000000,0.000000,0.000000,0.000000,0.000000,0.000000,0.000000,0.000000,0.000000,0.000000,1764344875.041571,0.000000
98.000000,23800.048089,24414.251675,14586.279045,20605.737937,27484.174369,-3642.462628,-9864.383622,17693.193876,24988.132714,21935.376160,4672.900399,-6607.667399,21838.347237,21054.292745,-1720.145550,5382.098899,0.003000,-0.023000,1.011000,192.000000,0.000000,0.000000,0.000000,0.000000,0.000000,0.000000,0.000000,0.000000,0.000000,1764344875.049657,0.000000
100.000000,23801.836229,24414.296378,14589.542400,20607.794298,27493.740916,-3640.361564,-9862.953110,17696.591341,25120.320931,21941.813462,4654.974300,-6634.489493,21843.666952,21038.065378,-1729.756800,5427.987031,0.003000,-0.023000,1.011000,192.000000,0.000000,0.000000,0.000000,0.000000,0.000000,0.000000,0.000000,0.000000,0.000000,1764344875.056684,0.000000
102.000000,23796.069479,24409.714271,14591.487001,20609.895362,27470.070418,-3634.348945,-9848.670345,17697.396004,25010.395051,21934.929125,4669.592341,-6610.707237,21838.079016,21050.425893,-1724.235919,5381.741271,0.003000,-0.023000,1.011000,192.000000,0.000000,0.000000,0.000000,0.000000,0.000000,0.000000,0.000000,0.000000,0.000000,1764344875.065716,0.000000
104.000000,23790.101563,24405.087460,14578.724155,20602.027548,27498.703003,-3647.916454,-9876.140639,17688.209437,25047.275430,21926.726034,4654.661376,-6630.466179,21832.759301,21034.354989,-1726.448742,5416.699400,0.000500,-0.027500,1.010500,192.000000,127.500000,120.000000,127.500000,0.000000,15.500000,72.000000,0.000000,0.000000,0.000000,1764344875.074690,0.000000
106.000000,23797.120011,24411.144782,14596.806717,20611.594094,27491.416334,-3623.709515,-9848.647994,17698.893571,25078.098485,21933.766834,4654.460210,-6628.946260,21838.660161,21042.468672,-1720.592585,5411.849071,0.000500,-0.027500,1.010500,192.000000,0.000000,0.000000,0.000000,0.000000,0.000000,0.000000,0.000000,0.000000,0.000000,1764344875.081758,0.000000
108.000000,23793.230807,24404.729832,14583.328615,20601.468754,27497.920692,-3637.701707,-9868.988081,17688.723527,24978.163836,21932.761005,4666.463097,-6613.098873,21836.782615,21053.041047,-1703.046465,5380.154297,0.000500,-0.027500,1.010500,192.000000,0.000000,0.000000,0.000000,0.000000,0.000000,0.000000,0.000000,0.000000,0.000000,1764344875.088872,0.000000
110.000000,23802.395022,24410.585989,14589.922379,20601.982844,27507.867218,-3635.108904,-9866.372927,17692.366861,25114.688291,21926.971904,4646.123009,-6646.090048,21843.823414,21031.315152,-1713.194157,5434.446685,0.000500,-0.027500,1.010500,192.000000,0.000000,0.000000,0.000000,0.000000,0.000000,0.000000,0.000000,0.000000,0.000000,1764344875.096773,0.000000
112.000000,23799.221074,24409.691919,14595.107984,20610.163583,27485.493122,-3618.389799,-9848.603290,17698.714757,25008.271636,21932.805709,4668.653568,-6613.814129,21842.079978,21052.191681,-1703.091169,5374.946341,0.000500,-0.027500,1.010500,192.000000,0.000000,0.000000,0.000000,0.000000,0.000000,0.000000,0.000000,0.000000,0.000000,1764344875.106851,0.000000
114.000000,23796.203589,24406.786192,14578.925321,20602.049899,27507.084907,-3644.563692,-9877.168820,17688.790582,25048.750645,21928.782395,4656.494219,-6630.756751,21835.597972,21042.222803,-1721.911338,5416.498234,0.003250,-0.026750,1.008250,192.000000,0.000000,24.000000,127.500000,24.000000,15.500000,56.000000,0.000000,0.000000,0.000000,1764344875.113889,0.000000
116.000000,23812.118031,24422.208896,14598.527801,20615.304484,27496.378421,-3617.808654,-9846.703392,17702.715719,25090.391945,21941.679352,4659.556408,-6627.135769,21845.499795,21047.296649,-1718.022134,5408.518661,0.003250,-0.026750,1.008250,192.000000,0.000000,0.000000,0.000000,0.000000,0.000000,0.000000,0.000000,0.000000,0.000000,1764344875.120981,0.000000
118.000000,23796.695327,24409.043718,14580.266426,20608.688367,27491.505741,-3630.727962,-9866.551741,17690.377556,24988.691507,21936.672561,4670.821687,-6609.410835,21836.626153,21056.527919,-1718.044486,5384.736405,0.003250,-0.026750,1.008250,192.000000,0.000000,0.000000,0.000000,0.000000,0.000000,0.000000,0.000000,0.000000,0.000000,1764344875.128953,0.000000
120.000000,23796.002423,24404.483963,14582.099269,20607.771946,27498.613596,-3635.645346,-9865.858837,17689.796411,25113.704814,21935.197346,4649.699289,-6640.323298,21837.631981,21040.032332,-1729.153303,5433.798484,0.003250,-0.026750,1.008250,192.000000,0.000000,0.000000,0.000000,0.000000,0.000000,0.000000,0.000000,0.000000,0.000000,1764344875.136949,0.000000
122.000000,23799.198723,24409.066070,14588.424812,20611.616446,27476.820645,-3619.574442,-9849.854988,17695.294940,25005.365909,21933.409206,4667.133649,-6615.378751,21834.860365,21053.979820,-1720.302012,5381.137774,0.003250,-0.026750,1.008250,192.000000,0.000000,0.000000,0.000000,0.000000,0.000000,0.000000,0.000000,0.000000,0.000000,1764344875.144969,0.000000
124.000000,23791.017984,24402.584064,14576.801905,20597.579550,27497.764230,-3650.352794,-9879.448698,17681.816838,25052.237517,21927.821270,4655.220169,-6635.137693,21832.021693,21036.970143,-1724.682954,5418.487539,0.004625,-0.024375,1.007125,192.000000,0.000000,24.000000,127.500000,40.000000,15.500000,56.000000,0.000000,0.000000,0.000000,1764344875.152992,0.000000
126.000000,23792.381441,24404.595721,14593.185734,20605.693234,27482.520340,-3632.650212,-9853.386563,17689.438783,25082.255910,21928.201250,4653.990824,-6635.584728,21837.252001,21038.087730,-1716.993954,5405.814100,0.004625,-0.024375,1.007125,192.000000,0.000000,0.000000,0.000000,0.000000,0.000000,0.000000,0.000000,0.000000,0.000000,1764344875.161011,0.000000
128.000000,23786.480580,24402.226436,14579.372356,20598.406565,27488.979994,-3648.788172,-9872.899636,17680.945120,24974.609908,21919.528773,4661.121030,-6621.726647,21824.645618,21042.580431,-1710.735465,5381.271885,0.004625,-0.024375,1.007125,192.000000,0.000000,0.000000,0.000000,0.000000,0.000000,0.000000,0.000000,0.000000,0.000000,1764344875.169021,0.000000
130.000000,23788.715755,24403.455782,14582.456897,20599.144173,27499.775887,-3649.414021,-9872.586712,17682.353280,25109.413279,21924.289694,4642.971413,-6648.682850,21831.842879,21027.291838,-1717.172768,5432.703249,0.004625,-0.024375,1.007125,192.000000,0.000000,0.000000,0.000000,0.000000,0.000000,0.000000,0.000000,0.000000,0.000000,1764344875.177049,0.000000
132.000000,23787.754630,24404.975701,14588.268350,20607.950760,27477.804122,-3624.737695,-9853.051287,17690.981053,24997.006356,21925.697854,4660.785754,-6619.804397,21828.043083,21048.458940,-1707.092131,5377.114460,0.004625,-0.024375,1.007125,192.000000,0.000000,0.000000,0.000000,0.000000,0.000000,0.000000,0.000000,0.000000,0.000000,1764344875.185067,0.000000
134.000000,23794.191932,24411.658873,14578.858266,20602.005196,27507.308424,-3635.377125,-9877.660558,17688.768231,25047.834223,21930.056444,4655.644853,-6631.315545,21830.322961,21045.262640,-1719.720867,5416.073551,0.004313,-0.023187,1.006562,192.000000,0.000000,16.000000,127.500000,40.000000,15.500000,56.000000,0.000000,0.000000,0.000000,1764344875.193113,0.000000
136.000000,23808.094717,24423.550001,14599.488926,20614.365711,27496.266663,-3617.495730,-9847.776276,17702.872181,25093.342375,21942.439311,4662.015100,-6625.973478,21846.393865,21053.890414,-1716.278698,5408.965696,0.004313,-0.023187,1.006562,192.000000,0.000000,0.000000,0.000000,0.000000,0.000000,0.000000,0.000000,0.000000,0.000000,1764344875.201137,0.000000
138.000000,23795.398926,24410.675396,14584.736775,20605.581475,27494.970261,-3629.543320,-9866.104706,17694.266760,24994.972348,21935.353808,4678.197763,-6605.812205,21839.174251,21060.551233,-1716.390457,5386.748062,0.004313,-0.023187,1.006562,192.000000,0.000000,0.000000,0.000000,0.000000,0.000000,0.000000,0.000000,0.000000,0.000000,1764344875.209199,0.000000
140.000000,23796.024775,24414.586951,14585.519086,20605.559123,27497.853636,-3633.007840,-9866.641148,17694.467925,25116.208210,21933.498613,4653.946120,-6636.545853,21837.855499,21039.920573,-1726.336983,5438.648813,0.004313,-0.023187,1.006562,192.000000,0.000000,0.000000,0.000000,0.000000,0.000000,0.000000,0.000000,0.000000,0.000000,1764344875.217192,0.000000
142.000000,23792.068516,24410.518934,14589.587103,20612.264647,27468.997534,-3620.244994,-9851.173741,17695.965492,25002.884865,21934.459738,4668.877085,-6609.097911,21829.853574,21055.499739,-1719.273832,5381.808326,0.004313,-0.023187,1.006562,192.000000,0.000000,0.000000,0.000000,0.000000,0.000000,0.000000,0.000000,0.000000,0.000000,1764344875.224287,0.000000
144.000000,23785.921787,24404.171038,14571.459838,20600.798202,27488.488256,-3651.045698,-9882.644997,17682.576797,25043.274467,21927.709511,4653.655547,-6630.510882,21824.511507,21040.032332,-1723.118332,5416.699400,0.006156,-0.020594,1.006281,192.000000,0.000000,32.000000,127.500000,56.000000,15.500000,56.000000,0.000000,0.000000,0.000000,1764344875.233222,0.000000
146.000000,23797.052955,24414.922227,14591.487001,20615.460946,27474.138436,-3622.904852,-9851.419610,17697.999501,25084.982823,21933.476261,4654.907245,-6628.856853,21832.982818,21046.156710,-1725.264099,5412.832548,0.006156,-0.020594,1.006281,192.000000,0.000000,0.000000,0.000000,0.000000,0.000000,0.000000,0.000000,0.000000,0.000000,1764344875.241298,0.000000
148.000000,23783.798371,24402.181733,14575.974891,20603.480411,27469.377514,-3646.888274,-9872.921988,17685.169600,24975.258109,21926.837793,4663.914998,-6613.411798,21824.399748,21051.543480,-1720.503178,5387.418614,0.006156,-0.020594,1.006281,192.000000,0.000000,0.000000,0.000000,0.000000,0.000000,0.000000,0.000000,0.000000,0.000000,1764344875.249271,0.000000
150.000000,23799.601054,24415.503373,14589.430641,20611.459984,27498.501837,-3630.593852,-9865.881189,17697.753632,25113.436593,21935.845546,4650.593358,-6637.529330,21835.955600,21040.211146,-1730.181483,5434.089057,0.006156,-0.020594,1.006281,192.000000,0.000000,0.000000,0.000000,0.000000,0.000000,0.000000,0.000000,0.000000,0.000000,1764344875.257337,0.000000
152.000000,23794.773077,24409.177829,14595.130336,20611.102356,27475.792465,-3622.189596,-9851.978404,17697.217190,25012.719633,21938.214831,4675.001463,-6606.907440,21841.789406,21061.266489,-1712.255384,5380.958960,0.006156,-0.020594,1.006281,192.000000,0.000000,0.000000,0.000000,0.000000,0.000000,0.000000,0.000000,0.000000,0.000000,1764344875.265326,0.000000
154.000000,23787.933444,24402.427602,14579.372356,20601.334644,27494.702041,-3646.798867,-9880.968616,17686.466001,25054.964430,21927.016607,4659.310539,-6629.952089,21837.833147,21039.920573,-1710.131968,5414.084245,0.006156,-0.020594,1.006281,192.000000,0.000000,0.000000,0.000000,0.000000,0.000000,0.000000,0.000000,0.000000,0.000000,1764344875.272377,0.000000
156.000000,23798.818743,24414.341082,14597.186696,20615.930333,27482.609747,-3620.423808,-9849.989098,17700.793469,25091.844808,21938.594811,4660.115201,-6624.833539,21845.611554,21045.217937,-1718.960907,5412.653734,0.004000,-0.022000,1.012000,192.000000,0.000000,16.000000,127.500000,40.000000,15.500000,80.000000,0.000000,0.000000,0.000000,1764344875.281475,0.000000
158.000000,23795.845961,24412.262370,14583.194504,20608.978940,27483.883796,-3635.600643,-9867.937549,17692.053937,24988.311528,21931.755177,4673.235675,-6607.287420,21835.709731,21053.912765,-1715.205814,5379.461393,0.004000,-0.022000,1.012000,192.000000,0.000000,0.000000,0.000000,0.000000,0.000000,0.000000,0.000000,0.000000,0.000000,1764344875.288463,0.000000
160.000000,23791.867351,24406.696785,14582.076917,20607.861353,27493.048011,-3635.868864,-9869.122192,17687.136553,25118.756308,21933.275096,4655.086059,-6636.367039,21840.314190,21039.495890,-1724.548843,5428.411714,0.004000,-0.022000,1.012000,192.000000,0.000000,0.000000,0.000000,0.000000,0.000000,0.000000,0.000000,0.000000,0.000000,1764344875.296519,0.000000
162.000000,23792.649662,24409.289588,14587.486039,20613.829269,27472.797331,-3618.568613,-9852.179569,17691.316329,25001.677871,21931.576363,4666.507800,-6612.808301,21832.356969,21055.566794,-1719.631460,5376.309797,0.004000,-0.022000,1.012000,192.000000,0.000000,0.000000,0.000000,0.000000,0.000000,0.000000,0.000000,0.000000,0.000000,1764344875.305456,0.000000
164.000000,23783.105467,24398.024308,14571.370431,20600.306463,27486.878930,-3655.113716,-9883.293198,17677.011213,25048.303610,21926.636628,4654.303748,-6633.170740,21826.187888,21038.087730,-1726.314631,5416.319420,0.004000,-0.022000,1.012000,192.000000,0.000000,0.000000,0.000000,0.000000,0.000000,0.000000,0.000000,0.000000,0.000000,1764344875.313489,0.000000
166.000000,23790.459191,24403.522838,14591.889333,20611.683501,27474.451360,-3632.136122,-9853.990061,17688.634120,25081.138322,21922.076872,4653.297919,-6636.478798,21834.972124,21038.333599,-1726.247576,5408.853937,0.012000,-0.018000,1.008000,192.000000,0.000000,48.000000,127.500000,56.000000,15.500000,64.000000,0.000000,0.000000,0.000000,1764344875.320548,0.000000
168.000000,23784.938310,24399.790096,14581.138144,20605.447365,27479.748723,-3645.323651,-9871.625587,17681.325100,24980.399010,21917.226543,4666.440745,-6617.904498,21829.540650,21046.827262,-1720.369067,5380.869553,0.012000,-0.018000,1.008000,192.000000,0.000000,0.000000,0.000000,0.000000,0.000000,0.000000,0.000000,0.000000,0.000000,1764344875.330611,0.000000
170.000000,23790.168618,24404.416907,14585.027347,20606.475545,27490.008174,-3640.853303,-9871.580883,17684.610806,25114.934160,21925.384930,4647.039431,-6643.966632,21837.430815,21035.070245,-1724.973527,5432.189158,0.012000,-0.018000,1.008000,192.000000,0.000000,0.000000,0.000000,0.000000,0.000000,0.000000,0.000000,0.000000,0.000000,1764344875.337626,0.000000
172.000000,23791.912054,24404.260445,14594.057452,20614.723338,27474.898395,-3623.396590,-9853.051287,17692.366861,25007.444621,21921.495726,4667.491277,-6616.809263,21838.280182,21051.409370,-1713.060047,5380.221353,0.012000,-0.018000,1.008000,192.000000,0.000000,0.000000,0.000000,0.000000,0.000000,0.000000,0.000000,0.000000,0.000000,1764344875.346656,0.000000
174.000000,23792.224978,24404.416907,14581.093440,20603.547466,27502.748669,-3637.880521,-9880.521581,17682.688556,25055.523223,21922.032168,4658.707042,-6631.740228,21841.185908,21041.060512,-1719.877329,5417.437007,0.012000,-0.018000,1.008000,192.000000,0.000000,0.000000,0.000000,0.000000,0.000000,0.000000,0.000000,0.000000,0.000000,1764344875.352679,0.000000
176.000000,23801.568008,24415.101041,14600.561810,20616.019740,27491.103410,-3610.119654,-9849.854988,17696.367824,25100.271416,21937.924258,4663.289149,-6625.660554,21856.765074,21053.622193,-1715.719904,5407.423426,0.010000,-0.018000,1.004000,192.000000,0.000000,40.000000,127.500000,56.000000,15.500000,48.000000,0.000000,0.000000,0.000000,1764344875.360716,0.000000
178.000000,23783.485446,24398.828971,14582.926283,20604.597998,27485.113142,-3636.785285,-9871.692642,17680.252216,24985.070525,21919.796994,4667.066594,-6617.591574,21839.196603,21054.762132,-1710.981335,5388.200925,0.010000,-0.018000,1.004000,192.000000,0.000000,0.000000,0.000000,0.000000,0.000000,0.000000,0.000000,0.000000,0.000000,1764344875.369772,0.000000
180.000000,23794.929540,24407.970835,14587.731908,20609.001292,27502.435744,-3620.133235,-9869.591578,17688.120030,25117.571666,21927.329532,4650.660414,-6641.731458,21848.941964,21042.379265,-1724.347678,5440.146379,0.010000,-0.018000,1.004000,192.000000,0.000000,0.000000,0.000000,0.000000,0.000000,0.000000,0.000000,0.000000,0.000000,1764344875.376743,0.000000
182.000000,23792.247330,24408.619035,14592.649292,20612.488164,27477.714715,-3612.064256,-9854.481799,17689.930521,25012.362005,21932.157508,4669.033548,-6611.936583,21846.773845,21064.082809,-1715.049352,5385.384606,0.010000,-0.018000,1.004000,192.000000,0.000000,0.000000,0.000000,0.000000,0.000000,0.000000,0.000000,0.000000,0.000000,1764344875.386771,0.000000
184.000000,23791.599130,24407.166172,14580.758164,20606.676710,27504.246235,-3633.723096,-9880.007491,17685.504876,25056.640811,21928.156546,4657.410640,-6628.789798,21843.868118,21051.051742,-1720.257309,5421.527376,0.010000,-0.018000,1.004000,192.000000,0.000000,0.000000,0.000000,0.000000,0.000000,0.000000,0.000000,0.000000,0.000000,1764344875.393046,0.000000
186.000000,23800.115144,24416.084518,14597.633731,20619.841888,27485.940157,-3612.332477,-9850.279671,17699.698234,25099.176180,21939.645343,4665.457268,-6621.056094,21858.642621,21059.746571,-1726.158169,5408.965696,0.006000,-0.018000,1.002000,192.000000,0.000000,24.000000,127.500000,56.000000,15.500000,40.000000,0.000000,0.000000,0.000000,1764344875.400869,0.000000
188.000000,23781.518493,24399.298358,14581.249902,20609.224809,27481.961546,-3639.758067,-9870.932683,17686.175428,24986.769257,21924.848488,4670.531114,-6610.550774,21838.749568,21058.025486,-1724.325326,5387.709187,0.006000,-0.018000,1.002000,192.000000,0.000000,0.000000,0.000000,0.000000,0.000000,0.000000,0.000000,0.000000,0.000000,1764344875.409871,0.000000
190.000000,23789.900397,24403.902817,14588.491868,20607.816649,27489.292918,-3641.814428,-9868.630453,17688.656472,25113.771869,21926.815441,4650.213379,-6639.988022,21842.325847,21040.769940,-1726.448742,5431.563310,0.006000,-0.018000,1.002000,192.000000,0.000000,0.000000,0.000000,0.000000,0.000000,0.000000,0.000000,0.000000,0.000000,1764344875.416942,0.000000
192.000000,23796.069479,24409.982492,14594.951522,20612.778737,27473.803159,-3623.485997,-9851.665479,17695.361995,25012.987854,21927.240125,4672.185143,-6611.824824,21844.002228,21058.919556,-1717.351582,5377.315626,0.006000,-0.018000,1.002000,192.000000,0.000000,0.000000,0.000000,0.000000,0.000000,0.000000,0.000000,0.000000,0.000000,1764344875.434555,0.000000
194.000000,23786.614691,24400.237131,14581.719289,20600.127649,27499.865293,-3646.128314,-9880.208657,17684.700213,25056.730218,21924.982598,4660.651643,-6630.175606,21841.252964,21043.765073,-1720.659640,5416.006495,0.006000,-0.018000,1.002000,192.000000,0.000000,0.000000,0.000000,0.000000,0.000000,0.000000,0.000000,0.000000,0.000000,1764344875.442867,0.000000
196.000000,23802.730298,24415.615131,14600.427699,20612.398757,27490.701078,-3615.953459,-9850.614947,17700.681710,25090.704869,21928.536526,4661.210437,-6630.957917,21848.629039,21048.280126,-1716.368105,5404.383588,0.008000,-0.020000,1.008000,192.000000,0.000000,32.000000,127.500000,48.000000,15.500000,64.000000,0.000000,0.000000,0.000000,1764344875.444315,0.000000
198.000000,23787.173484,24401.645291,14581.160495,20601.736975,27484.509645,-3637.098210,-9873.525485,17686.242483,24986.657499,21929.520003,4673.772117,-6610.796644,21837.855499,21057.846672,-1710.869576,5381.495402,0.008000,-0.020000,1.008000,192.000000,0.000000,0.000000,0.000000,0.000000,0.000000,0.000000,0.000000,0.000000,0.000000,1764344875.449424,0.000000
200.000000,23800.651586,24415.816297,14588.313054,20606.788469,27498.770058,-3630.124465,-9870.418593,17694.311463,25113.034262,21931.062273,4651.643890,-6641.083257,21839.196603,21037.953620,-1716.457512,5436.704211,0.008000,-0.020000,1.008000,192.000000,0.000000,0.000000,0.000000,0.000000,0.000000,0.000000,0.000000,0.000000,0.000000,1764344875.456411,0.000000
202.000000,23804.876066,24419.951370,14597.141993,20613.315179,27481.223939,-3610.052599,-9850.860816,17703.430975,25014.619531,21939.265363,4678.376577,-6604.806376,21846.371513,21062.808760,-1707.449759,5383.887039,0.008000,-0.020000,1.008000,192.000000,0.000000,0.000000,0.000000,0.000000,0.000000,0.000000,0.000000,0.000000,0.000000,1764344875.464926,0.000000
204.000000,23794.683670,24409.803678,14578.522990,20603.145135,27498.323023,-3632.940785,-9879.940436,17689.505838,25054.405636,21931.866936,4664.160867,-6624.900594,21839.286010,21049.017733,-1713.238861,5421.952060,0.008000,-0.020000,1.008000,192.000000,0.000000,0.000000,0.000000,0.000000,0.000000,0.000000,0.000000,0.000000,0.000000,1764344875.473269,0.000000
206.000000,23802.327967,24415.481021,14594.862115,20614.455118,27487.996517,-3603.749407,-9850.100857,17700.346434,25090.950738,21939.980619,4664.630254,-6622.732475,21846.326810,21055.164463,-1722.201910,5415.939440,0.008000,-0.016000,1.010000,192.000000,0.000000,32.000000,127.500000,64.000000,15.500000,72.000000,0.000000,0.000000,0.000000,1764344875.481005,0.000000
208.000000,23789.855694,24403.008747,14576.958367,20602.005196,27483.548520,-3629.610375,-9873.145506,17683.180294,24986.456333,21929.698817,4672.609827,-6612.920059,21837.207298,21056.483216,-1711.227204,5385.563420,0.008000,-0.016000,1.010000,192.000000,0.000000,0.000000,0.000000,0.000000,0.000000,0.000000,0.000000,0.000000,0.000000,1764344875.489070,0.000000
210.000000,23792.381441,24404.685128,14585.832010,20604.128612,27498.859465,-3629.386858,-9870.820924,17688.298844,25118.331625,21930.302314,4652.090925,-6641.597347,21843.644600,21039.093559,-1722.671297,5437.911205,0.008000,-0.016000,1.010000,192.000000,0.000000,0.000000,0.000000,0.000000,0.000000,0.000000,0.000000,0.000000,0.000000,1764344875.497046,0.000000
212.000000,23791.822647,24405.914474,14593.722176,20609.045995,27476.820645,-3617.316916,-9853.833598,17692.500972,25010.372700,21926.368407,4669.659396,-6614.998772,21841.856461,21055.209166,-1716.435160,5386.323379,0.008000,-0.016000,1.010000,192.000000,0.000000,0.000000,0.000000,0.000000,0.000000,0.000000,0.000000,0.000000,0.000000,1764344875.505101,0.000000
214.000000,23781.786714,24396.347928,14578.098306,20597.870123,27495.551407,-3646.351832,-9882.354424,17680.878065,25051.075226,21922.054520,4656.158943,-6634.176568,21836.022655,21040.792291,-1721.956041,5419.091036,0.008000,-0.016000,1.010000,192.000000,0.000000,0.000000,0.000000,0.000000,0.000000,0.000000,0.000000,0.000000,0.000000,1764344875.513105,0.000000
216.000000,23792.470848,24408.082593,14596.717310,20612.756385,27486.074267,-3617.719247,-9852.403087,17694.043242,25082.770000,21929.788223,4654.281396,-6631.628469,21837.721388,21044.994419,-1724.548843,5412.385513,0.004000,-0.014000,1.008000,192.000000,0.000000,16.000000,127.500000,72.000000,15.500000,64.000000,0.000000,0.000000,0.000000,1764344875.521132,0.000000
218.000000,23787.888740,24404.551018,14583.686243,20599.747670,27484.196721,-3637.478189,-9873.994872,17683.515571,24981.069563,21927.977732,4666.351338,-6613.612963,21831.664065,21054.896242,-1711.651887,5384.825812,0.004000,-0.014000,1.008000,192.000000,0.000000,0.000000,0.000000,0.000000,0.000000,0.000000,0.000000,0.000000,0.000000,1764344875.529184,0.000000
220.000000,23796.516513,24409.826030,14593.163382,20601.871085,27502.972186,-3622.435465,-9870.105668,17689.841114,25113.280131,21929.229430,4649.743992,-6642.647879,21840.716522,21038.467710,-1717.217471,5433.530263,0.004000,-0.014000,1.008000,192.000000,0.000000,0.000000,0.000000,0.000000,0.000000,0.000000,0.000000,0.000000,0.000000,1764344875.537179,0.000000
222.000000,23795.287167,24411.256541,14601.388824,20608.040167,27485.135494,-3613.740637,-9851.911348,17695.160829,25014.887752,21934.973828,4674.800298,-6609.902574,21845.589202,21062.831111,-1705.460454,5377.874419,0.004000,-0.014000,1.008000,192.000000,0.000000,0.000000,0.000000,0.000000,0.000000,0.000000,0.000000,0.000000,0.000000,1764344875.544201,0.000000
224.000000,23786.815856,24404.640425,14583.730946,20597.445440,27503.173352,-3642.328518,-9880.745099,17682.532094,25049.443549,21923.708549,4656.471867,-6633.729533,21834.659199,21043.809777,-1707.919146,5418.912222,0.004000,-0.014000,1.008000,192.000000,0.000000,0.000000,0.000000,0.000000,0.000000,0.000000,0.000000,0.000000,0.000000,1764344875.553232,0.000000
226.000000,23798.282301,24419.727852,14601.277065,20612.756385,27491.684555,-3614.142968,-9850.793761,17697.865391,25085.988651,21935.398511,4659.556408,-6628.678039,21844.851595,21051.677591,-1712.523605,5415.693571,0.004000,-0.014000,1.008000,192.000000,0.000000,0.000000,127.500000,48.000000,15.500000,72.000000,0.000000,0.000000,0.000000,1764344875.562431,0.000000
228.000000,23789.118086,24409.378995,14585.027347,20603.726280,27492.757439,-3630.616204,-9870.619758,17688.052975,24983.595310,21934.079758,4672.699234,-6608.650876,21841.990571,21062.071152,-1714.490558,5394.481766,0.004000,-0.014000,1.008000,192.000000,0.000000,0.000000,0.000000,0.000000,0.000000,0.000000,0.000000,0.000000,0.000000,1764344875.569341,0.000000
230.000000,23783.038412,24400.639463,14587.396632,20601.535809,27500.558198,-3633.097247,-9870.709165,17682.621501,25102.707756,21923.037997,4645.653623,-6645.553606,21836.268525,21038.959448,-1713.864710,5438.849978,0.004000,-0.014000,1.008000,192.000000,0.000000,0.000000,0.000000,0.000000,0.000000,0.000000,0.000000,0.000000,0.000000,1764344875.576350,0.000000
232.000000,23780.445609,24396.660852,14590.101193,20606.989635,27477.379439,-3623.530701,-9855.599386,17682.152114,24994.726478,21917.383005,4659.467001,-6622.777179,21832.491080,21050.425893,-1703.515852,5385.138736,0.004000,-0.014000,1.008000,192.000000,0.000000,0.000000,0.000000,0.000000,0.000000,0.000000,0.000000,0.000000,0.000000,1764344875.586371,0.000000
234.000000,23775.237653,24390.558826,14576.310167,20595.746707,27500.491142,-3652.364451,-9883.494363,17671.602091,25038.290028,21909.984578,4645.899492,-6643.296080,21827.037254,21033.192698,-1714.557614,5427.294126,0.004000,-0.014000,1.008000,192.000000,0.000000,0.000000,0.000000,0.000000,0.000000,0.000000,0.000000,0.000000,0.000000,1764344875.593425,0.000000
236.000000,23786.704098,24401.779402,14596.292626,20607.883705,27484.889625,-3627.688125,-9852.827770,17685.817800,25077.047953,21917.852392,4648.984033,-6641.709106,21839.576583,21039.272373,-1713.261212,5416.118254,0.005000,-0.019000,1.006000,192.000000,0.000000,24.000000,127.500000,32.000000,15.500000,48.000000,0.000000,0.000000,0.000000,1764344875.600418,0.000000
238.000000,23784.401868,24402.069974,14583.753298,20603.525114,27485.426067,-3642.417925,-9870.440944,17682.040355,24976.643917,21915.594866,4663.803239,-6622.911289,21830.926458,21047.520166,-1711.048390,5385.406957,0.005000,-0.019000,1.006000,192.000000,0.000000,0.000000,0.000000,0.000000,0.000000,0.000000,0.000000,0.000000,0.000000,1764344875.608627,0.000000
240.000000,23785.497103,24402.539361,14586.234341,20604.061556,27496.557235,-3641.635614,-9870.552703,17683.672033,25106.887532,21920.467546,4648.067611,-6646.961766,21837.453167,21033.863250,-1722.403076,5434.424333,0.005000,-0.019000,1.006000,192.000000,0.000000,0.000000,0.000000,0.000000,0.000000,0.000000,0.000000,0.000000,0.000000,1764344875.617491,0.000000
242.000000,23794.504856,24411.256541,14597.901952,20612.689330,27483.079133,-3618.479206,-9851.151389,17694.400870,24996.648728,21925.496689,4666.016062,-6617.233946,21836.424987,21053.242213,-1710.981335,5381.026015,0.005000,-0.019000,1.006000,192.000000,0.000000,0.000000,0.000000,0.000000,0.000000,0.000000,0.000000,0.000000,0.000000,1764344875.624481,0.000000
244.000000,23790.012156,24406.495620,14584.066222,20600.194705,27509.275378,-3634.281890,-9881.348596,17683.694385,25050.471729,21926.994255,4660.204608,-6630.890862,21842.236440,21046.179062,-1718.044486,5421.527376,0.005000,-0.019000,1.006000,192.000000,0.000000,0.000000,0.000000,0.000000,0.000000,0.000000,0.000000,0.000000,0.000000,1764344875.632521,0.000000
246.000000,23799.735165,24413.469364,14602.305246,20609.761251,27497.920692,-3614.791169,-9853.990061,17694.467925,25088.179122,21934.370331,4659.914036,-6632.120208,21852.317077,21052.370495,-1703.359390,5410.172690,0.004500,-0.019500,1.005000,192.000000,0.000000,16.000000,127.500000,48.000000,15.500000,48.000000,0.000000,0.000000,0.000000,1764344875.640551,0.000000
248.000000,23788.603996,24403.254617,14586.860190,20602.206362,27496.020793,-3636.472361,-9873.816058,17684.052012,24978.365001,21920.378139,4668.206533,-6620.564356,21834.882717,21051.297611,-1700.699532,5392.470109,0.004500,-0.019500,1.005000,192.000000,0.000000,0.000000,0.000000,0.000000,0.000000,0.000000,0.000000,0.000000,0.000000,1764344875.648596,0.000000
250.000000,23797.768211,24409.088422,14592.649292,20607.235504,27513.321044,-3624.380067,-9869.211599,17690.377556,25115.805878,21927.441290,4655.242521,-6644.212502,21845.857423,21040.948753,-1713.372971,5439.989917,0.004500,-0.019500,1.005000,192.000000,0.000000,0.000000,0.000000,0.000000,0.000000,0.000000,0.000000,0.000000,0.000000,1764344875.656586,0.000000
252.000000,23792.984938,24406.830896,14598.371339,20611.839963,27489.494084,-3616.847529,-9853.230101,17692.053937,25010.327996,21928.178898,4673.302731,-6615.557565,21843.488138,21059.388943,-1707.315648,5388.357388,0.004500,-0.019500,1.005000,192.000000,0.000000,0.000000,0.000000,0.000000,0.000000,0.000000,0.000000,0.000000,0.000000,1764344875.664627,0.000000
254.000000,23784.290109,24397.174942,14583.954463,20598.518324,27511.264683,-3644.116657,-9882.980273,17680.296919,25047.387188,21919.551125,4656.136591,-6637.417571,21835.329751,21039.853518,-1710.131968,5424.701324,0.004500,-0.019500,1.005000,192.000000,0.000000,0.000000,0.000000,0.000000,0.000000,0.000000,0.000000,0.000000,0.000000,1764344875.674673,0.000000
0.000000,23804.227865,24416.710367,14603.221667,20616.042091,27502.636910,-3607.079817,-9850.100857,17700.614655,25090.079020,21930.861107,4661.992748,-6631.047324,21849.143129,21048.593050,-1713.395323,5413.458397,0.004250,-0.021750,1.004500,192.000000,0.000000,16.000000,127.500000,32.000000,15.500000,48.000000,0.000000,0.000000,0.000000,1764344875.681709,0.000000
2.000000,23793.767249,24408.306111,14588.000129,20610.521210,27503.486276,-3625.944689,-9869.010433,17690.869295,24996.693432,21934.549145,4678.734205,-6607.153309,21847.444397,21063.658126,-1719.519701,5389.832603,0.004250,-0.021750,1.004500,192.000000,0.000000,0.000000,0.000000,0.000000,0.000000,0.000000,0.000000,0.000000,0.000000,1764344875.688728,0.000000
4.000000,23788.335775,24400.035965,14588.067184,20604.083908,27503.262759,-3643.982547,-9871.804401,17686.734222,25110.463811,21926.904848,4650.280434,-6643.251377,21843.488138,21038.445358,-1716.725733,5436.659507,0.004250,-0.021750,1.004500,192.000000,0.000000,0.000000,0.000000,0.000000,0.000000,0.000000,0.000000,0.000000,0.000000,1764344875.697298,0.000000
6.000000,23796.069479,24403.500486,14597.879600,20611.281170,27486.633061,-3624.111846,-9853.319508,17693.529152,25009.366871,21929.274133,4670.732280,-6614.372923,21843.801063,21055.298573,-1702.822948,5377.360329,0.004250,-0.021750,1.004500,192.000000,0.000000,0.000000,0.000000,0.000000,0.000000,0.000000,0.000000,0.000000,0.000000,1764344875.704796,0.000000
8.000000,23795.465981,24402.315843,14586.927245,20600.664091,27513.701023,-3632.538454,-9880.655692,17686.443649,25059.591241,21917.785337,4661.791582,-6634.623603,21845.253926,21040.680533,-1715.451683,5412.340809,0.004250,-0.021750,1.004500,192.000000,0.000000,0.000000,0.000000,0.000000,0.000000,0.000000,0.000000,0.000000,0.000000,1764344875.713774,0.000000
10.000000,23800.830400,24407.054413,14605.255676,20610.230638,27494.120895,-3619.596794,-9852.224273,17697.217190,25101.344299,21931.241087,4668.184181,-6629.952089,21856.385095,21050.291783,-1710.288430,5402.863670,0.003125,-0.022875,1.002250,192.000000,0.000000,8.000000,127.500000,32.000000,15.500000,32.000000,0.000000,0.000000,0.000000,1764344875.720822,0.000000
12.000000,23788.402830,24394.917416,14590.771746,20601.379347,27495.886683,-3636.226491,-9872.251436,17683.314405,24986.925720,21920.981636,4672.520420,-6618.195071,21839.554231,21051.319963,-1698.151433,5382.903562,0.003125,-0.022875,1.002250,192.000000,0.000000,0.000000,0.000000,0.000000,0.000000,0.000000,0.000000,0.000000,0.000000,1764344875.728899,0.000000
14.000000,23790.302728,24397.800791,14593.856286,20605.939103,27514.170410,-3630.996183,-9869.636282,17687.963568,25114.397718,21921.093395,4650.325137,-6646.760600,21845.678609,21035.427873,-1707.539166,5434.603147,0.003125,-0.022875,1.002250,192.000000,0.000000,0.000000,0.000000,0.000000,0.000000,0.000000,0.000000,0.000000,0.000000,1764344875.735891,0.000000
16.000000,23797.455287,24405.847419,14598.617208,20616.511478,27494.545578,-3608.778549,-9851.084334,17695.451402,25011.065604,21928.558878,4671.224018,-6614.082350,21848.137301,21062.048800,-1702.890003,5378.790841,0.003125,-0.022875,1.002250,192.000000,0.000000,0.000000,0.000000,0.000000,0.000000,0.000000,0.000000,0.000000,0.000000,1764344875.744952,0.000000
18.000000,23788.693403,24397.957253,14578.165362,20603.011024,27512.404622,-3637.165265,-9882.600293,17681.392155,25057.981915,21925.072005,4658.282358,-6632.187263,21844.292801,21050.202376,-1709.707285,5418.778112,0.003125,-0.022875,1.002250,192.000000,0.000000,0.000000,0.000000,0.000000,0.000000,0.000000,0.000000,0.000000,0.000000,1764344875.752943,0.000000
20.000000,23799.913979,24408.216704,14595.443260,20614.589228,27497.697174,-3604.487014,-9853.453619,17693.529152,25092.738878,21929.430596,4656.605978,-6633.908347,21847.153824,21050.828225,-1710.690762,5415.291240,0.004563,-0.025438,1.001125,192.000000,0.000000,24.000000,127.500000,16.000000,15.500000,32.000000,0.000000,0.000000,0.000000,1764344875.761962,0.000000
22.000000,23792.649662,24399.499524,14584.513257,20606.877876,27500.044107,-3626.190558,-9871.156200,17686.488353,24990.591406,21922.769776,4671.067556,-6616.205766,21840.113025,21058.673687,-1706.846262,5386.010454,0.004563,-0.025438,1.001125,192.000000,0.000000,0.000000,0.000000,0.000000,0.000000,0.000000,0.000000,0.000000,0.000000,1764344875.768987,0.000000
24.000000,23804.943121,24410.764803,14592.269312,20609.493030,27511.868180,-3627.755180,-9868.630453,17693.484449,25121.594980,21923.775604,4654.817838,-6642.916100,21844.762188,21038.355951,-1713.507082,5437.486522,0.004563,-0.025438,1.001125,192.000000,0.000000,0.000000,0.000000,0.000000,0.000000,0.000000,0.000000,0.000000,0.000000,1764344875.777016,0.000000
26.000000,23802.305615,24410.004843,14597.387862,20614.075138,27490.231692,-3614.880576,-9852.827770,17696.904266,25020.051005,21928.849450,4679.158888,-6609.790815,21846.147996,21059.634812,-1708.947326,5380.221353,0.004563,-0.025438,1.001125,192.000000,0.000000,0.000000,0.000000,0.000000,0.000000,0.000000,0.000000,0.000000,0.000000,1764344875.785072,0.000000
28.000000,23794.415449,24401.175904,14579.528818,20602.921617,27507.174314,-3642.976718,-9882.265017,17685.035489,25056.193776,21917.360654,4661.389251,-6632.030801,21839.867156,21039.227669,-1710.400189,5417.392304,0.004563,-0.025438,1.001125,192.000000,0.000000,0.000000,0.000000,0.000000,0.000000,0.000000,0.000000,0.000000,0.000000,1764344875.794064,0.000000
30.000000,23804.205514,24412.731756,14597.790193,20615.550353,27492.645680,-3617.696895,-9851.039630,17700.212324,25096.113991,21929.475299,4663.289149,-6625.437036,21846.125644,21048.369533,-1719.273832,5412.631382,0.007281,-0.026719,0.999563,192.000000,0.000000,40.000000,127.500000,16.000000,15.500000,24.000000,0.000000,0.000000,0.000000,1764344875.800085,0.000000
32.000000,23796.672976,24406.428564,14583.552132,20605.447365,27494.612634,-3634.952442,-9871.692642,17688.477658,24988.982080,21916.243066,4671.201667,-6612.562431,21835.061530,21050.247079,-1703.225279,5381.428347,0.007281,-0.026719,0.999563,192.000000,0.000000,0.000000,0.000000,0.000000,0.000000,0.000000,0.000000,0.000000,0.000000,1764344875.809119,0.000000
34.000000,23803.780830,24413.603474,14591.866981,20609.291865,27510.549427,-3628.693954,-9868.541046,17692.143344,25126.445308,21928.201250,4655.980129,-6637.082295,21846.505624,21039.317076,-1712.076570,5429.953984,0.007281,-0.026719,0.999563,192.000000,0.000000,0.000000,0.000000,0.000000,0.000000,0.000000,0.000000,0.000000,0.000000,1764344875.816200,0.000000
36.000000,23797.835266,24407.434393,14598.639560,20611.482336,27484.442590,-3616.936936,-9851.978404,17694.624388,25013.144316,21921.898058,4674.353263,-6613.165929,21841.901164,21054.069227,-1705.438102,5381.271885,0.007281,-0.026719,0.999563,192.000000,0.000000,0.000000,0.000000,0.000000,0.000000,0.000000,0.000000,0.000000,0.000000,1764344875.825189,0.000000
38.000000,23795.130705,24404.349852,14587.351929,20599.054766,27510.527076,-3642.820256,-9880.409823,17685.594283,25056.752569,21913.627912,4664.943178,-6633.193092,21838.056664,21035.204355,-1710.131968,5414.397170,0.007281,-0.026719,0.999563,192.000000,0.000000,0.000000,0.000000,0.000000,0.000000,0.000000,0.000000,0.000000,0.000000,1764344875.833199,0.000000
40.000000,23804.630197,24413.871695,14604.920400,20610.297693,27500.915825,-3616.244032,-9851.129037,17697.664225,25097.298634,21927.128366,4667.558332,-6629.437998,21848.360818,21043.541556,-1708.813215,5407.602240,0.007281,-0.026719,0.999563,192.000000,0.000000,0.000000,0.000000,0.000000,0.000000,0.000000,0.000000,0.000000,0.000000,1764344875.842270,0.000000
42.000000,23794.124877,24405.556846,14587.798964,20601.267588,27503.016889,-3631.130294,-9871.156200,17688.209437,24990.323185,21917.181840,4674.643835,-6614.372923,21839.397769,21049.934155,-1701.727712,5380.176649,0.010000,-0.028000,1.002000,192.000000,0.000000,40.000000,127.500000,16.000000,15.500000,40.000000,0.000000,0.000000,0.000000,1764344875.849295,0.000000
44.000000,23800.383365,24410.943617,14589.475344,20602.720452,27516.986730,-3628.425733,-9869.144543,17693.350338,25125.797108,21924.736729,4658.885856,-6639.362173,21848.696095,21035.338466,-1711.987163,5430.155150,0.010000,-0.028000,1.002000,192.000000,0.000000,0.000000,0.000000,0.000000,0.000000,0.000000,0.000000,0.000000,0.000000,1764344875.856299,0.000000
46.000000,23804.250217,24416.330387,14595.085632,20612.152888,27487.974165,-3607.593907,-9850.793761,17699.921751,25019.872191,21924.669674,4677.504859,-6611.109568,21846.103292,21052.616364,-1705.706323,5380.087242,0.010000,-0.028000,1.002000,192.000000,0.000000,0.000000,0.000000,0.000000,0.000000,0.000000,0.000000,0.000000,0.000000,1764344875.865332,0.000000
48.000000,23795.376574,24406.093288,14578.165362,20602.496934,27503.553331,-3642.015593,-9879.336939,17687.695347,25060.775883,21921.272209,4666.306635,-6628.163949,21842.817586,21042.111044,-1714.915242,5415.581812,0.010000,-0.028000,1.002000,192.000000,0.000000,0.000000,0.000000,0.000000,0.000000,0.000000,0.000000,0.000000,0.000000,1764344875.872353,0.000000
50.000000,23814.777889,24423.572352,14601.053548,20616.332664,27494.612634,-3611.952497,-9847.932738,17705.196763,25096.896302,21927.351883,4667.558332,-6625.101760,21850.014848,21049.464768,-1716.345753,5407.512833,0.010000,-0.028000,1.002000,192.000000,0.000000,0.000000,0.000000,0.000000,0.000000,0.000000,0.000000,0.000000,0.000000,1764344875.880391,0.000000
52.000000,23803.087926,24415.749242,14583.842705,20605.782641,27492.153942,-3633.700744,-9869.546875,17692.255103,24997.721612,21921.093395,4682.221077,-6605.856908,21846.036237,21054.739780,-1709.416712,5376.287446,0.012000,-0.018000,1.012000,192.000000,0.000000,48.000000,127.500000,56.000000,15.500000,80.000000,0.000000,0.000000,0.000000,1764344875.888408,0.000000
54.000000,23811.402775,24425.807527,14590.280007,20609.828306,27506.973148,-3630.660907,-9867.043479,17698.290074,25123.003140,21929.072968,4661.992748,-6631.963746,21846.840900,21041.261678,-1724.012402,5436.078362,0.012000,-0.018000,1.012000,192.000000,0.000000,0.000000,0.000000,0.000000,0.000000,0.000000,0.000000,0.000000,0.000000,1764344875.897419,0.000000
56.000000,23811.872162,24424.309960,14598.952484,20617.092623,27488.711773,-3607.996238,-9851.173741,17701.732242,25018.531086,21933.632724,4681.103490,-6604.515803,21848.159653,21059.076018,-1707.919146,5382.054196,0.012000,-0.018000,1.012000,192.000000,0.000000,0.000000,0.000000,0.000000,0.000000,0.000000,0.000000,0.000000,0.000000,1764344875.904431,0.000000
58.000000,23802.551484,24412.262370,14585.139106,20602.720452,27509.744765,-3636.897044,-9882.041500,17687.695347,25068.777808,21928.134194,4670.151135,-6624.252394,21850.126606,21046.022599,-1710.757817,5426.578871,0.012000,-0.018000,1.012000,192.000000,0.000000,0.000000,0.000000,0.000000,0.000000,0.000000,0.000000,0.000000,0.000000,1764344875.913455,0.000000
60.000000,23816.186049,24424.891105,14603.199315,20616.958513,27500.535846,-3601.067197,-9851.576072,17703.498030,25103.557122,21931.799880,4670.195838,-6625.146464,21857.927365,21051.722294,-1707.606221,5417.727580,0.012000,-0.018000,1.012000,192.000000,0.000000,0.000000,0.000000,0.000000,0.000000,0.000000,0.000000,0.000000,0.000000,1764344875.922496,0.000000
62.000000,23804.987825,24412.195314,14589.520048,20605.313254,27503.061593,-3620.937898,-9871.223256,17692.635082,25003.913045,21925.876668,4685.327969,-6605.253411,21852.920574,21062.451132,-1706.779207,5390.279638,0.006000,-0.016000,1.008000,192.000000,0.000000,24.000000,127.500000,64.000000,15.500000,64.000000,0.000000,0.000000,0.000000,1764344875.930554,0.000000
64.000000,23820.857563,24429.316751,14594.280969,20608.464850,27519.601884,-3621.474340,-9869.256302,17699.117088,25136.883573,21929.609410,4666.328986,-6633.640126,21861.794217,21048.950678,-1704.499329,5433.351449,0.006000,-0.016000,1.008000,192.000000,0.000000,0.000000,0.000000,0.000000,0.000000,0.000000,0.000000,0.000000,0.000000,1764344875.936568,0.000000
66.000000,23812.877990,24423.795870,14595.398557,20615.103318,27495.104372,-3600.754273,-9853.431267,17701.441670,25030.757490,21933.588020,4685.149155,-6603.286457,21859.223766,21066.161521,-1698.374951,5382.680044,0.006000,-0.016000,1.008000,192.000000,0.000000,0.000000,0.000000,0.000000,0.000000,0.000000,0.000000,0.000000,0.000000,1764344875.944605,0.000000
68.000000,23813.280322,24422.499469,14580.780516,20604.486239,27516.897323,-3629.565672,-9882.130907,17692.992710,25070.744761,21925.072005,4672.073385,-6623.604193,21852.875871,21051.565832,-1709.930803,5425.662449,0.006000,-0.016000,1.008000,192.000000,0.000000,0.000000,0.000000,0.000000,0.000000,0.000000,0.000000,0.000000,0.000000,1764344875.953621,0.000000
70.000000,23830.066482,24437.855117,14600.047719,20618.769004,27506.682576,-3604.129386,-9850.346726,17709.421242,25113.391890,21938.304238,4676.767251,-6619.245603,21863.783522,21058.897204,-1707.561518,5415.537109,0.006000,-0.016000,1.008000,192.000000,0.000000,0.000000,0.000000,0.000000,0.000000,0.000000,0.000000,0.000000,0.000000,1764344875.959667,0.000000
72.000000,23817.817726,24424.846402,14584.826182,20609.627141,27502.905131,-3623.530701,-9870.172724,17695.987844,25008.606912,21935.309104,4690.133594,-6600.000751,21856.675667,21068.106123,-1703.091169,5384.088204,0.008000,-0.014000,1.004000,192.000000,0.000000,32.000000,127.500000,72.000000,15.500000,48.000000,0.000000,0.000000,0.000000,1764344875.968714,0.000000
74.000000,23818.197706,24423.572352,14590.794097,20609.269513,27509.744765,-3630.459741,-9869.591578,17694.847905,25132.212059,21929.922334,4663.467963,-6633.506016,21855.200452,21044.502681,-1714.557614,5435.385458,0.008000,-0.014000,1.004000,192.000000,0.000000,0.000000,0.000000,0.000000,0.000000,0.000000,0.000000,0.000000,0.000000,1764344875.976699,0.000000
76.000000,23819.494107,24425.874582,14598.997187,20615.393891,27493.092715,-3610.901965,-9851.844293,17700.167620,25031.003360,21929.743520,4681.751690,-6607.130957,21862.397714,21062.898167,-1708.321477,5378.477917,0.008000,-0.014000,1.004000,192.000000,0.000000,0.000000,0.000000,0.000000,0.000000,0.000000,0.000000,0.000000,0.000000,1764344875.984721,0.000000
78.000000,23809.257008,24415.972759,14577.695975,20601.021719,27508.113087,-3638.126390,-9885.461317,17681.794486,25069.515415,21927.821270,4666.820725,-6625.772312,21855.826301,21050.515300,-1714.512910,5416.475882,0.008000,-0.014000,1.004000,192.000000,0.000000,0.000000,0.000000,0.000000,0.000000,0.000000,0.000000,0.000000,0.000000,1764344875.992814,0.000000
80.000000,23819.136479,24424.488774,14596.963179,20614.343359,27500.759363,-3610.678448,-9854.794723,17695.540809,25102.104259,21927.955380,4663.825591,-6628.231004,21860.743685,21052.214033,-1711.115445,5414.106597,0.008000,-0.014000,1.004000,192.000000,0.000000,0.000000,0.000000,0.000000,0.000000,0.000000,0.000000,0.000000,0.000000,1764344876.001823,0.000000
82.000000,23814.666130,24423.795870,14584.781478,20606.944931,27502.748669,-3619.552090,-9873.436078,17687.181257,25001.230836,21926.010779,4677.683673,-6608.919097,21856.921537,21061.758228,-1705.862785,5385.898696,0.010000,-0.014000,1.004000,192.000000,0.000000,40.000000,127.500000,72.000000,15.500000,48.000000,0.000000,0.000000,0.000000,1764344876.008821,0.000000
84.000000,23815.671958,24423.304131,14592.984568,20608.822478,27515.802087,-3620.334401,-9871.357366,17689.394079,25131.697968,21934.906773,4661.702175,-6635.092990,21862.934156,21049.151844,-1714.445855,5431.451551,0.010000,-0.014000,1.004000,192.000000,0.000000,0.000000,0.000000,0.000000,0.000000,0.000000,0.000000,0.000000,0.000000,1764344876.015859,0.000000
86.000000,23812.274493,24421.448937,14598.840725,20609.448327,27488.309442,-3611.863090,-9855.912311,17690.712832,25020.922723,21929.877630,4677.795431,-6610.215498,21856.027467,21063.456960,-1706.175710,5377.405033,0.010000,-0.014000,1.004000,192.000000,0.000000,0.000000,0.000000,0.000000,0.000000,0.000000,0.000000,0.000000,0.000000,1764344876.024956,0.000000
88.000000,23801.657415,24412.955274,14580.266426,20598.563027,27507.956625,-3638.260500,-9885.662482,17679.000518,25058.920689,21920.400491,4662.730356,-6632.589594,21844.762188,21042.043989,-1705.751026,5409.010399,0.010000,-0.014000,1.004000,192.000000,0.000000,0.000000,0.000000,0.000000,0.000000,0.000000,0.000000,0.000000,0.000000,1764344876.034982,0.000000
90.000000,23816.834249,24427.126280,14595.689129,20614.030434,27496.400773,-3612.600698,-9855.040593,17695.898437,25096.538674,21931.375197,4664.764364,-6628.387466,21852.808816,21053.085751,-1712.456550,5410.865594,0.010000,-0.014000,1.004000,192.000000,0.000000,0.000000,0.000000,0.000000,0.000000,0.000000,0.000000,0.000000,0.000000,1764344876.041982,0.000000
92.000000,23812.676825,24425.114623,14581.562827,20611.012949,27499.686480,-3622.658983,-9871.893808,17691.785716,24999.576807,21930.928162,4680.634103,-6605.991019,21848.114949,21065.915652,-1707.427407,5382.881210,0.008000,-0.020000,0.998000,192.000000,0.000000,32.000000,127.500000,48.000000,15.500000,24.000000,0.000000,0.000000,0.000000,1764344876.047947,0.000000
94.000000,23819.829383,24429.428509,14586.793135,20614.723338,27516.383233,-3617.071046,-9868.898674,17697.306597,25134.916620,21941.701703,4664.607902,-6630.220310,21859.424932,21056.706733,-1714.736428,5431.608013,0.008000,-0.020000,0.998000,192.000000,0.000000,0.000000,0.000000,0.000000,0.000000,0.000000,0.000000,0.000000,0.000000,1764344876.056986,0.000000
96.000000,23824.344435,24434.301190,14590.749394,20621.540621,27492.556273,-3603.078854,-9852.403087,17701.933408,25030.109290,21941.768759,4684.880934,-6600.201917,21860.341353,21076.823303,-1709.237898,5385.116385,0.008000,-0.020000,0.998000,192.000000,0.000000,0.000000,0.000000,0.000000,0.000000,0.000000,0.000000,0.000000,0.000000,1764344876.065060,0.000000
98.000000,23810.307540,24422.164192,14574.074992,20607.235504,27513.008119,-3630.884425,-9883.472012,17685.571931,25070.275375,21937.007837,4668.541809,-6619.580879,21851.825339,21060.238309,-1715.384628,5426.757685,0.008000,-0.020000,0.998000,192.000000,0.000000,0.000000,0.000000,0.000000,0.000000,0.000000,0.000000,0.000000,0.000000,1764344876.072085,0.000000
100.000000,23819.561162,24429.115585,14594.817411,20618.701949,27505.229712,-3606.208099,-9853.453619,17698.379481,25100.718451,21930.726997,4664.429088,-6623.537138,21857.346220,21058.830149,-1709.930803,5417.459359,0.008000,-0.020000,0.998000,192.000000,0.000000,0.000000,0.000000,0.000000,0.000000,0.000000,0.000000,0.000000,0.000000,1764344876.081086,0.000000
102.000000,23813.883819,24425.762823,14583.596836,20606.721414,27505.788506,-3622.010782,-9872.966692,17688.678824,25006.751717,21933.431558,4681.639931,-6602.481795,21857.525034,21067.972013,-1709.707285,5389.318513,0.006000,-0.022000,1.004000,192.000000,0.000000,24.000000,127.500000,40.000000,15.500000,48.000000,0.000000,0.000000,0.000000,1764344876.089106,0.000000
104.000000,23811.782755,24422.968855,14588.335405,20604.910923,27517.612579,-3626.548186,-9872.966692,17688.522361,25124.388948,21927.888325,4657.656510,-6637.216406,21855.781598,21044.837957,-1706.376875,5431.675068,0.006000,-0.022000,1.004000,192.000000,0.000000,0.000000,0.000000,0.000000,0.000000,0.000000,0.000000,0.000000,0.000000,1764344876.096164,0.000000
106.000000,23814.442612,24424.354663,14593.968045,20609.873010,27489.292918,-3611.728980,-9855.688793,17694.803202,25014.373662,21933.610372,4673.302731,-6610.148443,21848.159653,21062.227614,-1703.471148,5380.511925,0.006000,-0.022000,1.004000,192.000000,0.000000,0.000000,0.000000,0.000000,0.000000,0.000000,0.000000,0.000000,0.000000,1764344876.104186,0.000000
108.000000,23804.451383,24415.145745,14581.071088,20598.875952,27513.119878,-3629.766837,-9884.030805,17683.627329,25061.915822,21927.508346,4665.792545,-6627.336934,21850.618345,21050.470597,-1711.562480,5414.307763,0.006000,-0.022000,1.004000,192.000000,0.000000,0.000000,0.000000,0.000000,0.000000,0.000000,0.000000,0.000000,0.000000,1764344876.113208,0.000000
110.000000,23806.597150,24416.576256,14599.868906,20610.208286,27493.584453,-3611.952497,-9855.688793,17690.869295,25089.833151,21926.033130,4659.846981,-6632.634298,21850.573641,21048.034256,-1714.512910,5410.373856,0.006000,-0.022000,1.004000,192.000000,0.000000,0.000000,0.000000,0.000000,0.000000,0.000000,0.000000,0.000000,0.000000,1764344876.121226,0.000000
112.000000,23801.858580,24413.916399,14589.095365,20603.815687,27497.451305,-3635.622994,-9873.167857,17684.655510,24987.506865,21921.227505,4672.051033,-6615.557565,21844.203394,21057.399637,-1709.237898,5378.992007,0.006000,-0.024000,1.003000,192.000000,0.000000,24.000000,127.500000,24.000000,15.500000,40.000000,0.000000,0.000000,0.000000,1764344876.128275,0.000000
114.000000,23806.686557,24418.274989,14591.531705,20604.642702,27507.889570,-3633.432523,-9872.474953,17689.192914,25118.868067,21923.574439,4655.980129,-6640.345650,21849.478406,21040.591126,-1716.412808,5432.189158,0.006000,-0.024000,1.003000,192.000000,0.000000,0.000000,0.000000,0.000000,0.000000,0.000000,0.000000,0.000000,0.000000,1764344876.136301,0.000000
116.000000,23809.882857,24420.219591,14595.152687,20613.896324,27487.594186,-3615.864052,-9853.967709,17695.183181,25016.497078,21930.682293,4677.549562,-6608.360303,21849.612516,21062.205262,-1706.622744,5376.533315,0.006000,-0.024000,1.003000,192.000000,0.000000,0.000000,0.000000,0.000000,0.000000,0.000000,0.000000,0.000000,0.000000,1764344876.145312,0.000000
118.000000,23802.238560,24411.725928,14577.964196,20604.933274,27506.123782,-3641.389744,-9881.616817,17684.141419,25053.176290,21919.506421,4662.260969,-6631.561414,21839.889507,21043.295687,-1717.440989,5422.063818,0.006000,-0.024000,1.003000,192.000000,0.000000,0.000000,0.000000,0.000000,0.000000,0.000000,0.000000,0.000000,0.000000,1764344876.153353,0.000000
120.000000,23814.867296,24427.238038,14594.549190,20619.216039,27496.065497,-3613.785340,-9851.576072,17700.033510,25094.191741,21932.269267,4666.820725,-6625.861719,21849.903089,21052.862233,-1715.697553,5413.547804,0.006000,-0.024000,1.003000,192.000000,0.000000,0.000000,0.000000,0.000000,0.000000,0.000000,0.000000,0.000000,0.000000,1764344876.160378,0.000000
122.000000,23798.192894,24413.111736,14577.204237,20610.163583,27494.657337,-3629.386858,-9872.542008,17686.644815,24982.187150,21928.648285,4675.224981,-6607.823862,21837.900202,21061.378248,-1709.662582,5388.223277,0.007000,-0.024000,1.004500,192.000000,0.000000,32.000000,127.500000,32.000000,15.500000,56.000000,0.000000,0.000000,0.000000,1764344876.168407,0.000000
124.000000,23805.256045,24415.503373,14582.859228,20610.096527,27509.275378,-3621.921375,-9871.558532,17688.276492,25106.552256,21929.117671,4653.208512,-6638.222234,21839.017789,21045.597916,-1722.067800,5438.157074,0.007000,-0.024000,1.004500,192.000000,0.000000,0.000000,0.000000,0.000000,0.000000,0.000000,0.000000,0.000000,0.000000,1764344876.177436,0.000000
126.000000,23807.155944,24419.370224,14591.263484,20614.477469,27487.951814,-3609.583212,-9854.548854,17693.551504,25000.470877,21928.380064,4671.067556,-6612.696542,21839.889507,21062.741704,-1705.795730,5381.115422,0.007000,-0.024000,1.004500,192.000000,0.000000,0.000000,0.000000,0.000000,0.000000,0.000000,0.000000,0.000000,0.000000,1764344876.184454,0.000000
128.000000,23797.030604,24409.758974,14576.109001,20598.987710,27506.012023,-3637.634651,-9885.908352,17679.805181,25046.381360,21927.798918,4659.668167,-6629.639164,21840.649467,21049.151844,-1714.334096,5421.080341,0.007000,-0.024000,1.004500,192.000000,0.000000,0.000000,0.000000,0.000000,0.000000,0.000000,0.000000,0.000000,0.000000,1764344876.192474,0.000000
130.000000,23806.060708,24419.571390,14597.030234,20611.102356,27496.870160,-3613.181843,-9857.141657,17691.182219,25082.635889,21933.073930,4656.516571,-6629.460350,21849.970144,21051.699943,-1708.790864,5410.865594,0.007000,-0.024000,1.004500,192.000000,0.000000,0.000000,0.000000,0.000000,0.000000,0.000000,0.000000,0.000000,0.000000,1764344876.200504,0.000000
132.000000,23801.679766,24415.905704,14586.770783,20604.128612,27504.626215,-3624.782398,-9874.754831,17683.783792,24979.728458,21930.548183,4666.686614,-6612.785949,21847.153824,21062.138207,-1703.828776,5380.467222,0.006500,-0.024000,1.005250,192.000000,0.000000,24.000000,127.500000,32.000000,15.500000,56.000000,0.000000,0.000000,0.000000,1764344876.208493,0.000000
134.000000,23802.305615,24415.861001,14591.218780,20602.876914,27518.126669,-3626.212910,-9874.307796,17683.247350,25112.251951,21934.750311,4649.095791,-6640.636222,21856.206281,21043.541556,-1712.098922,5425.483635,0.006500,-0.024000,1.005250,192.000000,0.000000,0.000000,0.000000,0.000000,0.000000,0.000000,0.000000,0.000000,0.000000,1764344876.216533,0.000000
136.000000,23801.120973,24412.485887,14592.314016,20607.771946,27492.600977,-3624.849454,-9858.639223,17685.929559,24997.878074,21922.970941,4663.736184,-6619.580879,21846.326810,21052.951640,-1700.855994,5374.409899,0.006500,-0.024000,1.005250,192.000000,0.000000,0.000000,0.000000,0.000000,0.000000,0.000000,0.000000,0.000000,0.000000,1764344876.224561,0.000000
138.000000,23797.835266,24410.273064,14576.488981,20597.959530,27507.643701,-3646.530646,-9887.696491,17676.944158,25042.469805,21919.305255,4653.364975,-6638.646917,21837.542574,21038.378303,-1712.277736,5419.247498,0.006500,-0.024000,1.005250,192.000000,0.000000,0.000000,0.000000,0.000000,0.000000,0.000000,0.000000,0.000000,0.000000,1764344876.233589,0.000000
140.000000,23815.068461,24426.612190,14597.432565,20614.522173,27498.211264,-3611.259593,-9854.861779,17696.568989,25077.293822,21927.329532,4657.209475,-6634.869472,21840.425949,21045.977896,-1710.243727,5410.686780,0.006500,-0.024000,1.005250,192.000000,0.000000,0.000000,0.000000,0.000000,0.000000,0.000000,0.000000,0.000000,0.000000,1764344876.241615,0.000000
142.000000,23808.765269,24420.890143,14583.306263,20606.430841,27498.032450,-3624.603584,-9873.123154,17689.014100,24983.371792,21932.001046,4677.750728,-6609.567298,21844.583374,21062.361725,-1709.953154,5385.742233,0.004250,-0.026000,1.002625,192.000000,0.000000,8.000000,127.500000,16.000000,15.500000,32.000000,0.000000,0.000000,0.000000,1764344876.248631,0.000000
144.000000,23809.234656,24421.426585,14586.591969,20607.280208,27508.001328,-3626.727000,-9872.162029,17691.763364,25102.864218,21925.027302,4654.460210,-6642.223196,21844.225746,21040.389960,-1713.149454,5434.401981,0.004250,-0.026000,1.002625,192.000000,0.000000,0.000000,0.000000,0.000000,0.000000,0.000000,0.000000,0.000000,0.000000,1764344876.256661,0.000000
146.000000,23822.578647,24434.457652,14593.990397,20616.399719,27489.829360,-3608.800901,-9852.000755,17702.179277,25002.482534,21935.957305,4678.287170,-6608.114434,21846.930307,21064.641603,-1705.751026,5382.568286,0.004250,-0.026000,1.002625,192.000000,0.000000,0.000000,0.000000,0.000000,0.000000,0.000000,0.000000,0.000000,0.000000,1764344876.264686,0.000000
148.000000,23808.921732,24421.292474,14577.338347,20604.732109,27514.259817,-3631.376163,-9880.678043,17688.902341,25043.810909,21927.776566,4667.446574,-6626.353458,21841.565888,21050.917631,-1715.004649,5419.314554,0.004250,-0.026000,1.002625,192.000000,0.000000,0.000000,0.000000,0.000000,0.000000,0.000000,0.000000,0.000000,0.000000,1764344876.271760,0.000000
150.000000,23812.945046,24426.388672,14591.777574,20614.700987,27498.591244,-3612.868919,-9852.716011,17698.625350,25081.428895,21931.866936,4666.641911,-6626.196996,21849.321943,21056.259698,-1711.249555,5409.412731,0.004250,-0.026000,1.002625,192.000000,0.000000,0.000000,0.000000,0.000000,0.000000,0.000000,0.000000,0.000000,0.000000,1764344876.280780,0.000000
152.000000,23791.353260,24406.585027,14574.700841,20599.479449,27498.367727,-3637.657003,-9875.537142,17680.855713,24968.686696,21921.898058,4671.335777,-6614.775254,21835.843842,21053.421027,-1707.963849,5382.344768,0.003125,-0.026000,1.002312,192.000000,0.000000,8.000000,127.500000,24.000000,15.500000,40.000000,0.000000,0.000000,0.000000,1764344876.288782,0.000000
154.000000,23788.559292,24400.147724,14576.757202,20596.640777,27504.559160,-3639.892178,-9876.319453,17677.882931,25085.005174,21911.705662,4642.993765,-6651.655632,21833.049873,21028.252963,-1711.115445,5426.578871,0.003125,-0.026000,1.002312,192.000000,0.000000,0.000000,0.000000,0.000000,0.000000,0.000000,0.000000,0.000000,0.000000,1764344876.296116,0.000000
156.000000,23793.074345,24405.512143,14587.150763,20604.374481,27483.615575,-3626.145855,-9857.745154,17684.521399,24977.314469,21910.073985,4659.824629,-6624.252394,21828.624228,21043.586259,-1707.248593,5372.644111,0.003125,-0.026000,1.002312,192.000000,0.000000,0.000000,0.000000,0.000000,0.000000,0.000000,0.000000,0.000000,0.000000,1764344876.304848,0.000000
158.000000,23785.094772,24397.689032,14575.103173,20595.031452,27505.252064,-3651.470381,-9885.796593,17673.636100,25022.733214,21910.409261,4651.241559,-6638.602214,21829.518298,21033.907954,-1713.685896,5404.048312,0.003125,-0.026000,1.002312,192.000000,0.000000,0.000000,0.000000,0.000000,0.000000,0.000000,0.000000,0.000000,0.000000,1764344876.312984,0.000000
160.000000,23795.644795,24404.707480,14595.644426,20607.883705,27489.225863,-3627.665773,-9857.856912,17683.426164,25058.563061,21914.276113,4650.258082,-6641.642051,21835.597972,21038.490062,-1717.530396,5409.546841,0.003125,-0.026000,1.002312,192.000000,0.000000,0.000000,0.000000,0.000000,0.000000,0.000000,0.000000,0.000000,0.000000,1764344876.319941,0.000000
162.000000,23792.157923,24402.405250,14586.144934,20600.015891,27491.684555,-3639.691012,-9876.073584,17676.295957,24961.332972,21912.040938,4665.278454,-6624.766484,21830.613533,21046.469634,-1705.236936,5379.751966,0.003563,-0.023000,1.002156,192.000000,0.000000,16.000000,127.500000,48.000000,15.500000,40.000000,0.000000,0.000000,0.000000,1764344876.328994,0.000000
164.000000,23803.467906,24413.536419,14591.129373,20605.648530,27505.609692,-3636.338250,-9872.139677,17686.935387,25092.425953,21921.383968,4651.040393,-6648.772257,21837.162594,21033.997361,-1707.427407,5431.205682,0.003563,-0.023000,1.002156,192.000000,0.000000,0.000000,0.000000,0.000000,0.000000,0.000000,0.000000,0.000000,0.000000,1764344876.336983,0.000000
166.000000,23814.844944,24423.795870,14598.080766,20617.047920,27489.516436,-3619.261517,-9850.369078,17703.006292,24994.346499,21927.284828,4679.896495,-6611.400141,21839.956563,21056.438512,-1702.174747,5375.169858,0.003563,-0.023000,1.002156,192.000000,0.000000,0.000000,0.000000,0.000000,0.000000,0.000000,0.000000,0.000000,0.000000,1764344876.346012,0.000000
168.000000,23806.261874,24418.051471,14578.724155,20603.391004,27502.838075,-3652.051527,-9880.365119,17690.802239,25041.754549,21921.808651,4675.113222,-6624.632373,21838.391940,21041.887527,-1713.283564,5408.786882,0.003563,-0.023000,1.002156,192.000000,0.000000,0.000000,0.000000,0.000000,0.000000,0.000000,0.000000,0.000000,0.000000,1764344876.352056,0.000000
170.000000,23813.749708,24424.824050,14595.376205,20615.215077,27486.610709,-3624.692991,-9852.872473,17701.151097,25071.392962,21923.462680,4670.844039,-6627.269879,21839.777749,21039.562945,-1716.748085,5401.723731,0.003563,-0.023000,1.002156,192.000000,0.000000,0.000000,0.000000,0.000000,0.000000,0.000000,0.000000,0.000000,0.000000,1764344876.360040,0.000000
172.000000,23806.641854,24418.342044,14578.522990,20607.883705,27486.566006,-3640.540378,-9873.525485,17689.662300,24972.441789,21919.729938,4682.601056,-6610.550774,21832.982818,21045.933192,-1708.120311,5373.471126,0.002781,-0.021500,1.006078,192.000000,0.000000,8.000000,127.500000,48.000000,15.500000,72.000000,0.000000,0.000000,0.000000,1764344876.369966,0.000000
174.000000,23807.245351,24418.274989,14581.004033,20608.487202,27501.496971,-3634.639518,-9873.503133,17690.735184,25096.896302,21917.584171,4657.432992,-6643.139618,21833.765129,21028.208259,-1720.681992,5429.261080,0.002781,-0.021500,1.006078,192.000000,0.000000,0.000000,0.000000,0.000000,0.000000,0.000000,0.000000,0.000000,0.000000,1764344876.376105,0.000000
176.000000,23806.463040,24420.085480,14588.022481,20615.170373,27480.463979,-3619.194462,-9857.275767,17696.233713,24996.201694,21928.961209,4678.734205,-6611.109568,21837.162594,21051.766998,-1708.343829,5374.141678,0.002781,-0.021500,1.006078,192.000000,0.000000,0.000000,0.000000,0.000000,0.000000,0.000000,0.000000,0.000000,0.000000,1764344876.384109,0.000000
178.000000,23801.165676,24414.609303,14576.488981,20602.608693,27509.141267,-3641.635614,-9885.640131,17682.532094,25034.959618,21920.579305,4664.160867,-6631.829635,21836.447339,21038.065378,-1712.054218,5414.933612,0.002781,-0.021500,1.006078,192.000000,0.000000,0.000000,0.000000,0.000000,0.000000,0.000000,0.000000,0.000000,0.000000,1764344876.392152,0.000000
180.000000,23812.699176,24426.768652,14601.254714,20613.516344,27502.234578,-3616.579308,-9854.928834,17695.317292,25079.953680,21932.649247,4666.776021,-6629.616812,21850.193661,21045.419102,-1709.684933,5405.679990,0.002781,-0.021500,1.006078,192.000000,0.000000,0.000000,0.000000,0.000000,0.000000,0.000000,0.000000,0.000000,0.000000,1764344876.401176,0.000000
182.000000,23795.421278,24411.569466,14585.027347,20601.379347,27494.523227,-3642.686146,-9877.392337,17679.246387,24969.491359,21922.546258,4673.392138,-6619.580879,21839.375417,21047.766036,-1696.206831,5378.746137,0.002391,-0.020750,1.009039,192.000000,0.000000,8.000000,127.500000,48.000000,15.500000,80.000000,0.000000,0.000000,0.000000,1764344876.411217,0.000000
184.000000,23805.881894,24420.353701,14596.516144,20605.514420,27515.109183,-3637.120561,-9872.899636,17688.254140,25101.500762,21927.262476,4654.504914,-6645.643013,21848.718446,21033.907954,-1706.510986,5428.009382,0.002391,-0.020750,1.009039,192.000000,0.000000,0.000000,0.000000,0.000000,0.000000,0.000000,0.000000,0.000000,0.000000,1764344876.417231,0.000000
186.000000,23810.106374,24425.427547,14602.014673,20613.695158,27491.729259,-3621.094360,-9855.375869,17695.496106,24996.201694,21930.838755,4675.895533,-6614.350571,21848.249060,21054.113931,-1696.832680,5376.019225,0.002391,-0.020750,1.009039,192.000000,0.000000,0.000000,0.000000,0.000000,0.000000,0.000000,0.000000,0.000000,0.000000,1764344876.426228,0.000000
188.000000,23812.296845,24424.935809,14586.234341,20607.369615,27512.091698,-3640.093343,-9881.706224,17691.092812,25046.627229,21933.923296,4671.827516,-6626.979307,21848.561984,21045.150881,-1706.555689,5415.872385,0.002391,-0.020750,1.009039,192.000000,0.000000,0.000000,0.000000,0.000000,0.000000,0.000000,0.000000,0.000000,0.000000,1764344876.433467,0.000000
190.000000,23828.345398,24438.548021,14603.333426,20624.245182,27495.394945,-3610.834910,-9849.586767,17710.047091,25088.961433,21946.574384,4681.058786,-6617.591574,21858.463807,21058.539576,-1712.590660,5406.976391,0.002391,-0.020750,1.009039,192.000000,0.000000,0.000000,0.000000,0.000000,0.000000,0.000000,0.000000,0.000000,0.000000,1764344876.440310,0.000000
192.000000,23811.894514,24422.767690,14584.580312,20612.979902,27488.778828,-3631.264404,-9871.446773,17695.116126,24981.606004,21936.829023,4689.999484,-6603.957010,21844.941002,21063.032277,-1705.058122,5378.433213,0.002391,-0.020750,1.009039,192.000000,0.000000,0.000000,0.000000,0.000000,0.000000,0.000000,0.000000,0.000000,0.000000,1764344876.448318,0.000000
194.000000,23814.867296,24425.695768,14587.530743,20615.192725,27501.966357,-3628.872768,-9869.323357,17698.468888,25107.491029,21938.952439,4668.944141,-6633.081333,21847.377342,21045.754379,-1718.737390,5431.540958,0.002391,-0.020750,1.009039,192.000000,0.000000,0.000000,127.500000,32.000000,15.500000,72.000000,0.000000,0.000000,0.000000,1764344876.456386,0.000000
196.000000,23813.727357,24426.276913,14591.218780,20621.831193,27475.032505,-3619.015648,-9852.939529,17702.291036,25000.493228,21935.443215,4684.322141,-6607.354475,21843.264621,21059.321887,-1713.462378,5383.149431,0.002391,-0.020750,1.009039,192.000000,0.000000,0.000000,0.000000,0.000000,0.000000,0.000000,0.000000,0.000000,0.000000,1764344876.464405,0.000000
198.000000,23809.525229,24422.812393,14578.522990,20611.415280,27496.020793,-3641.479151,-9880.767450,17693.730318,25043.118005,21933.386854,4673.638007,-6621.860757,21838.391940,21043.698018,-1717.083361,5417.213490,0.002391,-0.020750,1.009039,192.000000,0.000000,0.000000,0.000000,0.000000,0.000000,0.000000,0.000000,0.000000,0.000000,1764344876.472416,0.000000
200.000000,23820.969322,24434.211783,14599.868906,20623.194650,27486.901282,-3622.614279,-9850.726706,17708.236600,25080.043087,21943.087511,4674.733242,-6618.485644,21843.979877,21047.944849,-1710.355486,5410.642077,0.002391,-0.020750,1.009039,192.000000,0.000000,0.000000,0.000000,0.000000,0.000000,0.000000,0.000000,0.000000,0.000000,1764344876.480412,0.000000
202.000000,23817.683615,24432.781271,14591.129373,20614.902152,27489.918767,-3631.197349,-9868.161067,17702.939237,24977.895615,21940.941744,4691.385292,-6597.810280,21840.135376,21059.321887,-1701.906526,5378.187344,0.002391,-0.020750,1.009039,192.000000,0.000000,0.000000,0.000000,0.000000,0.000000,0.000000,0.000000,0.000000,0.000000,1764344876.487472,0.000000
204.000000,23818.801203,24432.825975,14596.314978,20616.399719,27502.391041,-3630.370334,-9867.401107,17702.782774,25108.206285,21944.093340,4671.469888,-6625.995830,21846.282106,21045.553213,-1714.445855,5430.669240,0.002000,-0.020000,1.008000,192.000000,0.000000,8.000000,127.500000,48.000000,15.500000,64.000000,0.000000,0.000000,0.000000,1764344876.497511,0.000000
206.000000,23825.752595,24442.616039,14607.803775,20625.049844,27489.024697,-3617.003991,-9848.044497,17712.014045,25005.611778,21946.574384,4691.787623,-6594.591629,21851.490063,21064.999231,-1704.074646,5371.839448,0.002000,-0.020000,1.008000,192.000000,0.000000,0.000000,0.000000,0.000000,0.000000,0.000000,0.000000,0.000000,0.000000,1764344876.504502,0.000000
208.000000,23814.196743,24429.093233,14587.754260,20612.689330,27499.328852,-3645.994204,-9879.158125,17696.256065,25050.002342,21942.193442,4679.963551,-6610.908402,21850.886566,21052.303440,-1711.026038,5407.736350,0.002000,-0.020000,1.008000,192.000000,0.000000,0.000000,0.000000,0.000000,0.000000,0.000000,0.000000,0.000000,0.000000,1764344876.512536,0.000000
210.000000,23823.405662,24436.268143,14604.562772,20628.693179,27488.778828,-3615.260555,-9847.820979,17709.823574,25078.389058,21944.003933,4676.633141,-6613.188280,21850.595993,21054.426855,-1716.345753,5404.920030,0.002000,-0.020000,1.008000,192.000000,0.000000,0.000000,0.000000,0.000000,0.000000,0.000000,0.000000,0.000000,0.000000,1764344876.519584,0.000000
212.000000,23807.781793,24424.354663,14583.798001,20618.500783,27478.497026,-3639.042811,-9869.233950,17696.658396,24973.581728,21936.516099,4687.361978,-6596.893859,21838.704865,21059.455998,-1708.947326,5379.304931,0.002000,-0.020000,1.008000,192.000000,0.000000,0.000000,0.000000,0.000000,0.000000,0.000000,0.000000,0.000000,0.000000,1764344876.528615,0.000000
214.000000,23804.160810,24420.621922,14583.753298,20617.472603,27486.834226,-3642.395573,-9871.089145,17693.618559,25099.645567,21937.253706,4664.026757,-6629.058019,21838.593106,21039.160614,-1719.631460,5428.031734,0.004000,-0.022000,1.008000,192.000000,0.000000,16.000000,127.500000,40.000000,15.500000,64.000000,0.000000,0.000000,0.000000,1764344876.536624,0.000000
216.000000,23800.808048,24419.079652,14586.144934,20623.596981,27459.945078,-3628.537491,-9853.967709,17695.831382,24983.483551,21930.570535,4674.956760,-6607.689751,21828.490118,21052.392847,-1711.338962,5379.930780,0.004000,-0.022000,1.008000,192.000000,0.000000,0.000000,0.000000,0.000000,0.000000,0.000000,0.000000,0.000000,0.000000,1764344876.543666,0.000000
218.000000,23797.611749,24411.569466,14571.213969,20611.459984,27486.096619,-3647.156495,-9882.488535,17684.923730,25028.321150,21927.553049,4663.892646,-6624.699429,21822.969237,21042.312210,-1723.364201,5420.186272,0.004000,-0.022000,1.008000,192.000000,0.000000,0.000000,0.000000,0.000000,0.000000,0.000000,0.000000,0.000000,0.000000,1764344876.552691,0.000000
220.000000,23812.140383,24422.231248,14590.816449,20623.574629,27477.513549,-3623.038962,-9852.850122,17698.513591,25067.213186,21933.677427,4663.602074,-6623.715952,21831.820528,21046.447283,-1718.670335,5412.653734,0.004000,-0.022000,1.008000,192.000000,0.000000,0.000000,0.000000,0.000000,0.000000,0.000000,0.000000,0.000000,0.000000,1764344876.560714,0.000000
222.000000,23808.251179,24417.313864,14578.455934,20615.930333,27484.956680,-3633.343116,-9871.133849,17689.707004,24970.854815,21930.682293,4678.354225,-6605.499280,21830.255905,21059.880681,-1714.356448,5387.038635,0.004000,-0.022000,1.008000,192.000000,0.000000,0.000000,0.000000,0.000000,0.000000,0.000000,0.000000,0.000000,0.000000,1764344876.567770,0.000000
224.000000,23815.157868,24422.812393,14584.110926,20616.310312,27502.033413,-3627.598718,-9870.753869,17692.322158,25099.556160,21936.337285,4659.109373,-6633.997754,21839.420121,21047.251945,-1719.050314,5436.704211,0.006000,-0.020000,1.010000,192.000000,0.000000,24.000000,127.500000,48.000000,15.500000,72.000000,0.000000,0.000000,0.000000,1764344876.575802,0.000000
226.000000,23823.249200,24433.697693,14596.806717,20623.127594,27486.364840,-3609.538509,-9851.687831,17702.089870,25000.917912,21942.528718,4682.109318,-6602.079463,21843.152862,21067.100294,-1705.639268,5382.054196,0.006000,-0.020000,1.010000,192.000000,0.000000,0.000000,0.000000,0.000000,0.000000,0.000000,0.000000,0.000000,0.000000,1764344876.584818,0.000000
228.000000,23813.168563,24424.779347,14582.345138,20610.320045,27505.341471,-3636.427657,-9881.996796,17688.455306,25043.296819,21939.935915,4669.815859,-6620.162025,21840.157728,21053.421027,-1705.795730,5419.515719,0.006000,-0.020000,1.010000,192.000000,0.000000,0.000000,0.000000,0.000000,0.000000,0.000000,0.000000,0.000000,0.000000,1764344876.592855,0.000000
230.000000,23822.824517,24435.329370,14600.606513,20623.865202,27491.438686,-3612.220718,-9851.576072,17703.296864,25079.797218,21948.831910,4671.827516,-6617.546870,21847.153824,21060.707696,-1706.846262,5411.491443,0.006000,-0.020000,1.010000,192.000000,0.000000,0.000000,0.000000,0.000000,0.000000,0.000000,0.000000,0.000000,0.000000,1764344876.599863,0.000000
232.000000,23822.086909,24434.971742,14588.782440,20618.165507,27494.277357,-3627.352849,-9869.032785,17697.172486,24976.487455,21942.059331,4684.053920,-6601.051283,21839.196603,21066.519149,-1706.488634,5381.875382,0.006000,-0.020000,1.010000,192.000000,0.000000,0.000000,0.000000,0.000000,0.000000,0.000000,0.000000,0.000000,0.000000,1764344876.607857,0.000000
234.000000,23819.158831,24432.758919,14590.592932,20619.685426,27505.073250,-3629.699782,-9868.183418,17696.725452,25113.794221,21947.848433,4668.474754,-6624.855891,21849.009019,21052.191681,-1718.849149,5430.266908,0.006000,-0.026000,1.006000,192.000000,0.000000,24.000000,127.500000,24.000000,15.500000,56.000000,0.000000,0.000000,0.000000,1764344876.616931,0.000000
236.000000,23815.604903,24429.450861,14591.732871,20621.138289,27474.518415,-3619.194462,-9854.146523,17696.926617,24993.474781,21936.694913,4677.996597,-6605.096949,21836.514394,21064.954527,-1709.327305,5382.747100,0.006000,-0.026000,1.006000,192.000000,0.000000,0.000000,0.000000,0.000000,0.000000,0.000000,0.000000,0.000000,0.000000,1764344876.624014,0.000000
238.000000,23814.710833,24426.858059,14578.299472,20611.035301,27496.691346,-3640.741544,-9881.549761,17688.343547,25041.240459,21940.673523,4668.586513,-6619.558527,21839.464824,21051.208204,-1721.777227,5419.694533,0.006000,-0.026000,1.006000,192.000000,0.000000,0.000000,0.000000,0.000000,0.000000,0.000000,0.000000,0.000000,0.000000,1764344876.631995,0.000000
240.000000,23818.354168,24429.920248,14595.577371,20620.423033,27483.637927,-3614.880576,-9854.392392,17696.546638,25078.433761,21940.047674,4665.613731,-6622.218385,21846.840900,21053.286916,-1716.189291,5411.156167,0.006000,-0.026000,1.006000,192.000000,0.000000,0.000000,0.000000,0.000000,0.000000,0.000000,0.000000,0.000000,0.000000,1764344876.641987,0.000000
242.000000,23807.446516,24421.918323,14581.473420,20611.281170,27485.269604,-3641.903835,-9874.151334,17685.929559,24971.681830,21930.324665,4675.068519,-6607.488585,21839.174251,21057.533748,-1705.236936,5383.618818,0.006000,-0.026000,1.006000,192.000000,0.000000,0.000000,0.000000,0.000000,0.000000,0.000000,0.000000,0.000000,0.000000,1764344876.649004,0.000000
244.000000,23817.638912,24434.189431,14588.245998,20615.192725,27501.899302,-3626.212910,-9871.513828,17692.948007,25103.423012,21937.499575,4656.427164,-6634.064810,21844.158690,21043.698018,-1715.496387,5435.921900,0.008000,-0.020000,1.004000,192.000000,0.000000,32.000000,127.500000,48.000000,15.500000,48.000000,0.000000,0.000000,0.000000,1764344876.656046,0.000000
246.000000,23821.125784,24436.670475,14597.141993,20620.713606,27482.430933,-3613.248898,-9852.492494,17701.575780,25003.398955,21945.456796,4681.148193,-6600.112510,21849.433702,21066.474446,-1707.047428,5377.963826,0.008000,-0.020000,1.004000,192.000000,0.000000,0.000000,0.000000,0.000000,0.000000,0.000000,0.000000,0.000000,0.000000,1764344876.664215,0.000000
248.000000,23816.811897,24431.842498,14581.674586,20607.324911,27505.341471,-3641.099172,-9882.265017,17691.517495,25042.939191,21934.996180,4669.190010,-6619.379713,21843.711656,21049.822396,-1709.461416,5419.716885,0.008000,-0.020000,1.004000,192.000000,0.000000,0.000000,0.000000,0.000000,0.000000,0.000000,0.000000,0.000000,0.000000,1764344876.672206,0.000000
250.000000,23837.442558,24450.774425,14606.417967,20622.255876,27502.569855,-3608.867956,-9848.491531,17713.131632,25087.955605,21949.748331,4675.537905,-6613.970591,21856.340391,21057.600803,-1708.634401,5409.435083,0.008000,-0.020000,1.004000,192.000000,0.000000,0.000000,0.000000,0.000000,0.000000,0.000000,0.000000,0.000000,0.000000,1764344876.680152,0.000000
252.000000,23822.243371,24436.893992,14586.748432,20609.783603,27494.232654,-3631.577329,-9871.960863,17696.278417,24990.881978,21949.681276,4692.592286,-6592.423510,21852.384132,21069.335469,-1696.407997,5380.109594,0.008000,-0.020000,1.004000,192.000000,0.000000,0.000000,0.000000,0.000000,0.000000,0.000000,0.000000,0.000000,0.000000,1764344876.688162,0.000000
254.000000,23824.120918,24437.788062,14588.491868,20614.142193,27509.454192,-3627.822236,-9871.782049,17697.060728,25109.882666,21939.958267,4664.138515,-6627.046362,21847.824377,21045.284992,-1703.448797,5437.620632,0.002000,-0.022000,1.002000,192.000000,0.000000,8.000000,127.500000,40.000000,15.500000,40.000000,0.000000,0.000000,0.000000,1764344876.696238,0.000000
0.000000,23821.595171,24437.966876,14591.129373,20621.451214,27486.431895,-3615.349962,-9855.509979,17698.200667,25003.577769,21940.450006,4679.941199,-6598.547888,21845.030409,21067.033239,-1704.544032,5389.094995,0.002000,-0.022000,1.002000,192.000000,0.000000,0.000000,0.000000,0.000000,0.000000,0.000000,0.000000,0.000000,0.000000,1764344876.707018,0.000000
2.000000,23813.280322,24429.584972,14577.114830,20613.002254,27506.839038,-3638.796942,-9882.555590,17688.209437,25039.564078,21937.007837,4666.261931,-6616.518690,21836.961429,21054.292745,-1707.047428,5419.806292,0.002000,-0.022000,1.002000,192.000000,0.000000,0.000000,0.000000,0.000000,0.000000,0.000000,0.000000,0.000000,0.000000,1764344876.712240,0.000000
4.000000,23827.048996,24439.687960,14591.844629,20626.525060,27489.784657,-3609.739674,-9853.073639,17702.827478,25078.880796,21943.668657,4666.083117,-6613.836481,21842.906993,21059.970088,-1716.412808,5416.162958,0.002000,-0.022000,1.002000,192.000000,0.000000,0.000000,0.000000,0.000000,0.000000,0.000000,0.000000,0.000000,0.000000,1764344876.721259,0.000000
6.000000,23815.426089,24428.579143,14576.086649,20613.404586,27487.147151,-3633.186654,-9874.441907,17688.969396,24976.733324,21936.404340,4676.767251,-6599.419606,21833.809833,21064.328678,-1709.193195,5389.698492,0.002000,-0.022000,1.002000,192.000000,0.000000,0.000000,0.000000,0.000000,0.000000,0.000000,0.000000,0.000000,0.000000,1764344876.728342,0.000000
8.000000,23823.159793,24434.792928,14584.379147,20617.919638,27508.448363,-3624.357715,-9870.977386,17694.780850,25104.294730,21936.560802,4657.723565,-6628.163949,21838.704865,21049.688286,-1713.931765,5436.614804,0.006000,-0.022000,1.004000,192.000000,0.000000,40.000000,127.500000,40.000000,15.500000,56.000000,0.000000,0.000000,0.000000,1764344876.736324,0.000000
10.000000,23824.947932,24438.749187,14591.934036,20621.697083,27487.393020,-3613.450064,-9853.855950,17699.273550,25006.952883,21944.182747,4680.254123,-6597.564411,21845.745664,21072.308251,-1703.292334,5380.221353,0.006000,-0.022000,1.004000,192.000000,0.000000,0.000000,0.000000,0.000000,0.000000,0.000000,0.000000,0.000000,0.000000,1764344876.744337,0.000000
12.000000,23817.996540,24430.322579,14575.170228,20608.330740,27507.889570,-3638.349907,-9884.589599,17686.443649,25045.911973,21938.304238,4665.479620,-6619.379713,21841.252964,21055.902071,-1711.182500,5417.057027,0.006000,-0.022000,1.004000,192.000000,0.000000,0.000000,0.000000,0.000000,0.000000,0.000000,0.000000,0.000000,0.000000,1764344876.752389,0.000000
14.000000,23828.770081,24440.917306,14596.002054,20621.026530,27499.574721,-3610.164357,-9854.571206,17699.854696,25090.011965,21948.161357,4669.078251,-6616.250469,21850.730103,21062.629946,-1704.387570,5409.368027,0.006000,-0.022000,1.004000,192.000000,0.000000,0.000000,0.000000,0.000000,0.000000,0.000000,0.000000,0.000000,0.000000,1764344876.761399,0.000000
16.000000,23819.136479,24432.580105,14580.556998,20613.985731,27495.596110,-3624.603584,-9873.324320,17691.025757,24983.640013,21942.081683,4678.398928,-6600.626600,21843.130510,21070.453056,-1697.950268,5393.028902,0.006000,-0.022000,1.004000,192.000000,0.000000,0.000000,0.000000,0.000000,0.000000,0.000000,0.000000,0.000000,0.000000,1764344876.768447,0.000000
18.000000,23827.428976,24439.777367,14587.754260,20617.450251,27515.980901,-3616.400494,-9871.044442,17696.233713,25114.777698,21947.513157,4661.501010,-6626.420513,21850.819510,21058.159597,-1708.232070,5442.672127,0.011000,-0.020000,1.006000,192.000000,0.000000,64.000000,127.500000,56.000000,15.500000,64.000000,0.000000,0.000000,0.000000,1764344876.776455,0.000000
20.000000,23833.307485,24446.617001,14596.672606,20625.295714,27497.674823,-3592.998218,-9851.196093,17704.526210,25013.479592,21953.011686,4683.428071,-6596.402120,21854.485196,21080.466638,-1700.408959,5388.737367,0.011000,-0.020000,1.006000,192.000000,0.000000,0.000000,0.000000,0.000000,0.000000,0.000000,0.000000,0.000000,0.000000,1764344876.784441,0.000000
22.000000,23819.605865,24434.323541,14579.014728,20609.180106,27508.694233,-3632.292584,-9883.024977,17688.768231,25057.020790,21946.887308,4671.693405,-6615.803434,21849.903089,21065.200396,-1711.428369,5426.914147,0.011000,-0.020000,1.006000,192.000000,0.000000,0.000000,0.000000,0.000000,0.000000,0.000000,0.000000,0.000000,0.000000,1764344876.792518,0.000000
24.000000,23829.172412,24441.900783,14595.376205,20622.814670,27488.287090,-3613.137139,-9853.028936,17702.671016,25088.939081,21948.429578,4668.810030,-6618.463292,21848.360818,21059.970088,-1702.085340,5414.665391,0.011000,-0.020000,1.006000,192.000000,0.000000,0.000000,0.000000,0.000000,0.000000,0.000000,0.000000,0.000000,0.000000,1764344876.801554,0.000000
26.000000,23826.311389,24438.704483,14584.490905,20615.550353,27487.504779,-3625.005916,-9869.166895,17698.915923,24984.601138,21940.382950,4684.813879,-6599.285495,21837.006132,21068.486103,-1708.589698,5386.435138,0.011000,-0.020000,1.006000,192.000000,0.000000,0.000000,0.000000,0.000000,0.000000,0.000000,0.000000,0.000000,0.000000,1764344876.808572,0.000000
28.000000,23821.483412,24432.691864,14588.134240,20610.722376,27494.076192,-3634.550111,-9869.368061,17696.367824,25118.666901,21937.186651,4669.011196,-6629.348591,21846.438568,21048.011905,-1716.748085,5429.484597,0.010500,-0.018000,1.006000,192.000000,0.000000,40.000000,127.500000,64.000000,15.500000,56.000000,0.000000,0.000000,0.000000,1764344876.816672,0.000000
30.000000,23825.618485,24434.457652,14596.985530,20617.696120,27474.965450,-3620.334401,-9850.078505,17703.542734,25007.444621,21932.090453,4684.746824,-6606.080426,21842.370551,21060.283012,-1710.288430,5374.119326,0.010500,-0.018000,1.006000,192.000000,0.000000,0.000000,0.000000,0.000000,0.000000,0.000000,0.000000,0.000000,0.000000,1764344876.825682,0.000000
32.000000,23814.040281,24421.940675,14581.339309,20600.172353,27494.098543,-3650.621015,-9882.779107,17687.002443,25052.997476,21926.681331,4673.079213,-6625.034705,21840.738874,21044.413274,-1715.898718,5413.950135,0.010500,-0.018000,1.006000,192.000000,0.000000,0.000000,0.000000,0.000000,0.000000,0.000000,0.000000,0.000000,0.000000,1764344876.832721,0.000000
34.000000,23823.919752,24430.300227,14599.399519,20611.504687,27482.497988,-3624.938861,-9853.923005,17700.234675,25088.223825,21928.223601,4671.179315,-6626.576975,21845.902127,21042.938059,-1712.724771,5403.757740,0.010500,-0.018000,1.006000,192.000000,0.000000,0.000000,0.000000,0.000000,0.000000,0.000000,0.000000,0.000000,0.000000,1764344876.840634,0.000000
36.000000,23816.387214,24423.594704,14585.384975,20599.166524,27485.046087,-3640.629785,-9875.827715,17687.874161,24979.817865,21918.098261,4680.075309,-6613.612963,21835.530917,21048.034256,-1703.292334,5383.216486,0.010500,-0.018000,1.006000,192.000000,0.000000,0.000000,0.000000,0.000000,0.000000,0.000000,0.000000,0.000000,0.000000,1764344876.847718,0.000000
38.000000,23828.971246,24435.262315,14593.744528,20600.485277,27508.738936,-3636.159436,-9872.944340,17696.837210,25120.991483,21929.788223,4667.156001,-6636.121170,21848.561984,21038.244192,-1706.756855,5429.618708,0.009250,-0.018000,1.009000,192.000000,0.000000,32.000000,127.500000,56.000000,15.500000,80.000000,0.000000,0.000000,0.000000,1764344876.855695,0.000000
40.000000,23834.492127,24440.760844,14602.394653,20610.409452,27497.004270,-3611.907794,-9854.101819,17704.660321,25016.698243,21933.856241,4688.233696,-6605.611039,21850.551289,21057.489044,-1694.709265,5380.914257,0.009250,-0.018000,1.009000,192.000000,0.000000,0.000000,0.000000,0.000000,0.000000,0.000000,0.000000,0.000000,0.000000,1764344876.864736,0.000000
42.000000,23828.412453,24435.664646,14587.262522,20603.435708,27525.100413,-3625.721172,-9882.913218,17694.110297,25063.748665,21934.973828,4680.812917,-6620.273783,21852.406484,21052.549309,-1698.844337,5424.835435,0.009250,-0.018000,1.009000,192.000000,0.000000,0.000000,0.000000,0.000000,0.000000,0.000000,0.000000,0.000000,0.000000,1764344876.872755,0.000000
44.000000,23838.180165,24446.326428,14604.026330,20616.198554,27514.349224,-3600.821328,-9853.453619,17707.633103,25105.658186,21947.200232,4681.751690,-6618.172719,21863.112970,21062.808760,-1699.425483,5420.074513,0.009250,-0.018000,1.009000,192.000000,0.000000,0.000000,0.000000,0.000000,0.000000,0.000000,0.000000,0.000000,0.000000,1764344876.879809,0.000000
46.000000,23822.668054,24432.915382,14585.563789,20606.788469,27508.515419,-3617.048695,-9873.391375,17694.579684,24999.465048,21938.617163,4691.072368,-6603.577030,21853.680534,21070.386001,-1697.078550,5393.453585,0.009250,-0.018000,1.009000,192.000000,0.000000,0.000000,0.000000,0.000000,0.000000,0.000000,0.000000,0.000000,0.000000,1764344876.887852,0.000000
48.000000,23820.008197,24430.635504,14585.653196,20607.682539,27509.185971,-3624.961212,-9873.480782,17692.523324,25116.677596,21934.191517,4664.742013,-6635.540025,21849.456054,21049.241251,-1707.405055,5440.928691,0.007625,-0.016000,1.011500,192.000000,0.000000,24.000000,127.500000,72.000000,15.500000,88.000000,0.000000,0.000000,0.000000,1764344876.896859,0.000000
50.000000,23827.451328,24438.056283,14595.085632,20614.231600,27484.666107,-3613.070084,-9853.408915,17701.933408,25009.992720,21934.347979,4684.724472,-6604.918135,21845.075112,21065.848597,-1704.253459,5384.691701,0.007625,-0.016000,1.011500,192.000000,0.000000,0.000000,0.000000,0.000000,0.000000,0.000000,0.000000,0.000000,0.000000,1764344876.903846,0.000000
52.000000,23820.991674,24431.909553,14579.595873,20603.234542,27498.568892,-3637.813465,-9881.952093,17692.009233,25051.969296,21929.788223,4675.627312,-6621.726647,21840.023618,21052.437550,-1716.971602,5417.995801,0.007625,-0.016000,1.011500,192.000000,0.000000,0.000000,0.000000,0.000000,0.000000,0.000000,0.000000,0.000000,0.000000,1764344876.911923,0.000000
54.000000,23832.480470,24443.331294,14598.863077,20616.198554,27486.566006,-3616.713419,-9851.888997,17705.979074,25089.788448,21938.438349,4676.409623,-6620.251431,21844.382208,21054.382152,-1714.088227,5406.507004,0.007625,-0.016000,1.011500,192.000000,0.000000,0.000000,0.000000,0.000000,0.000000,0.000000,0.000000,0.000000,0.000000,1764344876.919987,0.000000
56.000000,23828.546563,24439.643257,14584.669719,20609.068347,27485.493122,-3637.791114,-9870.575055,17697.351300,24990.032612,21938.214831,4690.290057,-6600.581896,21842.303496,21063.322850,-1710.534300,5379.796669,0.007625,-0.016000,1.011500,192.000000,0.000000,0.000000,0.000000,0.000000,0.000000,0.000000,0.000000,0.000000,0.000000,1764344876.930029,0.000000
58.000000,23829.284171,24439.263277,14588.245998,20612.756385,27498.658299,-3633.253709,-9870.910331,17698.580646,25113.928332,21933.945648,4666.910132,-6631.829635,21843.063455,21045.642620,-1721.620765,5434.960775,0.006812,-0.017000,1.009750,192.000000,0.000000,24.000000,127.500000,56.000000,15.500000,64.000000,0.000000,0.000000,0.000000,1764344876.937024,0.000000
60.000000,23833.039264,24445.186489,14597.253751,20620.579495,27482.565043,-3611.997200,-9853.364212,17705.755556,25017.413499,21946.015590,4691.966437,-6595.955085,21849.053723,21074.923405,-1712.992992,5385.652827,0.006812,-0.017000,1.009750,192.000000,0.000000,0.000000,0.000000,0.000000,0.000000,0.000000,0.000000,0.000000,0.000000,1764344876.946044,0.000000
62.000000,23815.783717,24426.276913,14578.321824,20605.514420,27501.474619,-3643.155532,-9887.383567,17686.756574,25053.936249,21931.889287,4676.387271,-6621.011391,21841.185908,21056.349105,-1702.755893,5418.196966,0.006812,-0.017000,1.009750,192.000000,0.000000,0.000000,0.000000,0.000000,0.000000,0.000000,0.000000,0.000000,0.000000,1764344876.952067,0.000000
64.000000,23829.507688,24440.179698,14597.499621,20619.461908,27495.864331,-3612.332477,-9857.186360,17701.665187,25087.888549,21937.790148,4673.034510,-6623.604193,21846.796196,21059.634812,-1696.318590,5419.448664,0.006812,-0.017000,1.009750,192.000000,0.000000,0.000000,0.000000,0.000000,0.000000,0.000000,0.000000,0.000000,0.000000,1764344876.960116,0.000000
66.000000,23824.299732,24436.804585,14584.982644,20613.695158,27500.535846,-3626.659945,-9873.011395,17697.060728,24988.892673,21936.896078,4689.574801,-6603.241754,21843.734007,21070.050725,-1691.267096,5388.111518,0.006812,-0.017000,1.009750,192.000000,0.000000,0.000000,0.000000,0.000000,0.000000,0.000000,0.000000,0.000000,0.000000,1764344876.968137,0.000000
68.000000,23828.188935,24440.403216,14586.927245,20618.053748,27508.649529,-3621.049657,-9871.223256,17701.173449,25119.695082,21937.588982,4671.313425,-6629.259185,21850.461882,21055.387980,-1708.209718,5442.068630,0.006406,-0.018500,1.006875,192.000000,0.000000,24.000000,127.500000,48.000000,15.500000,48.000000,0.000000,0.000000,0.000000,1764344876.976190,0.000000
70.000000,23824.478546,24437.721007,14593.655121,20624.826327,27482.453285,-3609.002067,-9853.766543,17704.973245,25011.736156,21940.740578,4690.066539,-6598.369074,21849.076074,21074.677536,-1704.611087,5390.301989,0.006406,-0.018500,1.006875,192.000000,0.000000,0.000000,0.000000,0.000000,0.000000,0.000000,0.000000,0.000000,0.000000,1764344876.985228,0.000000
72.000000,23819.114127,24430.881373,14579.238245,20614.365711,27504.961491,-3627.375201,-9881.706224,17695.786678,25048.035389,21931.554011,4673.459193,-6620.743170,21840.068321,21058.181948,-1707.069779,5423.539033,0.006406,-0.018500,1.006875,192.000000,0.000000,0.000000,0.000000,0.000000,0.000000,0.000000,0.000000,0.000000,0.000000,1764344876.993201,0.000000
74.000000,23829.150060,24442.101949,14597.253751,20626.703873,27488.130628,-3609.292639,-9851.933700,17708.326007,25093.700003,21945.814424,4678.510687,-6613.680019,21853.591127,21066.496797,-1710.489596,5411.379684,0.006406,-0.018500,1.006875,192.000000,0.000000,0.000000,0.000000,0.000000,0.000000,0.000000,0.000000,0.000000,0.000000,1764344877.000212,0.000000
76.000000,23817.303636,24432.155422,14582.166324,20617.025568,27483.101485,-3634.952442,-9870.798572,17695.987844,24985.182284,21936.605506,4684.568010,-6600.179565,21839.129548,21070.989498,-1713.149454,5394.325303,0.006406,-0.018500,1.006875,192.000000,0.000000,0.000000,0.000000,0.000000,0.000000,0.000000,0.000000,0.000000,0.000000,1764344877.008261,0.000000
78.000000,23828.591267,24441.252582,14589.318882,20617.919638,27498.948872,-3632.449047,-9868.630453,17702.872181,25115.470602,21941.835814,4666.843077,-6627.627507,21846.818548,21053.666896,-1718.893852,5436.257176,0.006406,-0.018500,1.006875,192.000000,0.000000,0.000000,0.000000,0.000000,0.000000,0.000000,0.000000,0.000000,0.000000,1764344877.017324,0.000000
80.000000,23830.602924,24444.135957,14594.102155,20624.021664,27478.072343,-3615.327610,-9851.218444,17707.923676,25017.346444,21946.060293,4690.334760,-6595.731568,21850.730103,21074.163446,-1710.064913,5381.338940,0.002000,-0.024000,1.006000,192.000000,0.000000,8.000000,127.500000,32.000000,15.500000,56.000000,0.000000,0.000000,0.000000,1764344877.024355,0.000000
82.000000,23826.065520,24437.095158,14577.807734,20612.734033,27497.719526,-3630.191520,-9881.482706,17696.278417,25056.327886,21938.214831,4676.856658,-6616.697504,21844.046932,21059.031315,-1716.681029,5424.656621,0.002000,-0.024000,1.006000,192.000000,0.000000,0.000000,0.000000,0.000000,0.000000,0.000000,0.000000,0.000000,0.000000,1764344877.032329,0.000000
84.000000,23834.425072,24444.828861,14597.656083,20623.284057,27491.282224,-3605.246974,-9852.917177,17708.169545,25097.946834,21948.340171,4678.689501,-6614.618792,21854.574603,21067.077943,-1715.474035,5420.789769,0.002000,-0.024000,1.006000,192.000000,0.000000,0.000000,0.000000,0.000000,0.000000,0.000000,0.000000,0.000000,0.000000,1764344877.040347,0.000000
86.000000,23822.109261,24434.859983,14584.245036,20614.678635,27495.707869,-3621.116712,-9874.263093,17694.870257,24994.167685,21943.065160,4689.172469,-6598.681998,21849.076074,21078.946719,-1703.672314,5399.577963,0.002000,-0.024000,1.006000,192.000000,0.000000,0.000000,0.000000,0.000000,0.000000,0.000000,0.000000,0.000000,0.000000,1764344877.047388,0.000000
88.000000,23821.528115,24432.758919,14589.117716,20615.237429,27510.415317,-3618.009820,-9874.263093,17693.283283,25117.146983,21943.601602,4664.429088,-6633.103685,21850.886566,21059.701867,-1703.135872,5448.975319,0.002000,-0.024000,1.006000,192.000000,0.000000,0.000000,0.000000,0.000000,0.000000,0.000000,0.000000,0.000000,0.000000,1764344877.056424,0.000000
90.000000,23827.496031,24441.789024,14597.611379,20623.149946,27493.115067,-3596.194517,-9856.448752,17701.419318,25015.223028,21947.155529,4684.702120,-6604.068769,21852.965278,21078.723202,-1688.204907,5394.191193,0.006000,-0.030000,1.008000,192.000000,0.000000,24.000000,127.500000,8.000000,15.500000,64.000000,0.000000,0.000000,0.000000,1764344877.064461,0.000000
92.000000,23818.175354,24432.401291,14580.400536,20609.895362,27513.768079,-3628.112808,-9886.891828,17686.577760,25060.999401,21947.334343,4673.503896,-6619.335010,21850.327772,21067.681440,-1694.508099,5431.049219,0.006000,-0.030000,1.008000,192.000000,0.000000,0.000000,0.000000,0.000000,0.000000,0.000000,0.000000,0.000000,0.000000,1764344877.071460,0.000000
94.000000,23830.424110,24443.755978,14598.796022,20623.217001,27503.061593,-3597.781491,-9856.940491,17700.011158,25100.740802,21948.228413,4672.162792,-6620.921984,21858.419103,21068.508454,-1695.290410,5417.660525,0.006000,-0.030000,1.008000,192.000000,0.000000,0.000000,0.000000,0.000000,0.000000,0.000000,0.000000,0.000000,0.000000,1764344877.081557,0.000000
96.000000,23818.845906,24434.480004,14579.484115,20614.924504,27495.439648,-3625.050619,-9876.945302,17688.902341,24991.865455,21939.645343,4681.639931,-6607.063902,21845.790368,21071.682402,-1696.430349,5392.403053,0.006000,-0.030000,1.008000,192.000000,0.000000,0.000000,0.000000,0.000000,0.000000,0.000000,0.000000,0.000000,0.000000,1764344877.088537,0.000000
98.000000,23822.824517,24439.285629,14583.350966,20617.226734,27502.793372,-3626.481131,-9875.335977,17693.618559,25120.052710,21947.200232,4665.166696,-6630.622641,21849.478406,21056.639678,-1711.137797,5439.274661,0.006000,-0.030000,1.008000,192.000000,0.000000,0.000000,0.000000,0.000000,0.000000,0.000000,0.000000,0.000000,0.000000,1764344877.098606,0.000000
100.000000,23823.785642,24442.571335,14588.983606,20622.389987,27476.351258,-3617.227509,-9857.678098,17697.351300,25012.473764,21949.480110,4679.717681,-6601.051283,21843.376379,21072.352954,-1707.963849,5385.138736,0.006000,-0.022000,1.010000,192.000000,0.000000,24.000000,127.500000,40.000000,15.500000,72.000000,0.000000,0.000000,0.000000,1764344877.104619,0.000000
102.000000,23815.582551,24433.630637,14571.102210,20609.515382,27489.672898,-3643.088477,-9887.852953,17685.504876,25044.056778,21936.650209,4663.758536,-6620.676115,21831.261734,21056.349105,-1716.971602,5421.639135,0.006000,-0.022000,1.010000,192.000000,0.000000,0.000000,0.000000,0.000000,0.000000,0.000000,0.000000,0.000000,0.000000,1764344877.111663,0.000000
104.000000,23830.491165,24446.415835,14593.386900,20623.909905,27477.714715,-3613.293602,-9854.101819,17705.196763,25083.373497,21950.776512,4667.960664,-6615.199937,21839.084844,21065.915652,-1719.072666,5415.201833,0.006000,-0.022000,1.010000,192.000000,0.000000,0.000000,0.000000,0.000000,0.000000,0.000000,0.000000,0.000000,0.000000,1764344877.120616,0.000000
106.000000,23820.857563,24439.218573,14577.740679,20615.393891,27476.552424,-3636.271195,-9873.547837,17694.222056,24980.354307,21946.060293,4685.082100,-6596.715045,21832.021693,21072.911748,-1710.623707,5388.826774,0.006000,-0.022000,1.010000,192.000000,0.000000,0.000000,0.000000,0.000000,0.000000,0.000000,0.000000,0.000000,0.000000,1764344877.127687,0.000000
108.000000,23824.880877,24439.732664,14583.909760,20617.606713,27491.975128,-3625.117674,-9872.117325,17698.200667,25105.144096,21946.015590,4663.825591,-6628.879205,21833.496908,21050.984687,-1719.027963,5448.081249,0.006000,-0.022000,1.010000,192.000000,0.000000,0.000000,0.000000,0.000000,0.000000,0.000000,0.000000,0.000000,0.000000,1764344877.135661,0.000000
110.000000,23822.846868,24437.542193,14593.990397,20621.652379,27478.228805,-3612.779512,-9855.264110,17700.726414,25004.829467,21940.427654,4685.998522,-6601.967705,21838.347237,21068.754324,-1707.181538,5392.112481,0.010000,-0.020000,1.004000,192.000000,0.000000,40.000000,127.500000,48.000000,15.500000,48.000000,0.000000,0.000000,0.000000,1764344877.144701,0.000000
112.000000,23808.362938,24426.321617,14575.371394,20610.118879,27497.518360,-3632.046715,-9886.310683,17685.616635,25040.078168,21936.091415,4668.161829,-6623.112455,21831.932286,21053.555137,-1702.398265,5425.505987,0.010000,-0.020000,1.004000,192.000000,0.000000,0.000000,0.000000,0.000000,0.000000,0.000000,0.000000,0.000000,0.000000,1764344877.152744,0.000000
114.000000,23821.371653,24434.211783,14595.599722,20624.133423,27487.504779,-3606.275154,-9854.235930,17701.598132,25075.639793,21945.456796,4667.647739,-6618.932679,21837.296705,21062.384076,-1707.315648,5421.348562,0.010000,-0.020000,1.004000,192.000000,0.000000,0.000000,0.000000,0.000000,0.000000,0.000000,0.000000,0.000000,0.000000,1764344877.159761,0.000000
116.000000,23803.780830,24417.649140,14580.065260,20613.471641,27486.342488,-3627.554015,-9875.805363,17685.057841,24973.604080,21934.415035,4680.321178,-6603.331161,21832.356969,21072.017678,-1699.269020,5391.330170,0.010000,-0.020000,1.004000,192.000000,0.000000,0.000000,0.000000,0.000000,0.000000,0.000000,0.000000,0.000000,0.000000,1764344877.168860,0.000000
118.000000,23819.158831,24429.853193,14587.709557,20617.539658,27505.341471,-3627.688125,-9873.257264,17693.171524,25104.160619,21939.801805,4658.952911,-6633.908347,21836.760263,21055.991477,-1707.941497,5443.856769,0.010000,-0.020000,1.004000,192.000000,0.000000,0.000000,0.000000,0.000000,0.000000,0.000000,0.000000,0.000000,0.000000,1764344877.176865,0.000000
120.000000,23814.576723,24424.712291,14593.900990,20623.351112,27484.286128,-3615.215852,-9855.130000,17697.731280,25006.148220,21939.511232,4681.796394,-6605.052245,21842.035275,21073.202321,-1700.632477,5384.825812,0.014000,-0.016000,1.010000,192.000000,0.000000,56.000000,127.500000,64.000000,15.500000,72.000000,0.000000,0.000000,0.000000,1764344877.185985,0.000000
122.000000,23810.709871,24424.399367,14577.472458,20616.198554,27503.218055,-3640.383916,-9883.896695,17687.985919,25045.040255,21932.828061,4668.877085,-6623.425379,21837.408464,21058.405466,-1710.333134,5419.493368,0.014000,-0.016000,1.010000,192.000000,0.000000,0.000000,0.000000,0.000000,0.000000,0.000000,0.000000,0.000000,0.000000,1764344877.191887,0.000000
124.000000,23820.075252,24435.307018,14594.638597,20631.084815,27488.689421,-3612.801863,-9852.827770,17700.882876,25082.568834,21943.892174,4668.631216,-6618.619754,21845.075112,21067.323812,-1714.334096,5413.078417,0.014000,-0.016000,1.010000,192.000000,0.000000,0.000000,0.000000,0.000000,0.000000,0.000000,0.000000,0.000000,0.000000,1764344877.199896,0.000000
126.000000,23813.414432,24435.307018,14577.427754,20624.312237,27482.654450,-3632.493750,-9871.893808,17690.511667,24976.621565,21942.148738,4678.913019,-6597.519707,21832.222859,21075.079867,-1712.769474,5384.557591,0.014000,-0.016000,1.010000,192.000000,0.000000,0.000000,0.000000,0.000000,0.000000,0.000000,0.000000,0.000000,0.000000,1764344877.208067,0.000000
128.000000,23818.488278,24437.162213,14580.422888,20625.720397,27486.409543,-3636.025326,-9872.787878,17693.797373,25098.706794,21944.607430,4657.075364,-6626.509920,21831.753472,21057.511396,-1725.577024,5436.994784,0.014000,-0.016000,1.010000,192.000000,0.000000,0.000000,0.000000,0.000000,0.000000,0.000000,0.000000,0.000000,0.000000,1764344877.216008,0.000000
130.000000,23835.676770,24452.830786,14592.738699,20635.488109,27470.517453,-3608.465625,-9852.648956,17707.744862,25001.700223,21948.742503,4682.466946,-6593.921077,21836.335580,21079.013774,-1720.436122,5385.339902,0.008000,-0.018000,1.008000,192.000000,0.000000,32.000000,127.500000,56.000000,15.500000,64.000000,0.000000,0.000000,0.000000,1764344877.224019,0.000000
132.000000,23824.724415,24442.817204,14578.813562,20619.640722,27490.991651,-3636.517064,-9882.823811,17694.624388,25053.489215,21946.797901,4678.890667,-6609.276725,21841.945868,21069.044896,-1726.895777,5421.572080,0.008000,-0.018000,1.008000,192.000000,0.000000,0.000000,0.000000,0.000000,0.000000,0.000000,0.000000,0.000000,0.000000,1764344877.232025,0.000000
134.000000,23824.612656,24440.850251,14591.375243,20622.591153,27472.998497,-3617.987468,-9858.549816,17697.731280,25081.495950,21944.920354,4670.911094,-6617.591574,21841.185908,21067.659088,-1716.166939,5419.918051,0.008000,-0.018000,1.008000,192.000000,0.000000,0.000000,0.000000,0.000000,0.000000,0.000000,0.000000,0.000000,0.000000,1764344877.240043,0.000000
136.000000,23818.778851,24434.703521,14576.488981,20610.856487,27478.094694,-3629.476265,-9878.107593,17689.170562,24977.828560,21933.744482,4678.577742,-6605.655742,21832.312266,21071.682402,-1703.493500,5394.124138,0.008000,-0.018000,1.008000,192.000000,0.000000,0.000000,0.000000,0.000000,0.000000,0.000000,0.000000,0.000000,0.000000,1764344877.249109,0.000000
138.000000,23826.445499,24441.453748,14582.613359,20613.628103,27497.853636,-3625.028268,-9876.162991,17695.004367,25105.814648,21938.192479,4660.741050,-6631.986097,21842.437606,21057.913728,-1707.002724,5441.263967,0.008000,-0.018000,1.008000,192.000000,0.000000,0.000000,0.000000,0.000000,0.000000,0.000000,0.000000,0.000000,0.000000,1764344877.256128,0.000000
140.000000,23834.112148,24452.853138,14592.984568,20624.580458,27484.934328,-3604.732884,-9855.711145,17706.023777,25005.723537,21948.071950,4683.271609,-6596.983266,21845.209222,21081.584225,-1691.960000,5389.385568,0.004000,-0.018000,1.008000,192.000000,0.000000,16.000000,127.500000,56.000000,15.500000,64.000000,0.000000,0.000000,0.000000,1764344877.264153,0.000000
142.000000,23824.344435,24445.544117,14578.992376,20614.186897,27502.793372,-3632.784323,-9884.768413,17694.244408,25050.270563,21950.016552,4676.074347,-6610.841347,21841.632943,21070.833036,-1700.252497,5426.601222,0.004000,-0.018000,1.008000,192.000000,0.000000,0.000000,0.000000,0.000000,0.000000,0.000000,0.000000,0.000000,0.000000,1764344877.272219,0.000000
144.000000,23836.503784,24455.915327,14599.600685,20628.313199,27488.063572,-3610.857262,-9854.168875,17709.197725,25087.977956,21949.077779,4676.543734,-6611.400141,21849.523109,21071.481236,-1703.649962,5420.275679,0.004000,-0.018000,1.008000,192.000000,0.000000,0.000000,0.000000,0.000000,0.000000,0.000000,0.000000,0.000000,0.000000,1764344877.280190,0.000000
146.000000,23827.361921,24449.880356,14584.133277,20620.758309,27478.765247,-3629.364506,-9873.011395,17697.328949,24988.669156,21949.278945,4690.155946,-6591.909420,21842.482310,21081.405411,-1700.498366,5385.272847,0.004000,-0.018000,1.008000,192.000000,0.000000,0.000000,0.000000,0.000000,0.000000,0.000000,0.000000,0.000000,0.000000,1764344877.288243,0.000000
148.000000,23822.645703,24440.291457,14583.395670,20621.361807,27482.721505,-3637.992279,-9873.212561,17695.943140,25109.055651,21941.075854,4665.703138,-6627.538100,21840.224783,21057.466693,-1717.217471,5436.927728,0.004000,-0.018000,1.008000,192.000000,0.000000,0.000000,0.000000,0.000000,0.000000,0.000000,0.000000,0.000000,0.000000,1764344877.295456,0.000000
150.000000,23828.948895,24446.125263,14589.676510,20626.458004,27457.374627,-3623.173073,-9855.398220,17703.229809,25002.661348,21941.724055,4684.500955,-6599.352550,21837.810795,21075.437495,-1713.372971,5384.378777,0.005000,-0.018000,1.008000,192.000000,0.000000,24.000000,127.500000,56.000000,15.500000,64.000000,0.000000,0.000000,0.000000,1764344877.304272,0.000000
152.000000,23827.764252,24441.230230,14576.019594,20612.823440,27478.295860,-3643.334346,-9885.193096,17694.020890,25046.157842,21938.661866,4673.526248,-6617.569222,21832.424025,21060.707696,-1719.027963,5418.331077,0.005000,-0.018000,1.008000,192.000000,0.000000,0.000000,0.000000,0.000000,0.000000,0.000000,0.000000,0.000000,0.000000,1764344877.312311,0.000000
