Sample Index, EXG Channel 0, EXG Channel 1, EXG Channel 2, EXG Channel 3, EXG Channel 4, EXG Channel 5, EXG Channel 6, EXG Channel 7, EXG Channel 8, EXG Channel 9, EXG Channel 10, EXG Channel 11, EXG Channel 12, EXG Channel 13, EXG Channel 14, EXG Channel 15, Accel Channel 0, Accel Channel 1, Accel Channel 2, Not Used, Digital Channel 0 (D11), Digital Channel 1 (D12), Digital Channel 2 (D13), Digital Channel 3 (D17), Not Used, Digital Channel 4 (D18), Analog Channel 0, Analog Channel 1, Analog Channel 2, Timestamp, Marker Channel, Timestamp (Formatted)
130.000000,24426.299265,23947.994286,14932.529918,20329.582134,28013.798954,-4127.204910,-9733.335344,18282.743488,25405.506838,21917.785337,4769.795212,-6769.963416,21976.659832,20848.589641,-2369.329616,5377.405033,0.004000,-0.022000,1.014000,192.000000,0.000000,0.000000,0.000000,0.000000,0.000000,0.000000,0.000000,0.000000,0.000000,1764344516.356074,0.000000
132.000000,24425.941637,23955.660934,14945.493930,20335.617105,27976.784465,-4100.583983,-9704.211021,18288.890217,25324.817041,21919.014683,4787.207220,-6742.783695,21973.016497,20868.505045,-2364.613398,5325.325468,0.004000,-0.022000,1.014000,192.000000,0.000000,0.000000,0.000000,0.000000,0.000000,0.000000,0.000000,0.000000,0.000000,1764344516.364162,0.000000
134.000000,24436.178736,23951.168233,14933.379285,20325.000027,28004.165352,-4130.915300,-9737.828045,18281.692956,25318.670311,21912.286808,4780.591104,-6752.685517,21966.758009,20857.440931,-2366.245075,5345.218521,0.004000,-0.022000,1.014000,192.000000,0.000000,0.000000,0.000000,0.000000,0.000000,0.000000,0.000000,0.000000,0.000000,1764344516.372140,0.000000
136.000000,24435.932867,23961.785312,14952.981764,20333.359579,27989.100276,-4109.614087,-9707.876707,18297.249770,25411.362995,21926.726034,4778.847668,-6763.280244,21978.962061,20855.429274,-2369.977816,5363.166972,0.004000,-0.016000,1.016000,192.000000,0.000000,16.000000,127.500000,64.000000,15.500000,96.000000,0.000000,0.000000,0.000000,1764344516.382318,0.000000
138.000000,24430.724911,23963.305231,14939.280145,20332.264344,27978.796122,-4118.510082,-9717.689123,18293.628787,25269.228252,21919.551125,4801.869965,-6729.797331,21965.774532,20870.695516,-2363.205238,5315.893032,0.004000,-0.016000,1.016000,192.000000,0.000000,0.000000,0.000000,0.000000,0.000000,0.000000,0.000000,0.000000,0.000000,1764344516.389223,0.000000
140.000000,24428.579143,23964.847501,14934.228651,20328.933934,28007.763983,-4131.876425,-9731.144873,18291.684185,25406.244446,21924.401453,4780.166421,-6759.033413,21975.162265,20852.165920,-2374.470517,5379.371986,0.004000,-0.016000,1.016000,192.000000,0.000000,0.000000,0.000000,0.000000,0.000000,0.000000,0.000000,0.000000,0.000000,1764344516.396241,0.000000
142.000000,24437.072806,23952.956373,14942.498796,20335.639457,27976.873872,-4106.484843,-9702.802861,18297.495639,25326.046386,21918.768813,4794.560944,-6737.754552,21972.390648,20864.973469,-2365.194543,5327.426532,0.004000,-0.016000,1.016000,192.000000,0.000000,0.000000,0.000000,0.000000,0.000000,0.000000,0.000000,0.000000,0.000000,1764344516.404280,0.000000
144.000000,24433.496527,23950.430626,14924.729159,20327.838698,28007.272244,-4131.071762,-9738.364486,18286.789153,25317.642131,21912.242104,4785.620247,-6750.182122,21964.947518,20854.758722,-2365.663930,5346.738439,0.004000,-0.016000,1.016000,192.000000,0.000000,0.000000,0.000000,0.000000,0.000000,0.000000,0.000000,0.000000,0.000000,1764344516.412286,0.000000
146.000000,24425.248733,23950.475329,14938.475482,20334.633629,27989.122628,-4111.536337,-9710.670675,18293.606435,25406.825591,21921.227505,4776.388976,-6762.117954,21974.156436,20853.082341,-2371.698901,5367.190286,0.002000,-0.022000,1.016000,192.000000,0.000000,8.000000,127.500000,40.000000,15.500000,96.000000,0.000000,0.000000,0.000000,1764344516.420296,0.000000
148.000000,24429.450861,23952.017600,14929.713598,20332.577268,27984.294651,-4117.101922,-9720.326629,18286.856209,25261.248679,21910.096337,4791.565811,-6734.200625,21962.757047,20867.521568,-2363.361700,5318.776407,0.002000,-0.022000,1.016000,192.000000,0.000000,0.000000,0.000000,0.000000,0.000000,0.000000,0.000000,0.000000,0.000000,1764344516.428326,0.000000
150.000000,24431.954257,23952.934021,14929.847709,20329.425672,28012.949587,-4122.466340,-9732.977716,18285.984491,25401.774097,21918.522944,4772.544476,-6767.392965,21976.369259,20851.182443,-2371.877715,5380.087242,0.002000,-0.022000,1.016000,192.000000,0.000000,0.000000,0.000000,0.000000,0.000000,0.000000,0.000000,0.000000,0.000000,1764344516.436387,0.000000
152.000000,24440.380864,23949.313039,14938.475482,20332.845489,27977.343259,-4099.667561,-9705.663884,18285.805677,25320.145526,21914.812555,4782.043967,-6747.723430,21967.741486,20865.666373,-2362.087651,5329.974631,0.002000,-0.022000,1.016000,192.000000,0.000000,0.000000,0.000000,0.000000,0.000000,0.000000,0.000000,0.000000,0.000000,1764344516.443386,0.000000
154.000000,24419.683149,23939.411216,14925.913802,20324.329474,28005.081773,-4128.188387,-9739.839702,18278.139028,25312.121250,21908.822287,4777.707729,-6756.395907,21964.567538,20860.816045,-2365.485116,5348.839503,0.002000,-0.022000,1.016000,192.000000,0.000000,0.000000,0.000000,0.000000,0.000000,0.000000,0.000000,0.000000,0.000000,1764344516.452484,0.000000
156.000000,24408.127297,23936.684303,14939.995401,20328.531602,27983.937023,-4116.386666,-9714.425768,18282.139991,25400.209475,21914.142002,4768.856438,-6768.667015,21972.636518,20852.232975,-2371.117755,5371.504172,0.010000,-0.018000,1.014000,192.000000,0.000000,40.000000,127.500000,56.000000,15.500000,88.000000,0.000000,0.000000,0.000000,1764344516.460445,0.000000
158.000000,24420.085480,23934.493832,14936.307363,20325.268248,27979.779599,-4121.259346,-9723.299411,18275.255653,25251.615077,21900.552142,4784.167383,-6743.655413,21954.419846,20862.805350,-2364.054604,5318.061151,0.010000,-0.018000,1.014000,192.000000,0.000000,0.000000,0.000000,0.000000,0.000000,0.000000,0.000000,0.000000,0.000000,1764344516.469518,0.000000
160.000000,24405.825067,23939.366512,14938.430779,20323.100129,28008.590997,-4133.128122,-9734.162359,18274.182770,25392.945158,21907.212962,4760.519238,-6781.854544,21964.031096,20842.420559,-2370.849534,5375.214562,0.010000,-0.018000,1.014000,192.000000,0.000000,0.000000,0.000000,0.000000,0.000000,0.000000,0.000000,0.000000,0.000000,1764344516.475499,0.000000
162.000000,24420.376053,23935.097329,14947.304421,20329.760948,27969.564851,-4113.995029,-9705.708588,18282.229398,25311.182476,21900.462735,4777.059528,-6752.417296,21964.902814,20856.457455,-2361.551209,5321.279802,0.010000,-0.018000,1.014000,192.000000,0.000000,0.000000,0.000000,0.000000,0.000000,0.000000,0.000000,0.000000,0.000000,1764344516.484502,0.000000
164.000000,24407.859076,23928.458861,14928.707770,20321.177879,28000.901997,-4140.101867,-9741.605489,18272.908720,25305.929816,21894.695985,4775.003168,-6760.508628,21956.543262,20847.516757,-2365.261598,5347.140771,0.010000,-0.018000,1.014000,192.000000,0.000000,0.000000,0.000000,0.000000,0.000000,0.000000,0.000000,0.000000,0.000000,1764344516.492573,0.000000
166.000000,24425.561658,23940.551155,14941.940003,20329.559783,27987.423895,-4114.486768,-9714.917507,18282.564674,25399.717736,21908.956398,4765.078993,-6774.143192,21969.931957,20847.650867,-2366.669758,5366.072698,0.007000,-0.015000,1.015000,192.000000,0.000000,16.000000,127.500000,80.000000,15.500000,96.000000,0.000000,0.000000,0.000000,1764344516.499566,0.000000
168.000000,24417.157402,23940.931134,14936.374418,20327.503422,27978.550253,-4118.599489,-9724.215832,18281.715307,25259.304078,21903.904903,4791.834032,-6740.436761,21955.246860,20863.542958,-2359.897180,5314.484872,0.007000,-0.015000,1.015000,192.000000,0.000000,0.000000,0.000000,0.000000,0.000000,0.000000,0.000000,0.000000,0.000000,1764344516.508609,0.000000
170.000000,24420.219591,23944.306248,14936.709694,20327.369312,28006.288768,-4125.327364,-9735.145835,18283.816371,25395.448553,21913.896133,4773.237380,-6769.739898,21964.992221,20849.573117,-2368.994340,5378.634379,0.007000,-0.015000,1.015000,192.000000,0.000000,0.000000,0.000000,0.000000,0.000000,0.000000,0.000000,0.000000,0.000000,1764344516.516616,0.000000
172.000000,24433.094195,23947.703713,14945.449227,20333.516041,27969.229575,-4105.479015,-9705.216849,18291.460668,25313.708224,21910.900999,4787.944828,-6742.828398,21960.432465,20865.420504,-2363.965197,5329.907576,0.007000,-0.015000,1.015000,192.000000,0.000000,0.000000,0.000000,0.000000,0.000000,0.000000,0.000000,0.000000,0.000000,1764344516.523649,0.000000
174.000000,24417.895009,23945.423835,14927.545479,20327.369312,27998.867988,-4132.569329,-9738.431542,18283.346985,25307.203866,21904.150773,4783.541534,-6751.500875,21951.804692,20853.507024,-2369.776651,5347.587806,0.007000,-0.015000,1.015000,192.000000,0.000000,0.000000,0.000000,0.000000,0.000000,0.000000,0.000000,0.000000,0.000000,1764344516.531718,0.000000
176.000000,24428.132108,23961.718257,14939.928346,20330.431501,27983.199416,-4116.990163,-9713.285829,18289.471363,25399.538922,21912.577380,4774.757299,-6764.509590,21961.527701,20847.360295,-2374.224648,5369.961902,0.005500,-0.015500,1.012500,192.000000,0.000000,16.000000,127.500000,64.000000,15.500000,72.000000,0.000000,0.000000,0.000000,1764344516.540722,0.000000
178.000000,24420.331349,23934.136204,14933.625154,20326.363483,27977.320907,-4117.772474,-9724.551108,18284.911607,25256.644220,21906.475354,4791.789328,-6736.659317,21950.932974,20860.927804,-2365.708633,5321.749189,0.005500,-0.015500,1.012500,192.000000,0.000000,0.000000,0.000000,0.000000,0.000000,0.000000,0.000000,0.000000,0.000000,1764344516.548783,0.000000
180.000000,24425.204030,23933.197431,14934.429817,20321.937838,28008.322776,-4126.646117,-9737.291603,18281.514142,25392.006384,21908.531715,4769.862267,-6772.913846,21967.450913,20842.979353,-2370.067223,5383.060024,0.005500,-0.015500,1.012500,192.000000,0.000000,0.000000,0.000000,0.000000,0.000000,0.000000,0.000000,0.000000,0.000000,1764344516.555803,0.000000
182.000000,24432.915382,23939.567678,14946.767979,20325.916448,27974.661049,-4102.819157,-9708.591963,18283.771668,25312.925912,21906.631816,4785.016750,-6751.456171,21961.952384,20857.820911,-2358.332557,5329.214672,0.005500,-0.015500,1.012500,192.000000,0.000000,0.000000,0.000000,0.000000,0.000000,0.000000,0.000000,0.000000,0.000000,1764344516.563879,0.000000
184.000000,24415.123393,23925.955466,14935.390942,20315.589942,28004.612387,-4132.278756,-9742.946594,18270.830008,25304.119325,21895.768868,4773.259732,-6761.313291,21957.347924,20845.862728,-2359.606607,5348.884207,0.005500,-0.015500,1.012500,192.000000,0.000000,0.000000,0.000000,0.000000,0.000000,0.000000,0.000000,0.000000,0.000000,1764344516.572833,0.000000
186.000000,24417.313864,23941.556983,14952.512378,20324.128309,27995.470523,-4111.916317,-9714.157547,18284.241055,25401.394117,21902.273226,4768.342348,-6774.076137,21972.435352,20841.302972,-2360.612435,5361.065908,0.005750,-0.017750,1.009250,192.000000,0.000000,24.000000,127.500000,48.000000,15.500000,56.000000,0.000000,0.000000,0.000000,1764344516.579854,0.000000
188.000000,24413.581123,23938.517146,14939.034276,20324.284771,27983.780561,-4120.588794,-9723.813501,18283.212874,25260.891051,21898.674595,4793.488061,-6742.895453,21962.622936,20858.111484,-2354.778630,5315.133073,0.005750,-0.017750,1.009250,192.000000,0.000000,0.000000,0.000000,0.000000,0.000000,0.000000,0.000000,0.000000,0.000000,1764344516.587902,0.000000
190.000000,24426.165155,23950.408274,14936.530881,20327.011684,28010.334433,-4129.931823,-9734.028248,18288.040851,25401.707041,21909.895171,4773.393842,-6769.516381,21974.402305,20842.621725,-2368.077918,5380.869553,0.005750,-0.017750,1.009250,192.000000,0.000000,0.000000,0.000000,0.000000,0.000000,0.000000,0.000000,0.000000,0.000000,1764344516.595897,0.000000
192.000000,24430.635504,23946.563774,14948.109084,20334.454815,27975.957450,-4105.747236,-9704.948629,18296.690976,25326.560477,21914.320816,4793.286895,-6738.067477,21976.257500,20863.431199,-2361.148877,5328.722933,0.005750,-0.017750,1.009250,192.000000,0.000000,0.000000,0.000000,0.000000,0.000000,0.000000,0.000000,0.000000,0.000000,1764344516.604939,0.000000
194.000000,24412.798812,23934.784405,14930.607668,20325.067082,27998.733878,-4133.865730,-9740.756123,18284.643386,25316.010453,21907.168258,4788.637732,-6751.500875,21966.266270,20853.484673,-2359.941883,5352.013451,0.005750,-0.017750,1.009250,192.000000,0.000000,0.000000,0.000000,0.000000,0.000000,0.000000,0.000000,0.000000,0.000000,1764344516.611925,0.000000
196.000000,24444.761806,23943.233364,14941.202395,20329.895059,27979.869006,-4118.353619,-9714.425768,18289.337252,25404.992748,21908.084680,4774.466726,-6770.388099,21973.932919,20847.315591,-2366.200372,5368.464335,0.004875,-0.019875,1.009625,192.000000,0.000000,16.000000,127.500000,40.000000,15.500000,72.000000,0.000000,0.000000,0.000000,1764344516.619986,0.000000
198.000000,24415.413966,23936.796062,14931.144110,20327.190498,27972.604689,-4128.434256,-9723.947611,18284.509275,25263.126226,21895.701813,4792.817508,-6741.464942,21952.810520,20857.150359,-2361.148877,5314.909555,0.004875,-0.019875,1.009625,192.000000,0.000000,0.000000,0.000000,0.000000,0.000000,0.000000,0.000000,0.000000,0.000000,1764344516.628078,0.000000
200.000000,24403.165210,23934.449128,14928.283087,20325.402358,27997.325718,-4136.436181,-9736.799864,18282.877598,25396.029698,21902.206171,4771.717462,-6773.718509,21958.085532,20836.899678,-2373.554095,5377.807364,0.004875,-0.019875,1.009625,192.000000,0.000000,0.000000,0.000000,0.000000,0.000000,0.000000,0.000000,0.000000,0.000000,1764344516.636057,0.000000
202.000000,24422.655931,23950.721198,14939.682476,20332.666675,27966.457959,-4107.647134,-9706.446195,18289.024328,25307.136811,21901.714432,4787.676607,-6747.231692,21951.581174,20854.624612,-2367.854401,5327.426532,0.004875,-0.019875,1.009625,192.000000,0.000000,0.000000,0.000000,0.000000,0.000000,0.000000,0.000000,0.000000,0.000000,1764344516.644063,0.000000
204.000000,24412.709405,23935.074977,14928.081921,20325.737634,28001.796067,-4135.743277,-9738.967984,18283.570502,25302.018261,21897.266435,4781.060491,-6755.255968,21947.021418,20848.701399,-2367.139145,5346.134942,0.004875,-0.019875,1.009625,192.000000,0.000000,0.000000,0.000000,0.000000,0.000000,0.000000,0.000000,0.000000,0.000000,1764344516.652155,0.000000
206.000000,24427.036873,23945.245021,14945.717447,20333.381931,27990.776657,-4111.156358,-9710.961248,18295.282816,25404.545713,21912.309159,4779.451165,-6760.843904,21971.094247,20851.495367,-2371.765956,5363.792820,0.006438,-0.019938,1.008813,192.000000,0.000000,32.000000,127.500000,48.000000,15.500000,64.000000,0.000000,0.000000,0.000000,1764344516.661157,0.000000
208.000000,24425.405195,23944.999152,14939.213090,20329.828004,27982.148884,-4119.471207,-9721.623030,18289.158438,25263.975592,21902.832020,4796.930229,-6738.827436,21955.559785,20861.218376,-2358.846648,5314.909555,0.006438,-0.019938,1.008813,192.000000,0.000000,0.000000,0.000000,0.000000,0.000000,0.000000,0.000000,0.000000,0.000000,1764344516.668155,0.000000
210.000000,24420.487812,23942.249887,14938.162558,20325.715283,28007.585169,-4132.301108,-9734.363524,18287.683223,25399.404812,21907.727052,4776.746604,-6766.789468,21966.132160,20842.465263,-2367.429717,5379.640207,0.006438,-0.019938,1.008813,192.000000,0.000000,0.000000,0.000000,0.000000,0.000000,0.000000,0.000000,0.000000,0.000000,1764344516.676165,0.000000
212.000000,24435.083501,23958.141978,14952.199453,20334.588925,27980.204282,-4102.774453,-9700.768852,18301.384843,25323.095956,21911.459793,4798.897183,-6736.435799,21970.468398,20862.134798,-2360.210104,5325.124303,0.006438,-0.019938,1.008813,192.000000,0.000000,0.000000,0.000000,0.000000,0.000000,0.000000,0.000000,0.000000,0.000000,1764344516.684172,0.000000
214.000000,24438.391559,23949.961239,14931.233517,20323.524812,28006.311119,-4135.631518,-9736.799864,18287.236188,25317.016282,21905.134249,4795.007979,-6748.148113,21966.758009,20851.204795,-2361.774726,5346.000832,0.006438,-0.019938,1.008813,192.000000,0.000000,0.000000,0.000000,0.000000,0.000000,0.000000,0.000000,0.000000,0.000000,1764344516.693231,0.000000
216.000000,24423.639408,23957.382018,14942.498796,20329.425672,27993.615329,-4112.542166,-9710.335399,18295.394575,25410.156001,21913.605560,4783.519183,-6760.240407,21976.436314,20847.360295,-2366.289779,5361.155315,0.006219,-0.022969,1.007406,192.000000,0.000000,24.000000,127.500000,24.000000,15.500000,56.000000,0.000000,0.000000,0.000000,1764344516.700260,0.000000
218.000000,24417.045643,23936.371378,14930.898241,20326.609352,27975.599822,-4119.985297,-9721.064236,18289.001976,25258.678229,21894.472467,4799.746549,-6736.949889,21955.962116,20858.849091,-2364.009901,5316.183605,0.006219,-0.022969,1.007406,192.000000,0.000000,0.000000,0.000000,0.000000,0.000000,0.000000,0.000000,0.000000,0.000000,1764344516.709270,0.000000
220.000000,24416.106870,23942.406349,14932.194642,20326.207021,28008.166314,-4129.931823,-9732.396571,18291.348909,25393.615710,21903.100241,4778.311226,-6766.990634,21964.299317,20842.644077,-2375.118718,5381.160126,0.006219,-0.022969,1.007406,192.000000,0.000000,0.000000,0.000000,0.000000,0.000000,0.000000,0.000000,0.000000,0.000000,1764344516.716303,0.000000
222.000000,24435.463480,23959.661896,14943.035238,20335.371236,27971.084770,-4104.450834,-9702.109957,18298.099136,25324.727634,21911.728014,4796.393787,-6740.749686,21964.768704,20861.710115,-2363.361700,5329.326430,0.006219,-0.022969,1.007406,192.000000,0.000000,0.000000,0.000000,0.000000,0.000000,0.000000,0.000000,0.000000,0.000000,1764344516.723410,0.000000
224.000000,24415.302207,23945.826166,14927.657238,20328.084568,27999.382079,-4130.714134,-9737.470417,18287.571464,25315.563418,21904.284883,4788.168345,-6750.204474,21958.309049,20853.127045,-2367.675587,5352.549893,0.006219,-0.022969,1.007406,192.000000,0.000000,0.000000,0.000000,0.000000,0.000000,0.000000,0.000000,0.000000,0.000000,1764344516.732358,0.000000
226.000000,24425.606361,23945.803815,14942.163520,20334.566573,27989.100276,-4108.451797,-9712.056483,18293.941712,25407.116164,21914.991369,4785.150860,-6760.352166,21971.027192,20852.501196,-2370.268389,5372.107669,0.005109,-0.023484,1.006703,192.000000,0.000000,16.000000,127.500000,32.000000,15.500000,56.000000,0.000000,0.000000,0.000000,1764344516.740353,0.000000
228.000000,24426.366320,23949.894184,14937.894337,20331.459681,27985.903977,-4112.855090,-9720.952478,18291.594778,25262.701543,21906.900037,4802.831090,-6734.647660,21959.583099,20869.041487,-2360.768898,5327.203015,0.005109,-0.023484,1.006703,192.000000,0.000000,0.000000,0.000000,0.000000,0.000000,0.000000,0.000000,0.000000,0.000000,1764344516.747431,0.000000
230.000000,24425.986341,23952.621097,14941.671782,20330.073873,28015.520038,-4118.331268,-9731.390742,18293.271159,25408.144344,21916.153659,4785.486136,-6763.906093,21974.335250,20851.674181,-2363.898142,5385.764585,0.005109,-0.023484,1.006703,192.000000,0.000000,0.000000,0.000000,0.000000,0.000000,0.000000,0.000000,0.000000,0.000000,1764344516.755462,0.000000
232.000000,24425.628713,23949.111873,14948.556119,20334.901850,27980.316041,-4100.248706,-9704.613352,18292.555904,25327.454546,21911.079813,4800.193584,-6742.716639,21971.608337,20868.393286,-2356.343252,5331.941585,0.005109,-0.023484,1.006703,192.000000,0.000000,0.000000,0.000000,0.000000,0.000000,0.000000,0.000000,0.000000,0.000000,1764344516.764473,0.000000
234.000000,24414.072861,23941.445224,14933.066360,20328.218678,28014.693024,-4125.170901,-9738.498597,18285.805677,25314.468183,21903.256703,4788.034235,-6755.188913,21965.618070,20858.290298,-2358.153744,5357.266111,0.005109,-0.023484,1.006703,192.000000,0.000000,0.000000,0.000000,0.000000,0.000000,0.000000,0.000000,0.000000,0.000000,1764344516.772532,0.000000
236.000000,24429.674379,23950.900012,14945.717447,20336.824100,28001.773715,-4104.339076,-9711.743559,18294.008767,25410.603036,21918.411186,4785.553191,-6759.011061,21976.592776,20859.385533,-2364.635749,5372.107669,0.005109,-0.023484,1.006703,192.000000,0.000000,0.000000,0.000000,0.000000,0.000000,0.000000,0.000000,0.000000,0.000000,1764344516.780524,0.000000
238.000000,24429.137937,23952.956373,14939.369552,20333.650152,27994.308233,-4112.229241,-9720.214870,18292.622959,25269.496473,21911.258627,4800.998247,-6729.931442,21967.875596,20870.941385,-2357.885523,5321.302154,0.002000,-0.024000,1.016000,192.000000,0.000000,8.000000,127.500000,32.000000,15.500000,96.000000,0.000000,0.000000,0.000000,1764344516.787563,0.000000
240.000000,24427.238038,23952.062303,14939.548366,20332.040826,28023.276093,-4121.460512,-9730.966059,18295.819258,25410.446574,21920.199325,4783.608590,-6759.055765,21982.895968,20853.015286,-2364.926322,5384.646998,0.002000,-0.024000,1.016000,192.000000,0.000000,0.000000,0.000000,0.000000,0.000000,0.000000,0.000000,0.000000,0.000000,1764344516.797603,0.000000
242.000000,24430.054358,23964.132245,14950.858349,20339.573364,27990.933119,-4092.872631,-9700.522983,18304.827011,25329.756776,21923.775604,4802.831090,-6726.444569,21977.062163,20872.550711,-2358.734889,5335.607271,0.002000,-0.024000,1.016000,192.000000,0.000000,0.000000,0.000000,0.000000,0.000000,0.000000,0.000000,0.000000,0.000000,1764344516.804626,0.000000
244.000000,24422.790041,23965.249832,14936.419122,20332.756082,28026.114765,-4120.633497,-9733.737675,18299.484944,25329.175631,21920.512250,4800.484157,-6737.151055,21973.910567,20865.286394,-2359.964235,5351.834637,0.002000,-0.024000,1.016000,192.000000,0.000000,0.000000,0.000000,0.000000,0.000000,0.000000,0.000000,0.000000,0.000000,1764344516.811636,0.000000
246.000000,24439.062111,23969.474312,14951.350087,20338.187556,28011.116744,-4100.136948,-9708.033169,18304.983473,25421.108356,21927.865973,4791.543459,-6747.566968,21981.398401,20862.291260,-2361.461802,5373.962864,0.002000,-0.024000,1.016000,192.000000,0.000000,0.000000,0.000000,0.000000,0.000000,0.000000,0.000000,0.000000,0.000000,1764344516.819673,0.000000
248.000000,24435.821108,23951.481158,14939.883642,20333.583097,28001.729012,-4104.987276,-9717.979696,18297.830915,25275.263223,21921.249857,4807.703770,-6722.533014,21966.132160,20877.870426,-2353.973967,5318.843462,-0.002000,-0.016000,1.014000,192.000000,127.500000,120.000000,127.500000,64.000000,15.500000,88.000000,0.000000,0.000000,0.000000,1764344516.828695,0.000000
250.000000,24427.595666,23952.799911,14938.296668,20330.811480,28024.572495,-4124.969736,-9729.736713,18298.300302,25406.870294,21917.606523,4782.021616,-6758.899302,21967.965003,20855.205757,-2362.288816,5381.808326,-0.002000,-0.016000,1.014000,192.000000,0.000000,0.000000,0.000000,0.000000,0.000000,0.000000,0.000000,0.000000,0.000000,1764344516.835710,0.000000
252.000000,24439.263277,23959.103103,14947.527939,20341.696780,27988.228558,-4103.154433,-9698.064291,18307.084537,25327.499250,21927.977732,4801.065302,-6730.914918,21963.896986,20869.667336,-2363.562866,5331.852178,-0.002000,-0.016000,1.014000,192.000000,0.000000,0.000000,0.000000,0.000000,0.000000,0.000000,0.000000,0.000000,0.000000,1764344516.843821,0.000000
254.000000,24430.367283,23965.115722,14928.975991,20328.755120,28012.748422,-4134.424524,-9733.849434,18294.768726,25324.951151,21914.834906,4788.928305,-6739.408581,21954.956288,20858.446760,-2365.149840,5353.242797,-0.002000,-0.016000,1.014000,192.000000,0.000000,0.000000,0.000000,0.000000,0.000000,0.000000,0.000000,0.000000,0.000000,1764344516.852875,0.000000
0.000000,24437.564544,23968.692001,14945.337468,20335.795919,27999.002099,-4110.016419,-9704.523945,18307.129241,25410.223056,21932.202212,4784.525011,-6767.661186,21967.875596,20855.004591,-2366.736813,5371.682986,-0.002000,-0.016000,1.014000,192.000000,0.000000,0.000000,0.000000,0.000000,0.000000,0.000000,0.000000,0.000000,0.000000,1764344516.859825,0.000000
2.000000,24421.091309,23949.871832,14936.486177,20334.700684,27987.647413,-4118.264212,-9713.196422,18303.240037,25268.423589,21910.990406,4803.456939,-6730.557290,21953.190500,20870.896682,-2362.579389,5318.329372,0.004000,-0.020000,1.016000,192.000000,0.000000,16.000000,127.500000,48.000000,15.500000,96.000000,0.000000,0.000000,0.000000,1764344516.867834,0.000000
4.000000,24409.200181,23938.941829,14936.888508,20330.476204,28013.776602,-4127.741352,-9726.987449,18300.736642,25400.745916,21906.162430,4786.223744,-6746.471732,21962.757047,20847.784978,-2373.218819,5383.887039,0.004000,-0.020000,1.016000,192.000000,0.000000,0.000000,0.000000,0.000000,0.000000,0.000000,0.000000,0.000000,0.000000,1764344516.875874,0.000000
6.000000,24422.208896,23959.997172,14952.758247,20339.394550,27989.279090,-4096.895945,-9695.359730,18311.845459,25323.408881,21912.353863,4801.914668,-6722.510662,21964.545186,20869.376763,-2359.539552,5329.773465,0.004000,-0.020000,1.016000,192.000000,0.000000,0.000000,0.000000,0.000000,0.000000,0.000000,0.000000,0.000000,0.000000,1764344516.884900,0.000000
8.000000,24407.993186,23943.143957,14934.899203,20327.883402,28016.727032,-4133.038715,-9731.390742,18297.786212,25320.525506,21911.660959,4802.607572,-6733.574776,21968.657907,20861.061914,-2361.819430,5348.571282,0.004000,-0.020000,1.016000,192.000000,0.000000,0.000000,0.000000,0.000000,0.000000,0.000000,0.000000,0.000000,0.000000,1764344516.891939,0.000000
10.000000,24429.741434,23958.209033,14950.433666,20334.141890,28004.947663,-4108.407093,-9704.099262,18305.519915,25413.397004,21916.757156,4789.554154,-6753.713698,21978.537378,20852.277679,-2367.407366,5371.347710,0.004000,-0.020000,1.016000,192.000000,0.000000,0.000000,0.000000,0.000000,0.000000,0.000000,0.000000,0.000000,0.000000,1764344516.899962,0.000000
12.000000,24421.873620,23952.531690,14939.414256,20328.241030,27989.904939,-4122.578099,-9715.185727,18297.316825,25271.642240,21905.782450,4805.334485,-6728.947965,21965.483959,20866.180464,-2360.768898,5318.530538,0.004000,-0.022000,1.014000,192.000000,0.000000,16.000000,127.500000,40.000000,15.500000,88.000000,0.000000,0.000000,0.000000,1764344516.908004,0.000000
14.000000,24417.760899,23935.946695,14936.977915,20324.754158,28017.732861,-4136.592643,-9728.507367,18295.215761,25406.423260,21904.530752,4783.116851,-6767.772945,21971.854207,20843.828719,-2373.621151,5381.718919,0.004000,-0.022000,1.014000,192.000000,0.000000,0.000000,0.000000,0.000000,0.000000,0.000000,0.000000,0.000000,0.000000,1764344516.915012,0.000000
16.000000,24433.228306,23947.189623,14946.544462,20331.459681,27983.177064,-4112.698628,-9699.047768,18298.076784,25323.185363,21904.955435,4793.108081,-6737.642793,21962.801750,20860.346658,-2360.143049,5326.487759,0.004000,-0.022000,1.014000,192.000000,0.000000,0.000000,0.000000,0.000000,0.000000,0.000000,0.000000,0.000000,0.000000,1764344516.924035,0.000000
18.000000,24397.800791,23939.455919,14931.412331,20324.351826,28008.367480,-4141.152399,-9732.910661,18291.460668,25309.707261,21904.888380,4789.934133,-6746.583491,21954.956288,20848.947269,-2365.775688,5345.084410,0.004000,-0.022000,1.014000,192.000000,0.000000,0.000000,0.000000,0.000000,0.000000,0.000000,0.000000,0.000000,0.000000,1764344516.932050,0.000000
20.000000,24411.860038,23953.537518,14948.913747,20332.532565,28003.919483,-4112.765683,-9704.591001,18301.049566,25406.758536,21915.214886,4784.860287,-6756.194741,21969.373163,20848.835510,-2368.435546,5368.419632,0.004000,-0.022000,1.014000,192.000000,0.000000,0.000000,0.000000,0.000000,0.000000,0.000000,0.000000,0.000000,0.000000,1764344516.939106,0.000000
22.000000,24415.235152,23952.486986,14943.437570,20331.996123,28000.186741,-4116.967811,-9712.838794,18300.066090,25264.400275,21909.872819,4806.899107,-6726.511625,21957.593794,20867.499216,-2357.505543,5316.094198,0.004000,-0.018000,1.010000,192.000000,0.000000,16.000000,127.500000,56.000000,15.500000,72.000000,0.000000,0.000000,0.000000,1764344516.947136,0.000000
24.000000,24420.800736,23944.261544,14940.263622,20329.604486,28024.796012,-4128.456608,-9727.032152,18298.032081,25408.412565,21917.494764,4787.743662,-6754.116029,21970.826026,20851.160091,-2365.730985,5378.187344,0.004000,-0.018000,1.010000,192.000000,0.000000,0.000000,0.000000,0.000000,0.000000,0.000000,0.000000,0.000000,0.000000,1764344516.956153,0.000000
26.000000,24431.306056,23962.791140,14952.959413,20336.757044,27992.095410,-4102.819157,-9697.930181,18304.871715,25330.740253,21912.487973,4801.132357,-6732.703058,21969.909605,20868.594452,-2359.293682,5334.243814,0.004000,-0.018000,1.010000,192.000000,0.000000,0.000000,0.000000,0.000000,0.000000,0.000000,0.000000,0.000000,0.000000,1764344516.966214,0.000000
28.000000,24427.685073,23950.654143,14939.682476,20328.196326,28022.449079,-4128.903643,-9731.591908,18298.814392,25322.425404,21918.232372,4798.763072,-6738.983898,21963.695820,20859.743161,-2362.199409,5353.622777,0.004000,-0.018000,1.010000,192.000000,0.000000,0.000000,0.000000,0.000000,0.000000,0.000000,0.000000,0.000000,0.000000,1764344516.972257,0.000000
30.000000,24431.797794,23956.957335,14955.462808,20335.147719,28010.177971,-4108.831776,-9704.345131,18307.151593,25420.393100,21923.373273,4793.823337,-6749.936253,21982.650099,20859.094961,-2364.322825,5367.749079,0.004000,-0.018000,1.010000,192.000000,0.000000,0.000000,0.000000,0.000000,0.000000,0.000000,0.000000,0.000000,0.000000,1764344516.980257,0.000000
32.000000,24422.141841,23952.062303,14945.963317,20330.699722,28001.572550,-4118.934765,-9714.448120,18302.502430,25284.539197,21916.421880,4815.526881,-6719.157901,21972.524759,20873.556539,-2360.031290,5316.675343,0.006000,-0.020000,1.014000,192.000000,0.000000,24.000000,127.500000,48.000000,15.500000,88.000000,0.000000,0.000000,0.000000,1764344516.988262,0.000000
34.000000,24435.239963,23956.286783,14947.259718,20327.570477,28024.751309,-4135.452704,-9725.445178,18302.904761,25415.028681,21917.830040,4791.118776,-6758.116991,21979.274986,20845.974487,-2366.110965,5379.170821,0.006000,-0.020000,1.014000,192.000000,0.000000,0.000000,0.000000,0.000000,0.000000,0.000000,0.000000,0.000000,0.000000,1764344516.995317,0.000000
36.000000,24434.189431,23962.657030,14955.418105,20335.214774,27990.061401,-4111.491634,-9695.471489,18307.956255,25338.317494,21921.629837,4809.558965,-6728.456226,21977.308032,20864.101751,-2360.008938,5325.794855,0.006000,-0.020000,1.014000,192.000000,0.000000,0.000000,0.000000,0.000000,0.000000,0.000000,0.000000,0.000000,0.000000,1764344517.003342,0.000000
38.000000,24413.961102,23949.558908,14938.073151,20326.698759,28013.888361,-4139.185445,-9730.206100,18300.177848,25322.179535,21907.861162,4801.087654,-6742.180197,21962.868805,20849.640173,-2360.321863,5350.471181,0.006000,-0.020000,1.014000,192.000000,0.000000,0.000000,0.000000,0.000000,0.000000,0.000000,0.000000,0.000000,0.000000,1764344517.012345,0.000000
40.000000,24436.066978,23964.422818,14957.116837,20337.069969,28003.405393,-4110.888137,-9700.478280,18311.957218,25420.281341,21921.361616,4797.041988,-6748.751610,21981.465457,20852.814120,-2367.139145,5367.369100,0.006000,-0.020000,1.014000,192.000000,0.000000,0.000000,0.000000,0.000000,0.000000,0.000000,0.000000,0.000000,0.000000,1764344517.020364,0.000000
42.000000,24433.138899,23961.494739,14944.309288,20332.510213,27991.357802,-4120.834663,-9712.369408,18302.234209,25276.201996,21911.325683,4814.118721,-6720.320191,21965.372201,20867.365106,-2356.745584,5319.111683,0.008000,-0.022000,1.014000,192.000000,0.000000,32.000000,127.500000,40.000000,15.500000,88.000000,0.000000,0.000000,0.000000,1764344517.027426,0.000000
44.000000,24422.521820,23953.783387,14944.644564,20331.571440,28023.991349,-4128.009573,-9723.500576,18305.274046,25408.434917,21919.327607,4792.459880,-6755.993576,21971.697744,20847.472053,-2365.507467,5382.724748,0.008000,-0.022000,1.014000,192.000000,0.000000,0.000000,0.000000,0.000000,0.000000,0.000000,0.000000,0.000000,0.000000,1764344517.035438,0.000000
46.000000,24437.452786,23967.417952,14956.513340,20338.388722,27989.435552,-4102.349770,-9693.705701,18310.929037,25335.434119,21923.216811,4812.867023,-6723.807064,21972.837683,20871.746048,-2358.041985,5330.466369,0.008000,-0.022000,1.014000,192.000000,0.000000,0.000000,0.000000,0.000000,0.000000,0.000000,0.000000,0.000000,0.000000,1764344517.044491,0.000000
48.000000,24418.878486,23957.359667,14938.833110,20329.291562,28014.044823,-4135.832684,-9729.982582,18300.200200,25323.878267,21916.108956,4805.558003,-6733.261851,21964.589890,20858.960850,-2358.511371,5353.958053,0.008000,-0.022000,1.014000,192.000000,0.000000,0.000000,0.000000,0.000000,0.000000,0.000000,0.000000,0.000000,0.000000,1764344517.051498,0.000000
50.000000,24425.181678,23956.845576,14949.807817,20334.521870,27998.465657,-4114.307954,-9705.373312,18306.637503,25415.676882,21920.176973,4796.751415,-6751.366764,21970.803675,20853.417617,-2366.245075,5374.432251,0.008000,-0.022000,1.014000,192.000000,0.000000,0.000000,0.000000,0.000000,0.000000,0.000000,0.000000,0.000000,0.000000,1764344517.059512,0.000000
52.000000,24431.663684,23958.365495,14941.716485,20331.906716,27994.576454,-4119.001820,-9715.319838,18302.837706,25269.027086,21906.073023,4812.665857,-6722.868290,21955.537433,20865.621670,-2355.180962,5324.364343,0.007000,-0.022000,1.011000,192.000000,0.000000,24.000000,127.500000,40.000000,15.500000,64.000000,0.000000,0.000000,0.000000,1764344517.067524,0.000000
54.000000,24426.120451,23954.811568,14940.889471,20329.671541,28022.918465,-4127.249614,-9727.926222,18301.228380,25407.183219,21920.132270,4792.392825,-6754.719526,21969.194349,20851.450664,-2360.701842,5387.217449,0.007000,-0.022000,1.011000,192.000000,0.000000,0.000000,0.000000,0.000000,0.000000,0.000000,0.000000,0.000000,0.000000,1764344517.076560,0.000000
56.000000,24436.089329,23954.990382,14951.864177,20334.924201,27986.932157,-4105.255497,-9699.159527,18304.111755,25327.231029,21915.907790,4804.574526,-6728.053895,21967.830893,20867.074533,-2356.186790,5338.267128,0.007000,-0.022000,1.011000,192.000000,0.000000,0.000000,0.000000,0.000000,0.000000,0.000000,0.000000,0.000000,0.000000,1764344517.083577,0.000000
58.000000,24417.649140,23955.303306,14935.770921,20326.788166,28018.828096,-4130.110637,-9734.564690,18295.863962,25319.139697,21912.331511,4800.059474,-6738.223939,21963.919337,20858.737333,-2354.868037,5355.857951,0.007000,-0.022000,1.011000,192.000000,0.000000,0.000000,0.000000,0.000000,0.000000,0.000000,0.000000,0.000000,0.000000,1764344517.091669,0.000000
60.000000,24434.167079,23968.267318,14952.691192,20335.415940,28007.316948,-4109.658791,-9704.993332,18309.342064,25415.945103,21923.350921,4794.382130,-6748.058706,21975.832817,20857.932670,-2363.205238,5373.158201,0.007000,-0.022000,1.011000,192.000000,0.000000,0.000000,0.000000,0.000000,0.000000,0.000000,0.000000,0.000000,0.000000,1764344517.099632,0.000000
62.000000,24432.624809,23959.885414,14941.872947,20331.996123,27997.504532,-4117.995991,-9714.917507,18304.067052,25273.944470,21918.768813,4812.576450,-6717.593279,21964.254613,20873.131856,-2354.465706,5319.581070,0.006500,-0.020000,1.009500,192.000000,0.000000,24.000000,127.500000,56.000000,15.500000,64.000000,0.000000,0.000000,0.000000,1764344517.107694,0.000000
64.000000,24421.225419,23961.695905,14940.487139,20333.225469,28025.086585,-4125.573233,-9725.758103,18306.436337,25408.703137,21922.926238,4792.661046,-6748.997480,21971.831855,20855.161054,-2363.741680,5383.529411,0.006500,-0.020000,1.009500,192.000000,0.000000,0.000000,0.000000,0.000000,0.000000,0.000000,0.000000,0.000000,0.000000,1764344517.115739,0.000000
66.000000,24437.452786,23972.581204,14950.657183,20340.310972,27986.909805,-4099.242878,-9697.460794,18310.392596,25329.443852,21929.855279,4807.368494,-6723.203566,21970.982489,20875.076458,-2360.903008,5335.070829,0.006500,-0.020000,1.009500,192.000000,0.000000,0.000000,0.000000,0.000000,0.000000,0.000000,0.000000,0.000000,0.000000,1764344517.123713,0.000000
68.000000,24417.738547,23957.449073,14938.609593,20331.057350,28020.504477,-4123.293355,-9730.273155,18304.201162,25317.619779,21925.451985,4802.182889,-6728.746799,21964.902814,20868.102714,-2360.523028,5357.087297,0.006500,-0.020000,1.009500,192.000000,0.000000,0.000000,0.000000,0.000000,0.000000,0.000000,0.000000,0.000000,0.000000,1764344517.132762,0.000000
70.000000,24425.673416,23965.585108,14950.791293,20335.237126,28000.298500,-4108.608259,-9704.546297,18310.414947,25414.827515,21934.347979,4796.237325,-6741.867273,21979.811428,20862.067743,-2359.941883,5371.548876,0.006500,-0.020000,1.009500,192.000000,0.000000,0.000000,0.000000,0.000000,0.000000,0.000000,0.000000,0.000000,0.000000,1764344517.139837,0.000000
72.000000,24423.684111,23959.080751,14940.218918,20333.381931,27987.043916,-4118.711247,-9713.330533,18306.369282,25273.832711,21918.053558,4809.290744,-6721.460130,21958.331401,20871.477827,-2356.522066,5326.867739,0.006250,-0.022000,1.008750,192.000000,0.000000,24.000000,127.500000,32.000000,15.500000,64.000000,0.000000,0.000000,0.000000,1764344517.147820,0.000000
74.000000,24432.334236,23962.075885,14940.777712,20330.476204,28015.922369,-4127.875463,-9726.339248,18307.844497,25403.048146,21922.568610,4792.683398,-6748.796314,21969.574329,20852.210623,-2370.044872,5390.346693,0.006250,-0.022000,1.008750,192.000000,0.000000,0.000000,0.000000,0.000000,0.000000,0.000000,0.000000,0.000000,0.000000,1764344517.155880,0.000000
76.000000,24427.483908,23967.306193,14950.612480,20336.578230,27979.109046,-4106.417788,-9697.952533,18312.270142,25326.471070,21927.173069,4808.486081,-6722.130683,21963.874634,20868.326231,-2357.907874,5335.428457,0.006250,-0.022000,1.008750,192.000000,0.000000,0.000000,0.000000,0.000000,0.000000,0.000000,0.000000,0.000000,0.000000,1764344517.163860,0.000000
78.000000,24420.711329,23959.594841,14933.938078,20326.944629,28008.635701,-4134.960966,-9733.402399,18300.513125,25309.036709,21918.053558,4800.685322,-6735.921709,21954.866881,20856.680972,-2359.316034,5357.199056,0.006250,-0.022000,1.008750,192.000000,0.000000,0.000000,0.000000,0.000000,0.000000,0.000000,0.000000,0.000000,0.000000,1764344517.171909,0.000000
80.000000,24427.550963,23961.137111,14947.192663,20332.465509,27996.252834,-4117.280736,-9707.295562,18306.458689,25404.858637,21924.267343,4789.800023,-6749.779791,21966.690954,20852.635306,-2364.702805,5379.304931,0.006250,-0.022000,1.008750,192.000000,0.000000,0.000000,0.000000,0.000000,0.000000,0.000000,0.000000,0.000000,0.000000,1764344517.179948,0.000000
82.000000,24431.842498,23954.766864,14944.488102,20332.733730,27992.765962,-4119.001820,-9713.464643,18307.419814,25264.623793,21913.158526,4811.123587,-6718.532052,21954.308087,20866.269871,-2355.672700,5324.140826,0.006125,-0.022000,1.006375,192.000000,0.000000,24.000000,127.500000,40.000000,15.500000,48.000000,0.000000,0.000000,0.000000,1764344517.187941,0.000000
84.000000,24424.622884,23957.963164,14945.426875,20331.414977,28021.420899,-4129.529492,-9725.087550,18308.470346,25411.161829,21925.966075,4795.946753,-6747.522264,21972.524759,20853.864652,-2363.272293,5383.238838,0.006125,-0.022000,1.006375,192.000000,0.000000,0.000000,0.000000,0.000000,0.000000,0.000000,0.000000,0.000000,0.000000,1764344517.195999,0.000000
86.000000,24424.287608,23960.600669,14954.881663,20338.142853,27984.227596,-4109.569384,-9696.142041,18311.979569,25332.126061,21927.329532,4813.224651,-6726.891604,21968.456741,20870.181426,-2360.075994,5337.574224,0.006125,-0.022000,1.006375,192.000000,0.000000,0.000000,0.000000,0.000000,0.000000,0.000000,0.000000,0.000000,0.000000,1764344517.204001,0.000000
88.000000,24422.588876,23952.978725,14939.794235,20331.012646,28019.096317,-4131.831721,-9730.362562,18302.256561,25319.363215,21918.992331,4808.597840,-6737.329869,21963.718172,20862.738295,-2360.232456,5357.891960,0.006125,-0.022000,1.006375,192.000000,0.000000,0.000000,0.000000,0.000000,0.000000,0.000000,0.000000,0.000000,0.000000,1764344517.213048,0.000000
90.000000,24444.001847,23964.109893,14952.065343,20339.349847,28006.109954,-4104.540241,-9704.725111,18310.213782,25416.056861,21932.157508,4796.639657,-6747.298747,21974.245843,20864.235862,-2366.848572,5375.706300,0.006125,-0.022000,1.006375,192.000000,0.000000,0.000000,0.000000,0.000000,0.000000,0.000000,0.000000,0.000000,0.000000,1764344517.220052,0.000000
92.000000,24425.136974,23965.227481,14946.700924,20338.031094,28001.304329,-4104.763759,-9712.101187,18308.313883,25270.345839,21929.050616,4815.035142,-6716.587450,21961.415942,20883.190141,-2359.070165,5329.192320,0.008063,-0.023000,1.008188,192.000000,0.000000,40.000000,127.500000,32.000000,15.500000,72.000000,0.000000,0.000000,0.000000,1764344517.227090,0.000000
94.000000,24420.621922,23959.416027,14947.505587,20333.560745,28022.382024,-4121.348753,-9724.774626,18307.241000,25407.205571,21937.991314,4798.830128,-6747.544616,21973.150608,20866.247519,-2365.418060,5389.139699,0.008063,-0.023000,1.008188,192.000000,0.000000,0.000000,0.000000,0.000000,0.000000,0.000000,0.000000,0.000000,0.000000,1764344517.236101,0.000000
96.000000,24431.998960,23965.562757,14957.765038,20340.646248,27985.278128,-4097.812366,-9695.158564,18312.404253,25328.415671,21932.224564,4813.179948,-6723.404732,21966.802712,20878.764496,-2356.589121,5337.753038,0.008063,-0.023000,1.008188,192.000000,0.000000,0.000000,0.000000,0.000000,0.000000,0.000000,0.000000,0.000000,0.000000,1764344517.244193,0.000000
98.000000,24445.007675,23965.428646,14939.548366,20331.102053,28012.457849,-4125.640288,-9730.697838,18301.541305,25316.792764,21926.703683,4806.228555,-6733.619479,21957.951421,20871.142551,-2359.673662,5352.885169,0.008063,-0.023000,1.008188,192.000000,0.000000,0.000000,0.000000,0.000000,0.000000,0.000000,0.000000,0.000000,0.000000,1764344517.251302,0.000000
100.000000,24426.612190,23953.693980,14947.684401,20333.806614,27988.675593,-4117.124273,-9707.921411,18301.138973,25403.405774,21928.000084,4786.179040,-6752.730221,21956.990296,20856.390400,-2368.435546,5377.717957,0.008063,-0.023000,1.008188,192.000000,0.000000,0.000000,0.000000,0.000000,0.000000,0.000000,0.000000,0.000000,0.000000,1764344517.259251,0.000000
102.000000,24405.199218,23952.375227,14944.801026,20333.069007,27985.926328,-4115.827872,-9714.492823,18304.603494,25260.578127,21916.511287,4810.385979,-6721.393075,21952.005857,20872.953042,-2361.864133,5326.666573,0.010031,-0.023500,1.007094,192.000000,0.000000,48.000000,127.500000,32.000000,15.500000,56.000000,0.000000,0.000000,0.000000,1764344517.268254,0.000000
104.000000,24412.687053,23950.788254,14942.744665,20327.481070,28016.816439,-4125.573233,-9729.580251,18299.552000,25400.656509,21925.943723,4792.661046,-6750.740916,21967.607375,20854.110522,-2362.378223,5384.334074,0.010031,-0.023500,1.007094,192.000000,0.000000,0.000000,0.000000,0.000000,0.000000,0.000000,0.000000,0.000000,0.000000,1764344517.276385,0.000000
106.000000,24433.161251,23963.774617,14953.138227,20335.438291,27980.070171,-4104.517890,-9700.008893,18306.190468,25317.552724,21922.233334,4804.552174,-6730.780808,21961.482997,20870.226129,-2357.304377,5341.798704,0.010031,-0.023500,1.007094,192.000000,0.000000,0.000000,0.000000,0.000000,0.000000,0.000000,0.000000,0.000000,0.000000,1764344517.283294,0.000000
108.000000,24417.470326,23955.526823,14937.380247,20328.911582,28011.362614,-4127.607242,-9734.408228,18296.869790,25311.316587,21922.859183,4801.333523,-6733.060686,21957.973773,20862.917109,-2358.891351,5363.725765,0.010031,-0.023500,1.007094,192.000000,0.000000,0.000000,0.000000,0.000000,0.000000,0.000000,0.000000,0.000000,0.000000,1764344517.291317,0.000000
110.000000,24431.261352,23962.947603,14954.367573,20337.695818,28002.488971,-4102.752102,-9706.580306,18305.497564,25409.619559,21935.510270,4791.901087,-6744.795352,21972.971794,20864.124103,-2358.690185,5381.942437,0.010031,-0.023500,1.007094,192.000000,0.000000,0.000000,0.000000,0.000000,0.000000,0.000000,0.000000,0.000000,0.000000,1764344517.300390,0.000000
112.000000,24424.824050,23968.155559,14946.164482,20333.851318,27992.676555,-4111.312820,-9716.303315,18299.999034,25268.960031,21928.670636,4812.688209,-6719.940212,21959.359581,20878.585682,-2349.861246,5333.282689,0.009016,-0.023750,1.008547,192.000000,0.000000,32.000000,127.500000,32.000000,15.500000,72.000000,0.000000,0.000000,0.000000,1764344517.307398,0.000000
114.000000,24436.245791,23959.661896,14946.924442,20332.644323,28021.867933,-4115.917279,-9728.082684,18300.893104,25406.959701,21934.459738,4790.291761,-6752.394945,21968.054410,20859.631402,-2361.215933,5395.286428,0.009016,-0.023750,1.008547,192.000000,0.000000,0.000000,0.000000,0.000000,0.000000,0.000000,0.000000,0.000000,0.000000,1764344517.315434,0.000000
116.000000,24436.871640,23969.071981,14956.245119,20337.986390,27982.595918,-4090.145718,-9699.137175,18305.654026,25332.282523,21933.811537,4807.167328,-6722.935346,21971.563634,20881.491409,-2354.085726,5341.977518,0.009016,-0.023750,1.008547,192.000000,0.000000,0.000000,0.000000,0.000000,0.000000,0.000000,0.000000,0.000000,0.000000,1764344517.324467,0.000000
118.000000,24420.644274,23960.377152,14942.230575,20331.146757,28012.591960,-4117.571308,-9732.798902,18299.686110,25318.022110,21928.067139,4802.428758,-6733.127741,21960.857148,20873.042449,-2359.159572,5366.720899,0.009016,-0.023750,1.008547,192.000000,0.000000,0.000000,0.000000,0.000000,0.000000,0.000000,0.000000,0.000000,0.000000,1764344517.331472,0.000000
120.000000,24438.279800,23972.558853,14959.083791,20337.204079,28004.657090,-4093.409073,-9705.596829,18307.978607,25421.980074,21942.238145,4798.181927,-6743.230729,21977.732715,20872.550711,-2359.226627,5381.629513,0.009016,-0.023750,1.008547,192.000000,0.000000,0.000000,0.000000,0.000000,0.000000,0.000000,0.000000,0.000000,0.000000,1764344517.339483,0.000000
122.000000,24429.987303,23958.387847,14947.192663,20333.158414,27992.922424,-4104.763759,-9715.856280,18299.306130,25272.446903,21925.206116,4811.682381,-6720.633116,21961.773570,20883.257196,-2347.670775,5328.812340,0.009016,-0.023750,1.008547,192.000000,0.000000,0.000000,0.000000,0.000000,0.000000,0.000000,0.000000,0.000000,0.000000,1764344517.347492,0.000000
124.000000,24422.343006,23961.047704,14944.957488,20330.923239,28017.196419,-4119.024172,-9727.792111,18298.859095,25413.218190,21928.134194,4793.421005,-6758.787544,21970.937785,20862.872405,-2358.243151,5395.308780,0.006000,-0.024000,1.010000,192.000000,0.000000,24.000000,127.500000,32.000000,15.500000,72.000000,0.000000,0.000000,0.000000,1764344517.356652,0.000000
126.000000,24427.349797,23963.953431,14954.680497,20336.801748,27978.438494,-4099.868727,-9699.785376,18302.837706,25331.880192,21929.385892,4811.391808,-6729.149130,21969.306108,20874.629423,-2353.549284,5345.509093,0.006000,-0.024000,1.010000,192.000000,0.000000,0.000000,0.000000,0.000000,0.000000,0.000000,0.000000,0.000000,0.000000,1764344517.364564,0.000000
128.000000,24414.832820,23944.574469,14938.341372,20328.509251,28009.149791,-4129.015401,-9735.302298,18291.952406,25316.993930,21919.305255,4804.216898,-6740.369706,21961.125369,20863.967641,-2356.119735,5364.485725,0.006000,-0.024000,1.010000,192.000000,0.000000,0.000000,0.000000,0.000000,0.000000,0.000000,0.000000,0.000000,0.000000,1764344517.371610,0.000000
130.000000,24431.373111,23961.561794,14954.077000,20337.785225,27999.605596,-4102.014494,-9707.496727,18304.312921,25415.788640,21932.291619,4795.723235,-6751.299709,21973.932919,20862.313612,-2358.846648,5382.925914,0.006000,-0.024000,1.010000,192.000000,0.000000,0.000000,0.000000,0.000000,0.000000,0.000000,0.000000,0.000000,0.000000,1764344517.381632,0.000000
132.000000,24424.980512,23961.450036,14946.991497,20335.661809,27994.598805,-4104.562593,-9715.632762,18301.004863,25273.720953,21923.283866,4815.660991,-6717.749741,21963.226433,20880.396173,-2347.603720,5331.785122,0.006000,-0.024000,1.010000,192.000000,0.000000,0.000000,0.000000,0.000000,0.000000,0.000000,0.000000,0.000000,0.000000,1764344517.387656,0.000000
134.000000,24432.155422,23964.266356,14944.398695,20332.711379,28020.370367,-4115.447893,-9728.373257,18299.954331,25411.184181,21931.129328,4793.555116,-6752.752573,21974.357602,20861.039562,-2356.790287,5395.912277,0.004000,-0.024000,1.008000,192.000000,0.000000,16.000000,127.500000,32.000000,15.500000,64.000000,0.000000,0.000000,0.000000,1764344517.395678,0.000000
136.000000,24429.830841,23968.043800,14956.803913,20343.462568,27987.312137,-4087.955247,-9696.097338,18310.482003,25334.115366,21935.398511,4814.141073,-6722.935346,21970.557805,20879.390345,-2354.353947,5344.726782,0.004000,-0.024000,1.008000,192.000000,0.000000,0.000000,0.000000,0.000000,0.000000,0.000000,0.000000,0.000000,0.000000,1764344517.403732,0.000000
138.000000,24424.354663,23960.265393,14941.448264,20333.493690,28011.496724,-4118.711247,-9730.764893,18300.490773,25324.705282,21929.318837,4810.453035,-6732.099561,21966.601547,20870.628461,-2355.203313,5363.792820,0.004000,-0.024000,1.008000,192.000000,0.000000,0.000000,0.000000,0.000000,0.000000,0.000000,0.000000,0.000000,0.000000,1764344517.412777,0.000000
140.000000,24439.553850,23970.994231,14957.765038,20340.489786,28005.126477,-4098.348808,-9704.389835,18310.102023,25423.097661,21943.266325,4802.406407,-6745.734125,21979.319689,20867.655679,-2358.153744,5381.696568,0.004000,-0.024000,1.008000,192.000000,0.000000,0.000000,0.000000,0.000000,0.000000,0.000000,0.000000,0.000000,0.000000,1764344517.419783,0.000000
142.000000,24430.523745,23966.345068,14946.745628,20337.449948,27991.782485,-4108.317686,-9714.470472,18304.715252,25284.449790,21934.660904,4822.411218,-6712.854709,21967.853244,20883.503066,-2351.559979,5329.482893,0.004000,-0.024000,1.008000,192.000000,0.000000,0.000000,0.000000,0.000000,0.000000,0.000000,0.000000,0.000000,0.000000,1764344517.427859,0.000000
144.000000,24437.586896,23959.952469,14945.002192,20333.538393,28020.862105,-4119.940593,-9727.926222,18303.642369,25411.787678,21936.404340,4794.560944,-6751.657337,21974.245843,20857.887966,-2362.422927,5392.179536,0.006000,-0.020000,1.006000,192.000000,0.000000,24.000000,127.500000,48.000000,15.500000,56.000000,0.000000,0.000000,0.000000,1764344517.435852,0.000000
146.000000,24433.608286,23966.702696,14957.966203,20338.165204,27986.641584,-4096.404206,-9698.041940,18313.007750,25335.322360,21936.426692,4813.716389,-6723.449436,21969.641384,20873.422429,-2354.510409,5342.536311,0.006000,-0.020000,1.006000,192.000000,0.000000,0.000000,0.000000,0.000000,0.000000,0.000000,0.000000,0.000000,0.000000,1764344517.443875,0.000000
148.000000,24415.950407,23966.099199,14943.772846,20329.045693,28012.413146,-4123.427465,-9732.374219,18304.670549,25324.638227,21927.195421,4812.062360,-6733.284203,21964.433427,20862.850054,-2353.191656,5362.474068,0.006000,-0.020000,1.006000,192.000000,0.000000,0.000000,0.000000,0.000000,0.000000,0.000000,0.000000,0.000000,0.000000,1764344517.452912,0.000000
150.000000,24429.406158,23965.316888,14957.049782,20335.795919,28000.432611,-4099.846375,-9706.110919,18308.068014,25426.584533,21936.314933,4801.869965,-6748.148113,21979.431448,20864.593490,-2356.991453,5382.098899,0.006000,-0.020000,1.006000,192.000000,0.000000,0.000000,0.000000,0.000000,0.000000,0.000000,0.000000,0.000000,0.000000,1764344517.460134,0.000000
152.000000,24424.533477,23959.393675,14944.957488,20333.270172,27987.513302,-4111.446930,-9715.655114,18302.167154,25272.670421,21925.943723,4814.901032,-6725.215223,21961.304183,20874.540016,-2350.218874,5333.148579,0.006000,-0.020000,1.006000,192.000000,0.000000,0.000000,0.000000,0.000000,0.000000,0.000000,0.000000,0.000000,0.000000,1764344517.468965,0.000000
154.000000,24418.811431,23958.767826,14942.074113,20331.482033,28013.486029,-4121.304050,-9728.261498,18303.038872,25408.971358,21933.833889,4795.969104,-6751.165599,21972.748276,20856.524510,-2361.551209,5394.414710,0.006000,-0.020000,1.006000,192.000000,0.000000,0.000000,127.500000,24.000000,15.500000,64.000000,0.000000,0.000000,0.000000,1764344517.474969,0.000000
156.000000,24424.891105,23960.645373,14954.188759,20338.522832,27980.494855,-4097.700608,-9697.103166,18309.654988,25326.806346,21928.313008,4808.642543,-6725.997535,21967.517968,20873.310670,-2356.142087,5347.297233,0.006000,-0.020000,1.006000,192.000000,0.000000,0.000000,0.000000,0.000000,0.000000,0.000000,0.000000,0.000000,0.000000,1764344517.484010,0.000000
158.000000,24423.214724,23950.832957,14941.582375,20329.135100,28013.866009,-4126.199082,-9730.809597,18300.580180,25315.563418,21920.489898,4806.899107,-6736.033468,21962.891157,20862.559481,-2357.058508,5361.982329,0.006000,-0.020000,1.006000,192.000000,0.000000,0.000000,0.000000,0.000000,0.000000,0.000000,0.000000,0.000000,0.000000,1764344517.492051,0.000000
160.000000,24422.544172,23959.751303,14959.150846,20336.689989,28002.421916,-4098.639381,-9703.249896,18310.683168,25417.755594,21933.386854,4800.797081,-6749.310404,21976.905701,20861.933632,-2362.378223,5380.981312,0.006000,-0.020000,1.006000,192.000000,0.000000,0.000000,0.000000,0.000000,0.000000,0.000000,0.000000,0.000000,0.000000,1764344517.500084,0.000000
162.000000,24420.107832,23960.868890,14953.965241,20332.756082,27994.330584,-4107.803596,-9711.140062,18306.257523,25275.330278,21924.759081,4820.980706,-6720.119026,21964.321669,20876.708135,-2350.040060,5325.616041,0.006000,-0.020000,1.006000,192.000000,0.000000,0.000000,0.000000,0.000000,0.000000,0.000000,0.000000,0.000000,0.000000,1764344517.507085,0.000000
164.000000,24411.502410,23949.894184,14946.700924,20328.755120,28013.642492,-4127.540186,-9726.696876,18297.473287,25404.366899,21927.687160,4793.130433,-6758.742840,21976.860997,20851.897699,-2359.763069,5388.111518,-0.002000,-0.020000,1.006000,192.000000,127.500000,120.000000,127.500000,48.000000,15.500000,56.000000,0.000000,0.000000,0.000000,1764344517.516107,0.000000
166.000000,24415.928056,23953.738684,14954.680497,20333.739559,27971.844729,-4111.111654,-9698.332512,18301.004863,25324.548820,21922.300389,4804.909802,-6737.508683,21963.740523,20863.408847,-2357.885523,5343.944471,-0.002000,-0.020000,1.006000,192.000000,0.000000,0.000000,0.000000,0.000000,0.000000,0.000000,0.000000,0.000000,0.000000,1764344517.524141,0.000000
168.000000,24407.255579,23943.211012,14938.475482,20326.877573,27997.616291,-4136.279718,-9733.089475,18292.958235,25306.041575,21915.930142,4797.936058,-6745.622366,21951.648230,20852.881176,-2356.969101,5358.674271,-0.002000,-0.020000,1.006000,192.000000,0.000000,0.000000,0.000000,0.000000,0.000000,0.000000,0.000000,0.000000,0.000000,1764344517.531137,0.000000
170.000000,24424.332312,23959.728951,14954.166407,20334.320704,27989.994346,-4108.317686,-9705.462719,18304.670549,25407.563199,21929.654113,4790.872907,-6752.394945,21965.707477,20854.691667,-2362.937017,5376.533315,-0.002000,-0.020000,1.006000,192.000000,0.000000,0.000000,0.000000,0.000000,0.000000,0.000000,0.000000,0.000000,0.000000,1764344517.540201,0.000000
172.000000,24423.594704,23952.777559,14947.751456,20329.962114,27978.483198,-4118.241861,-9713.710512,18299.261427,25268.892976,21922.792127,4815.616288,-6721.549537,21957.012648,20872.126028,-2354.242188,5322.062114,-0.002000,-0.020000,1.006000,192.000000,0.000000,0.000000,0.000000,0.000000,0.000000,0.000000,0.000000,0.000000,0.000000,1764344517.549248,0.000000
174.000000,24422.410062,23951.637620,14945.158654,20328.084568,28005.439401,-4129.551843,-9726.674524,18298.523819,25400.589454,21924.893191,4792.661046,-6761.357994,21963.181730,20846.622687,-2364.144011,5389.586734,-0.002000,-0.020000,1.006000,192.000000,0.000000,0.000000,127.500000,56.000000,15.500000,48.000000,0.000000,0.000000,0.000000,1764344517.556294,0.000000
176.000000,24420.264294,23957.538480,14956.133360,20336.041789,27970.458921,-4107.557727,-9697.147870,18304.692901,25326.605180,21929.363540,4810.162462,-6733.284203,21967.562672,20865.353449,-2359.718366,5335.830788,-0.002000,-0.020000,1.006000,192.000000,0.000000,0.000000,0.000000,0.000000,0.000000,0.000000,0.000000,0.000000,0.000000,1764344517.563297,0.000000
178.000000,24408.663739,23954.386884,14941.247099,20329.828004,27998.018622,-4133.597509,-9731.256632,18296.646273,25315.049328,21921.182802,4802.071131,-6745.734125,21959.247823,20857.463283,-2358.466668,5357.534332,-0.002000,-0.020000,1.006000,192.000000,0.000000,0.000000,0.000000,0.000000,0.000000,0.000000,0.000000,0.000000,0.000000,1764344517.571319,0.000000
180.000000,24424.198201,23961.830015,14956.647451,20341.070931,27987.312137,-4106.440140,-9704.479242,18309.163250,25413.687576,21939.153604,4796.907878,-6752.283186,21973.307070,20861.352487,-2365.239247,5375.147507,-0.002000,-0.020000,1.006000,192.000000,0.000000,0.000000,0.000000,0.000000,0.000000,0.000000,0.000000,0.000000,0.000000,1764344517.579329,0.000000
182.000000,24426.589838,23966.613289,14949.249023,20340.333324,27979.869006,-4106.887174,-9713.352884,18307.978607,25268.133017,21936.091415,4819.706657,-6712.742950,21960.387762,20882.474885,-2358.734889,5326.130131,-0.002000,-0.020000,1.006000,192.000000,0.000000,0.000000,0.000000,0.000000,0.000000,0.000000,0.000000,0.000000,0.000000,1764344517.587363,0.000000
184.000000,24437.497489,23968.066152,14945.695096,20335.170071,28008.278073,-4120.409980,-9727.523890,18305.877543,25406.244446,21946.149700,4797.287857,-6748.371631,21970.624861,20863.319440,-2360.925360,5390.234934,0.004000,-0.016000,1.006000,192.000000,0.000000,16.000000,127.500000,64.000000,15.500000,56.000000,0.000000,0.000000,0.000000,1764344517.595394,0.000000
186.000000,24432.356588,23973.609385,14958.726163,20342.188518,27979.444323,-4095.018398,-9697.125518,18314.170040,25334.920029,21948.541337,4815.191605,-6720.946040,21974.670526,20883.860693,-2354.376299,5339.116495,0.004000,-0.016000,1.006000,192.000000,0.000000,0.000000,0.000000,0.000000,0.000000,0.000000,0.000000,0.000000,0.000000,1764344517.604436,0.000000
188.000000,24413.335253,23954.185719,14942.521148,20331.258515,28003.383041,-4125.953212,-9732.642440,18300.714290,25316.457488,21934.705607,4810.341276,-6735.049991,21963.449951,20870.114371,-2356.231494,5359.121306,0.004000,-0.016000,1.006000,192.000000,0.000000,0.000000,0.000000,0.000000,0.000000,0.000000,0.000000,0.000000,0.000000,1764344517.611459,0.000000
190.000000,24432.423643,23966.523882,14958.636756,20337.941687,27993.727087,-4099.667561,-9705.261553,18310.839630,25416.861524,21937.611334,4802.674628,-6747.857541,21974.312898,20867.476865,-2362.869962,5381.271885,0.004000,-0.016000,1.006000,192.000000,0.000000,0.000000,0.000000,0.000000,0.000000,0.000000,0.000000,0.000000,0.000000,1764344517.619455,0.000000
192.000000,24429.182640,23969.474312,14955.485160,20335.930030,27989.815532,-4103.221488,-9711.922373,18310.660817,25275.620851,21930.861107,4824.668744,-6714.486386,21964.701648,20884.888874,-2349.749488,5324.230233,0.004000,-0.016000,1.006000,192.000000,0.000000,0.000000,0.000000,0.000000,0.000000,0.000000,0.000000,0.000000,0.000000,1764344517.627478,0.000000
194.000000,24425.628713,23968.177911,14949.807817,20331.102053,28014.983596,-4117.861881,-9727.501539,18306.682206,25413.709928,21931.911639,4804.261601,-6744.013041,21978.112695,20861.821873,-2356.231494,5391.866611,0.004000,-0.019000,1.008000,192.000000,0.000000,16.000000,127.500000,40.000000,15.500000,72.000000,0.000000,0.000000,0.000000,1764344517.637537,0.000000
196.000000,24437.184565,23970.904824,14962.034221,20341.070931,27978.483198,-4091.352712,-9696.499669,18316.449918,25338.406901,21930.436424,4821.181872,-6719.202604,21975.676355,20881.849036,-2348.631900,5346.179646,0.004000,-0.019000,1.008000,192.000000,0.000000,0.000000,0.000000,0.000000,0.000000,0.000000,0.000000,0.000000,0.000000,1764344517.643565,0.000000
198.000000,24427.640370,23964.489873,14945.069247,20333.694855,28008.233369,-4117.548957,-9731.390742,18303.575314,25326.448718,21926.681331,4815.973916,-6726.846901,21968.680259,20874.182388,-2348.542493,5364.597483,0.004000,-0.019000,1.008000,192.000000,0.000000,0.000000,0.000000,0.000000,0.000000,0.000000,0.000000,0.000000,0.000000,1764344517.651599,0.000000
200.000000,24438.212745,23976.157484,14963.665898,20342.859071,28002.421916,-4091.732692,-9702.512288,18314.058282,25422.829440,21936.493747,4805.982686,-6741.800218,21980.325518,20871.902510,-2352.029366,5388.603257,0.004000,-0.019000,1.008000,192.000000,0.000000,0.000000,0.000000,0.000000,0.000000,0.000000,0.000000,0.000000,0.000000,1764344517.659659,0.000000
202.000000,24436.379902,23968.848463,14954.211110,20337.517004,27988.474427,-4105.322552,-9712.414111,18306.704558,25278.168950,21929.587058,4825.808683,-6712.184156,21968.434390,20887.168752,-2344.027441,5334.579090,0.004000,-0.019000,1.008000,192.000000,0.000000,0.000000,0.000000,0.000000,0.000000,0.000000,0.000000,0.000000,0.000000,1764344517.666647,0.000000
204.000000,24431.864850,23974.503455,14954.077000,20335.728864,28018.761041,-4108.563555,-9724.752274,18306.570447,25410.848905,21932.045750,4803.188718,-6746.762305,21978.179750,20867.163940,-2354.242188,5400.472033,0.004000,-0.019500,1.009000,192.000000,0.000000,16.000000,127.500000,48.000000,15.500000,72.000000,0.000000,0.000000,0.000000,1764344517.675671,0.000000
206.000000,24434.703521,23974.235234,14964.492913,20343.216699,27978.706715,-4084.982465,-9694.242143,18312.895991,25339.345674,21935.867898,4820.153692,-6721.057799,21973.977622,20885.246502,-2350.285929,5349.912387,0.004000,-0.019500,1.009000,192.000000,0.000000,0.000000,0.000000,0.000000,0.000000,0.000000,0.000000,0.000000,0.000000,1764344517.683707,0.000000
208.000000,24425.181678,23966.546233,14945.896261,20335.125367,28003.606558,-4118.018343,-9729.848472,18300.826049,25323.520639,21928.178898,4815.839805,-6725.304630,21967.696782,20875.568196,-2350.129467,5367.011472,0.004000,-0.019500,1.009000,192.000000,0.000000,0.000000,0.000000,0.000000,0.000000,0.000000,0.000000,0.000000,0.000000,1764344517.691746,0.000000
210.000000,24438.168041,23980.761943,14961.877759,20342.188518,27993.414163,-4093.900811,-9702.668751,18309.029139,25423.835268,21935.040883,4804.708636,-6744.258910,21979.342041,20870.851978,-2356.723232,5391.307818,0.004000,-0.019500,1.009000,192.000000,0.000000,0.000000,0.000000,0.000000,0.000000,0.000000,0.000000,0.000000,0.000000,1764344517.698772,0.000000
212.000000,24433.205954,23958.454902,14954.792256,20336.935858,27985.702811,-4099.734616,-9711.654152,18301.921284,25278.884206,21927.173069,4821.159520,-6717.772093,21967.205044,20885.626481,-2347.514313,5338.624756,0.004000,-0.019500,1.009000,192.000000,0.000000,0.000000,0.000000,0.000000,0.000000,0.000000,0.000000,0.000000,0.000000,1764344517.708817,0.000000
214.000000,24420.376053,23964.422818,14952.512378,20330.096225,28012.569608,-4120.208814,-9726.205138,18299.797869,25410.603036,21927.642456,4798.316037,-6751.187951,21976.838646,20860.525472,-2354.644520,5399.577963,0.003000,-0.018750,1.009500,192.000000,0.000000,8.000000,127.500000,56.000000,15.500000,72.000000,0.000000,0.000000,0.000000,1764344517.715879,0.000000
216.000000,24435.217611,23972.804722,14966.906901,20338.433425,27982.238291,-4089.788090,-9693.884515,18310.258485,25334.964733,21927.731863,4816.197433,-6726.802197,21974.737582,20877.222225,-2344.832104,5347.386640,0.003000,-0.018750,1.009500,192.000000,0.000000,0.000000,0.000000,0.000000,0.000000,0.000000,0.000000,0.000000,0.000000,1764344517.722835,0.000000
218.000000,24417.671492,23957.158501,14947.684401,20328.241030,28005.975843,-4127.271965,-9728.708533,18298.568523,25320.056119,21921.607485,4814.588107,-6732.546596,21968.412038,20868.996783,-2345.592063,5361.959977,0.003000,-0.018750,1.009500,192.000000,0.000000,0.000000,0.000000,0.000000,0.000000,0.000000,0.000000,0.000000,0.000000,1764344517.730914,0.000000
220.000000,24436.670475,23969.898995,14962.771829,20336.354713,27993.458866,-4102.953267,-9702.422881,18308.135069,25414.492239,21925.317875,4801.534689,-6749.422163,21978.403268,20861.777170,-2354.175133,5386.368082,0.003000,-0.018750,1.009500,192.000000,0.000000,0.000000,0.000000,0.000000,0.000000,0.000000,0.000000,0.000000,0.000000,1764344517.739927,0.000000
222.000000,24434.457652,23968.177911,14954.233462,20335.125367,27987.602709,-4106.529547,-9711.073007,18305.408157,25271.932813,21919.394662,4820.980706,-6718.308534,21969.753143,20876.417563,-2346.530836,5337.373058,0.003000,-0.018750,1.009500,192.000000,0.000000,0.000000,0.000000,0.000000,0.000000,0.000000,0.000000,0.000000,0.000000,1764344517.746958,0.000000
224.000000,24427.752129,23970.994231,14956.893320,20334.365408,28019.096317,-4115.604355,-9721.064236,18309.990264,25411.139478,21926.502517,4803.948677,-6745.845884,21982.851265,20859.989030,-2355.158610,5396.381664,0.004500,-0.017375,1.011750,192.000000,0.000000,24.000000,127.500000,64.000000,15.500000,88.000000,0.000000,0.000000,0.000000,1764344517.754914,0.000000
226.000000,24429.428509,23971.798893,14967.622157,20341.048579,27978.818474,-4093.721997,-9690.509402,18315.131165,25335.858802,21930.525831,4821.785369,-6717.168595,21978.604433,20878.920958,-2347.223740,5344.838541,0.004500,-0.017375,1.011750,192.000000,0.000000,0.000000,0.000000,0.000000,0.000000,0.000000,0.000000,0.000000,0.000000,1764344517.763992,0.000000
228.000000,24417.202105,23961.360629,14946.320945,20331.817309,28002.667785,-4123.025134,-9728.440312,18300.624883,25312.970616,21917.293598,4811.816491,-6728.255061,21968.099113,20866.985126,-2348.944825,5371.303007,0.004500,-0.017375,1.011750,192.000000,0.000000,0.000000,0.000000,0.000000,0.000000,0.000000,0.000000,0.000000,0.000000,1764344517.772016,0.000000
230.000000,24422.611227,23966.568585,14961.721297,20339.863937,27995.068192,-4099.622858,-9701.327646,18311.174907,25411.273588,21929.609410,4802.026427,-6744.929462,21977.017460,20863.364144,-2353.571636,5390.838431,0.004500,-0.017375,1.011750,192.000000,0.000000,0.000000,0.000000,0.000000,0.000000,0.000000,0.000000,0.000000,0.000000,1764344517.779038,0.000000
232.000000,24422.275951,23967.619117,14952.221805,20337.919335,27985.702811,-4102.617991,-9710.134233,18306.145764,25267.015429,21925.720206,4822.902956,-6710.887755,21966.869768,20882.229016,-2342.351060,5338.244777,0.004500,-0.017375,1.011750,192.000000,0.000000,0.000000,0.000000,0.000000,0.000000,0.000000,0.000000,0.000000,0.000000,1764344517.787068,0.000000
234.000000,24426.142803,23973.139998,14950.657183,20335.170071,28012.636663,-4116.252555,-9723.120597,18306.011654,25403.450478,21931.732825,4798.539555,-6750.673860,21974.379954,20859.206719,-2355.627996,5404.182423,0.006250,-0.017688,1.010875,192.000000,0.000000,32.000000,127.500000,56.000000,15.500000,72.000000,0.000000,0.000000,0.000000,1764344517.796077,0.000000
236.000000,24432.311884,23976.582167,14964.001174,20341.920297,27978.639660,-4089.899849,-9693.012797,18313.879468,25335.054140,21934.392683,4817.493834,-6720.163729,21973.307070,20877.646908,-2349.414211,5349.443000,0.006250,-0.017688,1.010875,192.000000,0.000000,0.000000,0.000000,0.000000,0.000000,0.000000,0.000000,0.000000,0.000000,1764344517.803136,0.000000
238.000000,24423.974684,23966.657992,14949.092561,20333.538393,28009.350957,-4121.035829,-9726.696876,18305.475212,25320.681968,21920.981636,4813.537575,-6725.528148,21966.400381,20866.046353,-2345.122677,5365.983291,0.006250,-0.017688,1.010875,192.000000,0.000000,0.000000,0.000000,0.000000,0.000000,0.000000,0.000000,0.000000,0.000000,1764344517.811146,0.000000
240.000000,24430.546097,23971.195396,14963.598843,20340.087454,27993.101238,-4105.099035,-9699.897134,18314.214744,25412.413527,21930.168203,4806.899107,-6739.676802,21979.453800,20861.821873,-2353.862209,5388.625609,0.006250,-0.017688,1.010875,192.000000,0.000000,0.000000,0.000000,0.000000,0.000000,0.000000,0.000000,0.000000,0.000000,1764344517.819201,0.000000
242.000000,24435.441129,23969.675478,14955.485160,20338.589887,27985.367535,-4105.009628,-9707.519079,18310.258485,25268.244775,21919.349959,4826.613346,-6706.506813,21968.479093,20874.450609,-2345.659118,5337.171893,0.006250,-0.017688,1.010875,192.000000,0.000000,0.000000,0.000000,0.000000,0.000000,0.000000,0.000000,0.000000,0.000000,1764344517.828215,0.000000
244.000000,24426.209858,23973.542329,14956.558044,20335.997085,28014.625968,-4116.118445,-9719.454911,18310.079671,25407.362033,21928.692988,4807.815529,-6739.408581,21981.688974,20859.564347,-2352.521104,5399.153280,0.006125,-0.016844,1.008437,192.000000,0.000000,24.000000,127.500000,64.000000,15.500000,56.000000,0.000000,0.000000,0.000000,1764344517.835220,0.000000
246.000000,24430.635504,23977.744457,14966.303404,20342.948478,27979.936061,-4093.364369,-9690.397643,18316.204049,25336.015265,21928.268305,4824.065247,-6716.855671,21976.771590,20875.992879,-2347.424906,5352.058155,0.006125,-0.016844,1.008437,192.000000,0.000000,0.000000,0.000000,0.000000,0.000000,0.000000,0.000000,0.000000,0.000000,1764344517.843299,0.000000
248.000000,24426.254562,23969.451960,14950.701886,20334.611277,28004.321814,-4121.572271,-9724.506405,18306.726909,25316.502192,21920.042863,4818.253794,-6724.432912,21970.513102,20866.515740,-2350.397688,5366.855009,0.006125,-0.016844,1.008437,192.000000,0.000000,0.000000,0.000000,0.000000,0.000000,0.000000,0.000000,0.000000,0.000000,1764344517.851294,0.000000
250.000000,24451.824957,23986.372231,14966.124590,20340.802710,27996.476352,-4100.807500,-9697.796070,18316.427567,25420.549562,21934.750311,4810.631849,-6737.352221,21985.689936,20864.571138,-2352.811677,5387.195097,0.006125,-0.016844,1.008437,192.000000,0.000000,0.000000,0.000000,0.000000,0.000000,0.000000,0.000000,0.000000,0.000000,1764344517.860297,0.000000
252.000000,24420.934847,23977.386830,14955.775732,20336.868803,27986.596881,-4112.899794,-9707.586134,18309.386767,25278.101895,21921.339264,4824.087599,-6707.982028,21969.484922,20877.110467,-2345.547360,5334.489683,0.006125,-0.016844,1.008437,192.000000,0.000000,0.000000,0.000000,0.000000,0.000000,0.000000,0.000000,0.000000,0.000000,1764344517.867316,0.000000
254.000000,24428.959123,23971.888300,14955.395753,20336.935858,28013.128401,-4122.913375,-9720.080760,18311.376072,25410.401870,21926.033130,4804.976857,-6737.463979,21982.270119,20856.748027,-2356.678528,5398.102748,0.006063,-0.017422,1.005219,192.000000,0.000000,24.000000,127.500000,56.000000,15.500000,40.000000,0.000000,0.000000,0.000000,1764344517.875340,0.000000
0.000000,24432.155422,23982.483027,14965.230520,20342.277925,27975.197491,-4098.572326,-9691.492878,18316.248753,25338.317494,21929.855279,4819.259622,-6714.709904,21978.895006,20877.535150,-2353.146953,5351.745230,0.006063,-0.017422,1.005219,192.000000,0.000000,0.000000,0.000000,0.000000,0.000000,0.000000,0.000000,0.000000,0.000000,1764344517.883354,0.000000
2.000000,24428.042701,23969.004925,14948.958450,20335.862975,28006.512285,-4122.153416,-9725.266364,18307.576276,25319.877305,21925.787261,4816.488006,-6724.030581,21969.171997,20871.366068,-2349.749488,5368.374928,0.006063,-0.017422,1.005219,192.000000,0.000000,0.000000,0.000000,0.000000,0.000000,0.000000,0.000000,0.000000,0.000000,1764344517.891403,0.000000
4.000000,24437.542193,23985.098181,14965.945776,20347.619992,27998.242140,-4092.760872,-9696.276152,18319.020369,25422.918847,21940.248840,4808.061398,-6737.866311,21984.237073,20874.115333,-2357.282025,5390.659617,0.006063,-0.017422,1.005219,192.000000,0.000000,0.000000,0.000000,0.000000,0.000000,0.000000,0.000000,0.000000,0.000000,1764344517.899459,0.000000
6.000000,24437.631600,23980.404315,14955.999250,20344.580155,27987.647413,-4102.975619,-9704.792166,18313.186564,25280.940566,21935.666732,4829.407314,-6703.422273,21970.870730,20892.801391,-2351.425868,5334.310869,0.006063,-0.017422,1.005219,192.000000,0.000000,0.000000,0.000000,0.000000,0.000000,0.000000,0.000000,0.000000,0.000000,1764344517.907469,0.000000
8.000000,24427.103928,23976.358649,14953.272337,20339.685123,28016.347053,-4115.649058,-9719.164338,18311.286665,25415.319254,21937.521927,4804.082788,-6733.865349,21979.118523,20869.443818,-2361.193581,5402.528394,0.006063,-0.017422,1.005219,192.000000,0.000000,0.000000,0.000000,0.000000,0.000000,0.000000,0.000000,0.000000,0.000000,1764344517.915500,0.000000
10.000000,24429.495565,23987.556873,14967.085715,20344.803672,27979.869006,-4093.230259,-9689.391814,18317.567506,25342.743140,21937.209003,4822.880605,-6713.435854,21979.766724,20885.112391,-2352.185828,5355.746192,0.008000,-0.020000,1.002000,192.000000,0.000000,32.000000,127.500000,48.000000,15.500000,40.000000,0.000000,0.000000,0.000000,1764344517.923530,0.000000
12.000000,24436.514012,23975.151655,14950.612480,20338.053446,28009.127439,-4120.119407,-9722.450044,18310.236133,25328.169802,21932.984523,4819.214919,-6723.650601,21972.614166,20876.864597,-2351.403517,5371.682986,0.008000,-0.020000,1.002000,192.000000,0.000000,0.000000,0.000000,0.000000,0.000000,0.000000,0.000000,0.000000,0.000000,1764344517.931555,0.000000
14.000000,24433.138899,23982.997117,14964.738782,20341.205042,28000.119686,-4101.120424,-9697.885477,18315.846421,25427.120975,21941.880517,4810.408331,-6732.948927,21985.198198,20873.444781,-2352.096421,5392.693626,0.008000,-0.020000,1.002000,192.000000,0.000000,0.000000,0.000000,0.000000,0.000000,0.000000,0.000000,0.000000,0.000000,1764344517.939549,0.000000
16.000000,24430.277876,23974.458751,14955.663974,20338.969867,27988.697945,-4106.417788,-9706.625009,18311.219610,25275.509092,21926.949552,4828.893224,-6709.256078,21967.897948,20884.441839,-2344.876807,5345.844370,0.008000,-0.020000,1.002000,192.000000,0.000000,0.000000,0.000000,0.000000,0.000000,0.000000,0.000000,0.000000,0.000000,1764344517.946602,0.000000
18.000000,24430.300227,23978.280899,14953.674669,20335.527698,28018.895151,-4116.565480,-9719.857242,18307.509221,25415.386309,21938.192479,4808.955468,-6738.402753,21982.247768,20869.130894,-2349.727136,5404.428292,0.008000,-0.020000,1.002000,192.000000,0.000000,0.000000,0.000000,0.000000,0.000000,0.000000,0.000000,0.000000,0.000000,1764344517.955641,0.000000
20.000000,24442.973667,23984.204112,14963.285919,20342.970829,27983.177064,-4090.257477,-9690.867030,18316.002883,25339.859765,21934.616200,4818.924346,-6717.503872,21977.710364,20884.464191,-2345.100325,5359.501285,0.008000,-0.020000,1.002000,192.000000,0.000000,32.000000,127.500000,48.000000,15.500000,40.000000,0.000000,0.000000,0.000000,1764344517.965679,0.000000
22.000000,24427.461556,23977.297423,14948.086732,20336.712341,28016.637625,-4114.799692,-9724.484053,18309.587933,25327.990988,21931.196383,4820.354857,-6720.566061,21973.172959,20879.613862,-2347.894293,5378.343806,0.008000,-0.020000,1.002000,192.000000,0.000000,0.000000,0.000000,0.000000,0.000000,0.000000,0.000000,0.000000,0.000000,1764344517.971706,0.000000
24.000000,24451.780254,23991.066097,14964.179988,20344.222527,28010.401489,-4089.206945,-9697.505498,18321.233192,25429.736129,21940.762930,4812.062360,-6728.880910,21987.031041,20874.651775,-2352.722270,5396.694588,0.008000,-0.020000,1.002000,192.000000,0.000000,0.000000,0.000000,0.000000,0.000000,0.000000,0.000000,0.000000,0.000000,1764344517.978684,0.000000
26.000000,24440.939658,23984.248815,14952.445323,20341.763835,27995.403468,-4098.997009,-9707.452024,18313.007750,25288.651918,21933.766834,4831.843654,-6700.695360,21976.928053,20891.996728,-2344.094496,5338.848274,0.008000,-0.020000,1.002000,192.000000,0.000000,0.000000,0.000000,0.000000,0.000000,0.000000,0.000000,0.000000,0.000000,1764344517.987749,0.000000
28.000000,24441.789024,23986.618100,14953.741724,20343.797844,28023.052576,-4106.462491,-9719.253745,18315.041758,25418.135574,21939.801805,4806.385017,-6739.118009,21983.655928,20873.131856,-2355.158610,5412.452568,0.008000,-0.020000,1.002000,192.000000,0.000000,0.000000,0.000000,0.000000,0.000000,0.000000,0.000000,0.000000,0.000000,1764344517.995789,0.000000
30.000000,24439.106815,23993.144809,14965.789314,20351.263327,27990.754305,-4081.383834,-9688.050710,18322.373131,25350.163919,21943.713360,4831.083695,-6706.529165,21982.158361,20894.321310,-2347.827238,5360.484762,0.010000,-0.022000,1.010000,192.000000,0.000000,40.000000,127.500000,40.000000,15.500000,72.000000,0.000000,0.000000,0.000000,1764344518.002912,0.000000
32.000000,24418.833783,23974.771675,14946.455055,20338.388722,28009.976805,-4114.106788,-9725.333419,18309.744395,25326.918105,21933.610372,4822.634735,-6715.514566,21971.295413,20880.887911,-2349.168342,5380.936608,0.010000,-0.022000,1.010000,192.000000,0.000000,0.000000,0.000000,0.000000,0.000000,0.000000,0.000000,0.000000,0.000000,1764344518.010910,0.000000
34.000000,24440.559678,23993.770658,14963.665898,20347.709399,28002.287805,-4084.624837,-9696.700835,18321.277895,25430.652551,21939.578288,4812.732913,-6728.679744,21985.555826,20877.401039,-2352.677566,5398.996818,0.010000,-0.022000,1.010000,192.000000,0.000000,0.000000,0.000000,0.000000,0.000000,0.000000,0.000000,0.000000,0.000000,1764344518.019961,0.000000
36.000000,24439.397387,23988.316833,14954.300517,20347.195309,27993.861198,-4096.627724,-9704.725111,18318.148651,25288.629566,21936.292581,4834.324698,-6697.320246,21974.447009,20894.097792,-2342.239301,5342.960995,0.010000,-0.022000,1.010000,192.000000,0.000000,0.000000,0.000000,0.000000,0.000000,0.000000,0.000000,0.000000,0.000000,1764344518.026913,0.000000
38.000000,24446.035856,23990.753173,14953.071171,20343.484919,28020.124497,-4108.652962,-9718.203213,18317.433395,25426.808050,21942.506366,4810.765959,-6731.093732,21984.214721,20871.455475,-2352.945787,5409.770359,0.010000,-0.022000,1.010000,192.000000,0.000000,0.000000,0.000000,0.000000,0.000000,0.000000,0.000000,0.000000,0.000000,1764344518.035922,0.000000
40.000000,24438.972704,24004.633606,14965.766962,20350.883347,27988.765000,-4079.148660,-9687.246047,18327.961067,25352.443797,21945.792073,4832.067172,-6705.679799,21983.275948,20891.639101,-2346.217912,5363.368137,0.006000,-0.020000,1.010000,192.000000,0.000000,24.000000,127.500000,48.000000,15.500000,72.000000,0.000000,0.000000,0.000000,1764344518.043965,0.000000
42.000000,24439.442091,23994.754135,14947.460884,20340.087454,28017.218771,-4107.848299,-9723.210004,18316.136994,25335.657637,21944.227450,4827.976802,-6715.201642,21979.140875,20886.319385,-2342.842799,5379.215524,0.006000,-0.020000,1.010000,192.000000,0.000000,0.000000,0.000000,0.000000,0.000000,0.000000,0.000000,0.000000,0.000000,1764344518.054002,0.000000
44.000000,24446.281725,23990.641414,14963.174160,20347.240013,28006.020547,-4087.575267,-9695.896172,18325.256506,25437.291019,21951.245898,4816.800930,-6726.824549,21989.601492,20882.161961,-2347.894293,5400.494385,0.006000,-0.020000,1.010000,192.000000,0.000000,0.000000,0.000000,0.000000,0.000000,0.000000,0.000000,0.000000,0.000000,1764344518.059964,0.000000
46.000000,24430.724911,23989.859103,14955.976898,20342.881422,27994.732916,-4092.380892,-9703.763986,18317.992189,25288.830732,21939.980619,4835.777561,-6699.466014,21974.737582,20895.640063,-2339.802961,5347.587806,0.006000,-0.020000,1.010000,192.000000,0.000000,0.000000,0.000000,0.000000,0.000000,0.000000,0.000000,0.000000,0.000000,1764344518.066991,0.000000
48.000000,24436.961047,23988.897978,14957.005078,20341.719132,28024.348977,-4105.479015,-9715.766873,18318.729796,25427.702120,21942.886346,4815.616288,-6730.244366,21988.059221,20874.964699,-2351.895255,5405.612934,0.006000,-0.020000,1.010000,192.000000,0.000000,0.000000,0.000000,0.000000,0.000000,0.000000,0.000000,0.000000,0.000000,1764344518.076068,0.000000
50.000000,24451.646143,23986.416934,14966.884549,20350.637478,27991.469561,-4078.254590,-9685.971997,18323.222497,25356.355352,21946.440273,4830.994288,-6705.098653,21987.299262,20894.723641,-2346.486133,5359.322472,0.006000,-0.020000,1.012000,192.000000,0.000000,24.000000,127.500000,48.000000,15.500000,80.000000,0.000000,0.000000,0.000000,1764344518.083115,0.000000
52.000000,24441.252582,23991.490780,14950.053686,20341.249745,28019.386890,-4107.490672,-9721.287754,18313.946523,25341.603201,21941.388779,4826.211015,-6714.888718,21982.426582,20889.180409,-2347.916645,5378.410861,0.006000,-0.020000,1.012000,192.000000,0.000000,0.000000,0.000000,0.000000,0.000000,0.000000,0.000000,0.000000,0.000000,1764344518.092125,0.000000
54.000000,24438.570373,23992.675423,14965.789314,20346.234184,28010.334433,-4087.619971,-9695.695006,18319.668570,25443.102472,21954.330439,4817.516186,-6732.390133,21994.071841,20886.162923,-2350.375336,5399.935591,0.006000,-0.020000,1.012000,192.000000,0.000000,0.000000,0.000000,0.000000,0.000000,0.000000,0.000000,0.000000,0.000000,1764344518.100170,0.000000
56.000000,24432.177774,23985.455809,14955.283994,20340.556841,27994.621157,-4098.974657,-9705.753291,18311.800755,25290.976499,21937.678389,4833.497683,-6705.612744,21977.486846,20895.595359,-2342.909854,5349.420649,0.006000,-0.020000,1.012000,192.000000,0.000000,0.000000,0.000000,0.000000,0.000000,0.000000,0.000000,0.000000,0.000000,1764344518.107206,0.000000
58.000000,24430.188469,23982.058344,14953.741724,20337.382893,28026.494745,-4110.798730,-9719.633725,18311.577238,25426.517478,21941.388779,4810.341276,-6741.710811,21987.209855,20874.294147,-2353.906912,5413.033713,0.006000,-0.020000,1.012000,192.000000,0.000000,0.000000,0.000000,0.000000,0.000000,0.000000,0.000000,0.000000,0.000000,1764344518.115218,0.000000
60.000000,24435.396425,23996.989309,14967.510398,20344.669562,27997.906863,-4080.668578,-9687.424861,18320.741453,25351.750893,21944.272154,4827.239195,-6710.708941,21984.102963,20892.555522,-2343.312185,5360.574169,0.006000,-0.022000,1.012000,192.000000,0.000000,24.000000,127.500000,40.000000,15.500000,80.000000,0.000000,0.000000,0.000000,1764344518.123260,0.000000
62.000000,24435.686998,23995.491743,14951.595956,20338.589887,28025.690082,-4102.752102,-9721.131292,18314.997055,25339.368026,21946.708494,4827.485064,-6717.660334,21982.024250,20888.353394,-2342.060488,5375.706300,0.006000,-0.022000,1.012000,192.000000,0.000000,0.000000,0.000000,0.000000,0.000000,0.000000,0.000000,0.000000,0.000000,1764344518.131267,0.000000
64.000000,24449.388617,23994.888245,14963.777657,20343.462568,28009.708585,-4089.676331,-9697.170221,18319.780328,25440.621429,21952.832872,4817.359724,-6729.663221,21993.334233,20880.060897,-2349.950653,5401.187289,0.006000,-0.022000,1.012000,192.000000,0.000000,0.000000,0.000000,0.000000,0.000000,0.000000,0.000000,0.000000,0.000000,1764344518.139254,0.000000
66.000000,24438.503318,23990.753173,14953.875834,20341.585021,27996.386945,-4095.465433,-9705.105091,18315.175869,25291.915273,21936.538450,4834.235291,-6700.114214,21975.385782,20893.047260,-2344.228607,5348.168951,0.006000,-0.022000,1.012000,192.000000,0.000000,0.000000,0.000000,0.000000,0.000000,0.000000,0.000000,0.000000,0.000000,1764344518.148318,0.000000
68.000000,24449.053341,23991.982519,14949.763113,20336.712341,28025.824192,-4108.362390,-9720.952478,18312.761880,25426.919809,21941.612296,4810.989477,-6735.072343,21983.588872,20873.377725,-2354.152781,5408.295144,0.006000,-0.022000,1.012000,192.000000,0.000000,0.000000,0.000000,0.000000,0.000000,0.000000,0.000000,0.000000,0.000000,1764344518.154360,0.000000
70.000000,24435.575239,23995.469391,14964.068230,20344.155472,27992.609500,-4081.272075,-9689.458870,18322.395482,25359.417541,21943.333381,4827.842692,-6713.122930,21980.079649,20890.454458,-2348.609549,5362.205847,0.006000,-0.024000,1.008000,192.000000,0.000000,24.000000,127.500000,32.000000,15.500000,64.000000,0.000000,0.000000,0.000000,1764344518.163334,0.000000
72.000000,24428.065053,23981.700716,14950.880700,20335.348885,28024.952474,-4107.356561,-9723.098245,18313.231267,25334.361235,21933.006875,4826.322773,-6716.542747,21977.039811,20879.591510,-2345.435601,5378.477917,0.006000,-0.024000,1.008000,192.000000,0.000000,0.000000,0.000000,0.000000,0.000000,0.000000,0.000000,0.000000,0.000000,1764344518.171428,0.000000
74.000000,24443.510108,23995.871722,14966.728087,20344.870728,28020.124497,-4086.323570,-9695.672655,18323.691884,25439.794414,21943.959229,4820.801892,-6726.355162,21992.864846,20879.524455,-2348.609549,5395.934629,0.006000,-0.024000,1.008000,192.000000,0.000000,0.000000,0.000000,0.000000,0.000000,0.000000,0.000000,0.000000,0.000000,1764344518.179431,0.000000
76.000000,24440.827899,23992.831885,14950.970107,20342.501443,27999.493837,-4099.824023,-9705.060387,18314.102985,25284.852121,21930.302314,4829.988459,-6704.584563,21969.574329,20887.660490,-2343.088668,5350.113553,0.006000,-0.024000,1.008000,192.000000,0.000000,0.000000,0.000000,0.000000,0.000000,0.000000,0.000000,0.000000,0.000000,1764344518.189796,0.000000
78.000000,24433.518879,23983.913539,14951.283032,20340.288620,28029.087547,-4108.496500,-9718.314972,18315.019407,25423.276475,21937.141947,4810.721256,-6737.039296,21983.097134,20871.410772,-2354.085726,5411.133815,0.006000,-0.024000,1.008000,192.000000,0.000000,0.000000,0.000000,0.000000,0.000000,0.000000,0.000000,0.000000,0.000000,1764344518.195479,0.000000
80.000000,24451.579088,23993.323623,14960.424895,20344.021361,27995.828151,-4082.009683,-9689.749442,18317.232229,25347.772282,21938.438349,4825.004020,-6712.184156,21980.750201,20889.806257,-2343.893331,5360.887094,0.009000,-0.024000,1.010000,192.000000,0.000000,48.000000,127.500000,32.000000,15.500000,80.000000,0.000000,0.000000,0.000000,1764344518.204473,0.000000
82.000000,24417.984416,23983.712373,14944.689267,20333.426634,28023.812535,-4110.664619,-9725.489882,18306.503392,25330.069700,21932.045750,4818.074980,-6728.657392,21972.748276,20880.038545,-2343.960386,5380.578981,0.009000,-0.024000,1.010000,192.000000,0.000000,0.000000,0.000000,0.000000,0.000000,0.000000,0.000000,0.000000,0.000000,1764344518.210539,0.000000
84.000000,24428.109756,23981.298385,14960.022564,20341.473262,28015.989425,-4086.927067,-9699.494803,18316.181697,25431.121937,21938.170128,4811.794139,-6737.396924,21987.321614,20877.155170,-2349.660081,5405.076492,0.009000,-0.024000,1.010000,192.000000,0.000000,0.000000,0.000000,0.000000,0.000000,0.000000,0.000000,0.000000,0.000000,1764344518.219604,0.000000
86.000000,24428.757957,23977.319774,14950.791293,20338.679294,28002.310157,-4095.823061,-9707.899059,18308.805622,25286.707316,21926.837793,4828.245023,-6701.611781,21975.922224,20890.297996,-2334.930281,5348.437172,0.009000,-0.024000,1.010000,192.000000,0.000000,0.000000,0.000000,0.000000,0.000000,0.000000,0.000000,0.000000,0.000000,1764344518.227580,0.000000
88.000000,24433.004789,23983.444152,14952.959413,20338.500480,28034.519021,-4105.210794,-9719.633725,18308.269180,25421.868315,21937.656038,4806.273258,-6738.626270,21986.047564,20873.467132,-2344.228607,5411.782016,0.009000,-0.024000,1.010000,192.000000,0.000000,0.000000,0.000000,0.000000,0.000000,0.000000,0.000000,0.000000,0.000000,1764344518.234628,0.000000
90.000000,24441.409044,23988.830923,14961.877759,20345.206004,27997.437477,-4081.652055,-9689.548277,18315.265276,25350.566250,21936.896078,4822.008887,-6715.335752,21982.963024,20890.029775,-2340.294700,5361.423536,0.008500,-0.025000,1.007000,192.000000,0.000000,32.000000,127.500000,24.000000,15.500000,48.000000,0.000000,0.000000,0.000000,1764344518.242646,0.000000
92.000000,24428.847364,23985.679327,14946.499759,20338.209908,28027.008835,-4112.139834,-9723.232356,18307.106889,25331.746081,21931.174032,4818.477311,-6721.013095,21973.195311,20881.446705,-2342.306357,5374.722823,0.008500,-0.025000,1.007000,192.000000,0.000000,0.000000,0.000000,0.000000,0.000000,0.000000,0.000000,0.000000,0.000000,1764344518.251674,0.000000
94.000000,24437.877469,23995.670557,14960.737820,20346.278888,28015.676500,-4092.492651,-9697.170221,18317.031064,25434.899382,21941.835814,4808.731950,-6733.284203,21987.031041,20879.435048,-2348.251921,5398.818004,0.008500,-0.025000,1.007000,192.000000,0.000000,0.000000,0.000000,0.000000,0.000000,0.000000,0.000000,0.000000,0.000000,1764344518.259698,0.000000
96.000000,24436.871640,23986.729859,14950.411314,20342.613201,28005.752326,-4094.325494,-9706.043864,18312.493660,25285.634433,21932.693950,4829.474369,-6703.645790,21970.356640,20893.226074,-2342.619281,5350.359422,0.008500,-0.025000,1.007000,192.000000,0.000000,0.000000,0.000000,0.000000,0.000000,0.000000,0.000000,0.000000,0.000000,1764344518.266729,0.000000
98.000000,24435.552887,23990.931987,14947.505587,20339.685123,28039.279942,-4102.036846,-9721.354809,18306.995130,25418.873181,21937.298410,4806.787349,-6741.017907,21981.577215,20876.015231,-2350.241226,5416.520586,0.008500,-0.025000,1.007000,192.000000,0.000000,0.000000,0.000000,0.000000,0.000000,0.000000,0.000000,0.000000,0.000000,1764344518.275763,0.000000
100.000000,24438.749187,23986.707507,14959.329660,20345.027190,27998.644471,-4079.550991,-9691.001140,18312.784232,25350.119215,21935.577325,4821.718314,-6714.665200,21981.107829,20892.443763,-2344.161551,5369.760736,0.006250,-0.025500,1.006500,192.000000,0.000000,16.000000,127.500000,24.000000,15.500000,56.000000,0.000000,0.000000,0.000000,1764344518.283798,0.000000
102.000000,24430.277876,23979.644356,14944.778674,20337.181728,28025.712434,-4106.618954,-9724.081722,18304.648197,25332.170764,21927.441290,4816.935041,-6723.114159,21974.134084,20881.357298,-2345.972043,5386.099861,0.006250,-0.025500,1.006500,192.000000,0.000000,0.000000,0.000000,0.000000,0.000000,0.000000,0.000000,0.000000,0.000000,1764344518.292804,0.000000
104.000000,24444.784158,23992.340147,14962.481256,20344.043713,28016.123535,-4085.854183,-9697.796070,18316.092290,25436.933391,21942.863994,4808.776654,-6739.699154,21989.132105,20877.713964,-2350.710613,5407.825757,0.006250,-0.025500,1.006500,192.000000,0.000000,0.000000,0.000000,0.000000,0.000000,0.000000,0.000000,0.000000,0.000000,1764344518.298873,0.000000
106.000000,24434.256486,23986.729859,14954.658145,20342.143815,28001.997233,-4095.085453,-9703.942800,18314.661779,25291.334127,21936.180822,4833.341221,-6703.623438,21976.548073,20894.522476,-2342.440467,5349.107724,0.006250,-0.025500,1.006500,192.000000,0.000000,0.000000,0.000000,0.000000,0.000000,0.000000,0.000000,0.000000,0.000000,1764344518.307899,0.000000
108.000000,24425.963989,23982.728896,14947.930270,20337.047617,28023.901942,-4117.012515,-9719.790187,18308.939732,25415.296902,21933.409206,4806.295610,-6739.296822,21976.123390,20868.728562,-2351.224703,5413.927783,0.006250,-0.025500,1.006500,192.000000,0.000000,0.000000,0.000000,0.000000,0.000000,0.000000,0.000000,0.000000,0.000000,1764344518.315902,0.000000
110.000000,24447.131091,23995.648205,14961.743648,20346.077722,27993.481218,-4088.201116,-9688.162468,18317.925133,25345.470052,21934.213869,4822.075942,-6713.480558,21971.921262,20885.224150,-2343.915682,5363.390489,0.006125,-0.022750,1.007250,192.000000,0.000000,24.000000,127.500000,48.000000,15.500000,64.000000,0.000000,0.000000,0.000000,1764344518.322903,0.000000
112.000000,24427.573315,23980.940757,14949.204320,20339.103978,28024.192515,-4110.642268,-9723.210004,18309.520878,25328.505078,21932.470433,4819.661953,-6719.873157,21970.803675,20881.156132,-2348.877770,5380.042539,0.006125,-0.022750,1.007250,192.000000,0.000000,0.000000,0.000000,0.000000,0.000000,0.000000,0.000000,0.000000,0.000000,1764344518.330997,0.000000
114.000000,24434.278838,23992.876588,14961.721297,20341.763835,28011.742593,-4091.665636,-9699.025416,18312.203087,25430.719606,21945.032113,4808.709599,-6738.760381,21982.560692,20878.406868,-2348.430735,5402.774263,0.006125,-0.022750,1.007250,192.000000,0.000000,0.000000,0.000000,0.000000,0.000000,0.000000,0.000000,0.000000,0.000000,1764344518.340285,0.000000
116.000000,24435.642294,23975.598690,14954.300517,20338.612239,28000.253797,-4103.132081,-9706.222678,18306.905723,25277.051363,21925.049654,4826.546291,-6713.301744,21962.779398,20885.939406,-2335.869054,5348.727745,0.006125,-0.022750,1.007250,192.000000,0.000000,0.000000,0.000000,0.000000,0.000000,0.000000,0.000000,0.000000,0.000000,1764344518.346977,0.000000
118.000000,24424.332312,23979.174969,14952.802950,20336.533527,28028.126422,-4119.202986,-9719.276097,18307.084537,25412.212361,21928.961209,4806.161500,-6742.738991,21976.749239,20865.666373,-2346.664947,5410.731484,0.006125,-0.022750,1.007250,192.000000,0.000000,0.000000,0.000000,0.000000,0.000000,0.000000,0.000000,0.000000,0.000000,1764344518.356051,0.000000
120.000000,24442.079597,23986.394583,14967.845674,20346.837681,27994.241177,-4089.989256,-9684.720300,18324.027160,25344.710093,21933.073930,4825.316945,-6714.575793,21973.865864,20884.307728,-2339.221816,5360.305948,0.004063,-0.021375,1.006625,192.000000,0.000000,8.000000,127.500000,48.000000,15.500000,56.000000,0.000000,0.000000,0.000000,1764344518.363296,0.000000
122.000000,24435.351722,23987.802742,14951.953584,20336.444120,28018.492820,-4115.492596,-9720.192518,18314.304151,25332.863669,21932.135157,4829.787294,-6715.648677,21973.463532,20879.680917,-2343.915682,5376.421556,0.004063,-0.021375,1.006625,192.000000,0.000000,0.000000,0.000000,0.000000,0.000000,0.000000,0.000000,0.000000,0.000000,1764344518.373085,0.000000
124.000000,24450.014466,23991.066097,14965.834017,20340.512137,28008.680404,-4096.828889,-9695.672655,18320.987322,25432.887725,21933.342151,4815.616288,-6734.558253,21978.000936,20868.773266,-2351.604682,5402.014303,0.004063,-0.021375,1.006625,192.000000,0.000000,0.000000,0.000000,0.000000,0.000000,0.000000,0.000000,0.000000,0.000000,1764344518.380120,0.000000
126.000000,24431.954257,23982.550083,14956.870968,20337.427597,28000.030279,-4100.628686,-9703.406358,18317.612209,25286.640261,21928.469471,4836.090486,-6707.289124,21961.147721,20888.196932,-2342.708688,5344.905596,0.004063,-0.021375,1.006625,192.000000,0.000000,0.000000,0.000000,0.000000,0.000000,0.000000,0.000000,0.000000,0.000000,1764344518.387180,0.000000
128.000000,24430.546097,23980.560777,14951.372439,20333.516041,28027.388814,-4116.341962,-9719.723132,18312.806584,25416.548600,21927.843622,4812.218823,-6738.380401,21973.463532,20864.057048,-2348.877770,5411.625554,0.004063,-0.021375,1.006625,192.000000,0.000000,0.000000,0.000000,0.000000,0.000000,0.000000,0.000000,0.000000,0.000000,1764344518.395186,0.000000
130.000000,24432.423643,23994.016527,14962.168331,20344.915431,27992.587148,-4083.931933,-9688.453041,18322.998979,25342.229049,21931.397549,4825.808683,-6712.519433,21968.792018,20881.334946,-2341.524046,5363.859876,0.005031,-0.022687,1.006312,192.000000,0.000000,24.000000,127.500000,32.000000,15.500000,56.000000,0.000000,0.000000,0.000000,1764344518.403203,0.000000
132.000000,24431.484870,23976.559815,14944.041067,20334.119539,28014.469506,-4120.432332,-9724.260536,18312.739529,25321.084299,21927.351883,4825.406352,-6717.727389,21961.550052,20873.780057,-2346.754354,5379.327283,0.005031,-0.022687,1.006312,192.000000,0.000000,0.000000,0.000000,0.000000,0.000000,0.000000,0.000000,0.000000,0.000000,1764344518.411269,0.000000
134.000000,24434.435300,23980.314908,14959.106142,20339.215736,28000.790238,-4100.695741,-9699.561858,18318.796851,25420.862486,21931.151680,4815.057494,-6734.424142,21963.986392,20865.174635,-2351.582331,5406.842280,0.005031,-0.022687,1.006312,192.000000,0.000000,0.000000,0.000000,0.000000,0.000000,0.000000,0.000000,0.000000,0.000000,1764344518.420251,0.000000
136.000000,24438.816242,23982.706545,14954.300517,20339.372199,27989.748477,-4102.863860,-9703.965152,18315.578200,25274.413857,21923.060348,4834.101180,-6708.317305,21953.101093,20881.983147,-2345.547360,5352.661652,0.005031,-0.022687,1.006312,192.000000,0.000000,0.000000,0.000000,0.000000,0.000000,0.000000,0.000000,0.000000,0.000000,1764344518.428358,0.000000
138.000000,24426.120451,23981.343088,14954.077000,20337.829928,28021.756175,-4112.206890,-9717.689123,18315.220572,25414.335777,21932.515136,4815.795102,-6736.435799,21969.283756,20867.230996,-2353.884560,5412.340809,0.005031,-0.022687,1.006312,192.000000,0.000000,0.000000,0.000000,0.000000,0.000000,0.000000,0.000000,0.000000,0.000000,1764344518.435290,0.000000
140.000000,24438.659780,23990.686117,14964.291747,20343.887251,27990.128456,-4091.218602,-9688.229524,18321.166136,25344.978314,21934.191517,4829.519073,-6714.039351,21967.026230,20882.027850,-2343.848627,5364.664538,0.005516,-0.022344,1.010156,192.000000,0.000000,24.000000,127.500000,40.000000,15.500000,88.000000,0.000000,0.000000,0.000000,1764344518.443325,0.000000
142.000000,24432.445995,23977.208016,14949.181968,20337.472300,28019.319835,-4119.739428,-9722.293582,18313.097157,25325.219372,21929.363540,4825.607517,-6715.492215,21962.801750,20874.316499,-2344.765049,5379.483745,0.005516,-0.022344,1.010156,192.000000,0.000000,0.000000,0.000000,0.000000,0.000000,0.000000,0.000000,0.000000,0.000000,1764344518.451374,0.000000
144.000000,24442.079597,23986.707507,14962.570663,20346.860033,28007.115782,-4098.192346,-9696.723187,18320.875564,25430.764309,21939.935915,4815.906860,-6726.690439,21975.095209,20868.013307,-2350.241226,5401.299048,0.005516,-0.022344,1.010156,192.000000,0.000000,0.000000,0.000000,0.000000,0.000000,0.000000,0.000000,0.000000,0.000000,1764344518.460413,0.000000
146.000000,24428.512088,23980.449019,14954.792256,20342.702608,27993.056535,-4102.416826,-9705.328608,18312.694825,25281.924043,21928.648285,4832.313041,-6702.930534,21960.343058,20880.507932,-2343.692165,5350.046498,0.005516,-0.022344,1.010156,192.000000,0.000000,0.000000,0.000000,0.000000,0.000000,0.000000,0.000000,0.000000,0.000000,1764344518.467476,0.000000
148.000000,24442.347818,23976.425705,14950.724238,20337.964039,28023.656073,-4117.101922,-9721.466568,18309.185601,25410.826553,21928.737691,4809.268392,-6738.156883,21967.652079,20859.877272,-2349.682432,5411.200870,0.005516,-0.022344,1.010156,192.000000,0.000000,0.000000,0.000000,0.000000,0.000000,0.000000,0.000000,0.000000,0.000000,1764344518.475470,0.000000
150.000000,24433.854155,23987.020431,14961.520131,20344.401341,27984.696982,-4093.364369,-9690.889381,18314.348854,25343.324285,21926.189593,4824.646392,-6718.844976,21968.344983,20874.964699,-2346.173208,5364.329262,0.005516,-0.022344,1.010156,192.000000,0.000000,0.000000,0.000000,0.000000,0.000000,0.000000,0.000000,0.000000,0.000000,1764344518.483489,0.000000
152.000000,24433.630637,23983.220635,14947.773808,20335.438291,28009.574474,-4118.420675,-9724.506405,18307.755090,25324.213543,21921.920409,4823.461750,-6726.355162,21958.644326,20870.002612,-2348.766011,5376.779184,0.002000,-0.020000,1.018000,192.000000,0.000000,8.000000,127.500000,48.000000,15.500000,104.000000,0.000000,0.000000,0.000000,1764344518.490511,0.000000
154.000000,24441.721969,23984.874664,14963.934119,20343.507271,28001.281977,-4097.499442,-9697.416091,18318.975665,25427.366844,21928.938857,4814.744570,-6733.395962,21971.787151,20865.509911,-2354.599816,5400.293219,0.002000,-0.020000,1.018000,192.000000,0.000000,0.000000,0.000000,0.000000,0.000000,0.000000,0.000000,0.000000,0.000000,1764344518.499549,0.000000
156.000000,24436.536364,23978.593824,14956.781561,20341.987353,27992.408334,-4102.953267,-9706.222678,18312.493660,25285.209749,21922.278037,4838.124494,-6701.298857,21965.483959,20883.458362,-2339.221816,5339.809399,0.002000,-0.020000,1.018000,192.000000,0.000000,0.000000,0.000000,0.000000,0.000000,0.000000,0.000000,0.000000,0.000000,1764344518.507576,0.000000
158.000000,24428.601495,23975.933966,14951.528901,20341.182690,28022.717300,-4115.358486,-9721.935954,18307.777441,25410.737146,21927.351883,4808.329619,-6742.426067,21969.686087,20864.794655,-2351.023537,5414.531280,0.002000,-0.020000,1.018000,192.000000,0.000000,0.000000,0.000000,0.000000,0.000000,0.000000,0.000000,0.000000,0.000000,1764344518.514584,0.000000
160.000000,24431.887201,23982.125399,14964.694079,20348.737579,27989.949642,-4089.676331,-9691.179954,18315.935828,25348.331076,21931.643418,4824.646392,-6716.051008,21968.099113,20885.246502,-2344.675642,5368.821963,0.002000,-0.020000,1.018000,192.000000,0.000000,0.000000,0.000000,0.000000,0.000000,0.000000,0.000000,0.000000,0.000000,1764344518.522629,0.000000
162.000000,24424.935809,23975.710449,14948.980802,20337.628762,28014.290692,-4119.381800,-9726.719228,18306.168116,25328.460375,21923.149755,4822.366514,-6724.321154,21965.081628,20875.434086,-2344.988566,5382.523582,0.004000,-0.022000,1.008000,192.000000,0.000000,16.000000,127.500000,40.000000,15.500000,64.000000,0.000000,0.000000,0.000000,1764344518.531644,0.000000
164.000000,24439.687960,23985.142885,14965.230520,20344.758969,28008.456887,-4098.393512,-9700.143003,18315.309979,25436.084024,21932.492785,4811.727084,-6742.336660,21974.782285,20868.505045,-2349.280101,5403.981257,0.004000,-0.022000,1.008000,192.000000,0.000000,0.000000,0.000000,0.000000,0.000000,0.000000,0.000000,0.000000,0.000000,1764344518.539746,0.000000
166.000000,24456.071789,23990.462600,14959.396715,20343.619030,28001.036108,-4098.661733,-9706.245030,18310.303189,25288.674270,21923.015645,4829.653183,-6709.971334,21963.874634,20885.335909,-2337.880711,5348.973614,0.004000,-0.022000,1.008000,192.000000,0.000000,0.000000,0.000000,0.000000,0.000000,0.000000,0.000000,0.000000,0.000000,1764344518.546679,0.000000
168.000000,24416.531553,23985.075830,14958.100314,20342.300277,28028.439346,-4115.447893,-9719.454911,18309.699691,25415.676882,21934.772662,4809.380151,-6744.437724,21973.396477,20870.382592,-2348.386031,5407.602240,0.004000,-0.022000,1.008000,192.000000,0.000000,0.000000,0.000000,0.000000,0.000000,0.000000,0.000000,0.000000,0.000000,1764344518.554703,0.000000
170.000000,24429.830841,23979.040859,14969.231483,20348.916393,27993.838846,-4090.793918,-9688.453041,18317.209878,25350.722712,21929.587058,4823.998192,-6718.509700,21968.948480,20884.665356,-2343.245130,5362.563474,0.004000,-0.022000,1.008000,192.000000,0.000000,0.000000,0.000000,0.000000,0.000000,0.000000,0.000000,0.000000,0.000000,1764344518.563752,0.000000
172.000000,24422.968855,23965.540405,14951.171273,20341.294449,28017.084660,-4118.264212,-9723.813501,18307.039834,25331.097881,21922.635665,4818.142035,-6722.063627,21957.079703,20876.886949,-2344.161551,5375.885114,0.008000,-0.014000,1.012000,192.000000,0.000000,32.000000,127.500000,72.000000,15.500000,80.000000,0.000000,0.000000,0.000000,1764344518.570817,0.000000
174.000000,24434.703521,23978.549120,14967.018660,20351.576251,28004.455925,-4100.561631,-9696.544373,18320.182660,25429.445556,21930.615238,4809.424854,-6737.933366,21967.517968,20868.125065,-2349.503618,5406.127024,0.008000,-0.014000,1.012000,192.000000,0.000000,0.000000,0.000000,0.000000,0.000000,0.000000,0.000000,0.000000,0.000000,1764344518.578833,0.000000
176.000000,24417.470326,23968.736704,14955.149884,20348.424655,27988.407372,-4109.144701,-9704.725111,18312.516011,25282.549892,21921.294561,4831.977765,-6706.238592,21954.330439,20882.832513,-2345.972043,5354.829771,0.008000,-0.014000,1.012000,192.000000,0.000000,0.000000,0.000000,0.000000,0.000000,0.000000,0.000000,0.000000,0.000000,1764344518.586922,0.000000
178.000000,24433.608286,23977.945623,14952.087695,20344.401341,28022.516134,-4120.611146,-9721.064236,18309.185601,25407.920826,21925.094357,4803.076959,-6747.566968,21963.740523,20862.000687,-2356.611473,5414.039542,0.008000,-0.014000,1.012000,192.000000,0.000000,0.000000,0.000000,0.000000,0.000000,0.000000,0.000000,0.000000,0.000000,1764344518.594884,0.000000
180.000000,24424.891105,23977.230367,14964.291747,20351.688010,27989.323794,-4095.219564,-9688.944780,18317.567506,25347.973448,21929.274133,4819.706657,-6721.638944,21964.344020,20878.786847,-2348.430735,5363.390489,0.008000,-0.014000,1.012000,192.000000,0.000000,0.000000,0.000000,0.000000,0.000000,0.000000,0.000000,0.000000,0.000000,1764344518.602885,0.000000
182.000000,24422.074785,23972.894129,14947.326773,20346.435350,28020.415070,-4121.326401,-9722.494748,18309.364415,25326.806346,21923.932066,4819.930174,-6720.722523,21958.577270,20871.410772,-2352.610511,5374.298140,0.006000,-0.012000,1.010000,192.000000,0.000000,24.000000,127.500000,80.000000,15.500000,72.000000,0.000000,0.000000,0.000000,1764344518.610934,0.000000
184.000000,24432.580105,23987.199245,14962.302442,20353.766722,28009.507419,-4099.086416,-9697.594905,18318.886258,25435.167603,21938.974790,4811.592974,-6733.664183,21974.134084,20873.109504,-2356.387956,5399.667370,0.006000,-0.012000,1.010000,192.000000,0.000000,0.000000,0.000000,0.000000,0.000000,0.000000,0.000000,0.000000,0.000000,1764344518.620021,0.000000
186.000000,24443.197184,23990.037917,14959.396715,20353.476149,28003.740669,-4096.471262,-9702.288771,18318.550982,25294.753944,21935.398511,4833.430628,-6700.136566,21965.439256,20891.661452,-2346.575540,5350.024146,0.006000,-0.012000,1.010000,192.000000,0.000000,0.000000,0.000000,0.000000,0.000000,0.000000,0.000000,0.000000,0.000000,1764344518.627046,0.000000
188.000000,24440.246754,23985.165237,14956.982727,20349.430484,28032.909695,-4110.441102,-9718.829062,18314.460613,25429.490260,21942.416959,4813.135244,-6735.742895,21979.565558,20872.573062,-2352.319938,5412.989010,0.006000,-0.012000,1.010000,192.000000,0.000000,0.000000,0.000000,0.000000,0.000000,0.000000,0.000000,0.000000,0.000000,1764344518.635016,0.000000
190.000000,24448.449844,24002.599597,14970.058497,20357.164187,28004.187704,-4079.461584,-9687.938951,18323.602477,25364.178463,21943.355732,4827.239195,-6711.848880,21978.000936,20889.918016,-2342.082839,5368.285521,0.006000,-0.012000,1.010000,192.000000,0.000000,0.000000,0.000000,0.000000,0.000000,0.000000,0.000000,0.000000,0.000000,1764344518.643095,0.000000
192.000000,24434.636466,23988.875626,14952.244157,20347.776454,28024.326625,-4109.032942,-9724.014667,18311.130203,25336.708169,21936.404340,4823.171177,-6717.593279,21967.920300,20882.296071,-2342.216950,5382.657693,0.008000,-0.016000,1.012000,192.000000,0.000000,32.000000,127.500000,64.000000,15.500000,80.000000,0.000000,0.000000,0.000000,1764344518.651054,0.000000
194.000000,24447.376960,24000.096202,14968.158599,20354.794902,28012.860180,-4087.195288,-9697.863126,18321.456709,25442.007237,21945.635610,4812.375285,-6733.977107,21985.466419,20877.065763,-2346.284967,5405.925859,0.008000,-0.016000,1.012000,192.000000,0.000000,0.000000,0.000000,0.000000,0.000000,0.000000,0.000000,0.000000,0.000000,1764344518.659105,0.000000
196.000000,24428.847364,23992.921292,14958.212073,20350.279850,27997.035145,-4099.712265,-9706.312085,18314.773537,25289.970671,21936.359636,4832.491855,-6701.991761,21965.886291,20890.655624,-2340.786438,5355.321509,0.008000,-0.016000,1.012000,192.000000,0.000000,0.000000,0.000000,0.000000,0.000000,0.000000,0.000000,0.000000,0.000000,1764344518.667116,0.000000
198.000000,24436.804585,23990.037917,14956.312174,20346.681219,28024.192515,-4115.023209,-9719.343152,18313.097157,25419.946065,21938.259535,4810.140110,-6739.185064,21975.296375,20865.062876,-2350.397688,5416.453530,0.008000,-0.016000,1.012000,192.000000,0.000000,0.000000,0.000000,0.000000,0.000000,0.000000,0.000000,0.000000,0.000000,1764344518.675161,0.000000
200.000000,24436.134033,23986.282824,14970.483180,20353.856129,27990.441381,-4087.396453,-9686.799012,18321.993151,25357.495291,21937.879555,4826.412180,-6716.878023,21972.368297,20882.899568,-2347.000223,5364.888056,0.008000,-0.016000,1.012000,192.000000,0.000000,0.000000,0.000000,0.000000,0.000000,0.000000,0.000000,0.000000,0.000000,1764344518.682181,0.000000
202.000000,24431.976608,23984.852312,14955.351049,20345.295411,28016.659977,-4114.062084,-9720.550146,18314.684131,25330.293218,21931.375197,4824.311116,-6714.620497,21963.159378,20877.557502,-2344.653290,5382.277713,0.004000,-0.014000,1.008000,192.000000,0.000000,16.000000,127.500000,72.000000,15.500000,64.000000,0.000000,0.000000,0.000000,1764344518.691244,0.000000
204.000000,24452.227289,23993.636548,14968.516227,20350.101036,28005.081773,-4097.946477,-9695.762062,18321.702578,25436.642818,21941.880517,4813.157596,-6730.222014,21973.530587,20872.327193,-2350.844723,5404.540051,0.004000,-0.014000,1.008000,192.000000,0.000000,0.000000,0.000000,0.000000,0.000000,0.000000,0.000000,0.000000,0.000000,1764344518.699265,0.000000
206.000000,24434.077672,23989.121495,14961.833055,20347.977620,27992.609500,-4104.495538,-9700.612390,18319.020369,25290.551816,21931.598715,4831.553081,-6703.019941,21958.890195,20883.972452,-2343.960386,5349.934739,0.004000,-0.014000,1.008000,192.000000,0.000000,0.000000,0.000000,0.000000,0.000000,0.000000,0.000000,0.000000,0.000000,1764344518.707260,0.000000
208.000000,24444.024199,23993.189513,14960.380192,20346.167129,28024.885419,-4118.510082,-9714.269306,18321.054378,25425.154021,21936.873726,4814.074017,-6737.575738,21969.686087,20863.453551,-2351.939959,5410.887946,0.004000,-0.014000,1.008000,192.000000,0.000000,0.000000,0.000000,0.000000,0.000000,0.000000,0.000000,0.000000,0.000000,1764344518.714321,0.000000
210.000000,24446.751111,23995.491743,14973.210093,20353.274984,27986.082791,-4092.582058,-9682.708643,18328.273991,25354.164881,21941.254668,4830.211977,-6707.043255,21969.909605,20882.296071,-2345.748525,5361.267073,0.004000,-0.014000,1.008000,192.000000,0.000000,0.000000,0.000000,0.000000,0.000000,0.000000,0.000000,0.000000,0.000000,1764344518.723390,0.000000
212.000000,24418.677320,23988.965033,14956.468637,20344.513100,28015.855314,-4115.134968,-9718.337323,18317.276933,25327.231029,21931.084625,4826.993326,-6713.994648,21960.745390,20872.282490,-2349.548322,5381.405995,0.006000,-0.016000,1.008000,192.000000,0.000000,24.000000,127.500000,64.000000,15.500000,64.000000,0.000000,0.000000,0.000000,1764344518.731355,0.000000
214.000000,24445.141786,23998.732745,14973.902997,20354.236109,28015.587093,-4087.284695,-9691.492878,18329.793910,25438.565068,21946.574384,4818.879642,-6727.159825,21976.816294,20872.349545,-2351.403517,5407.311667,0.006000,-0.016000,1.008000,192.000000,0.000000,0.000000,0.000000,0.000000,0.000000,0.000000,0.000000,0.000000,0.000000,1764344518.738408,0.000000
216.000000,24437.050454,23992.831885,14963.844712,20349.989277,27998.108029,-4098.371160,-9699.874783,18321.702578,25290.752982,21936.672561,4836.984555,-6698.616648,21962.868805,20888.889836,-2340.428810,5356.059117,0.006000,-0.016000,1.008000,192.000000,0.000000,0.000000,0.000000,0.000000,0.000000,0.000000,0.000000,0.000000,0.000000,1764344518.747424,0.000000
218.000000,24438.078635,23992.250740,14961.631890,20347.999972,28031.009797,-4109.792901,-9713.934030,18320.406177,25424.729338,21940.897040,4814.074017,-6731.116084,21974.894044,20868.750914,-2347.760182,5418.576946,0.006000,-0.016000,1.008000,192.000000,0.000000,0.000000,0.000000,0.000000,0.000000,0.000000,0.000000,0.000000,0.000000,1764344518.755461,0.000000
220.000000,24437.721007,24002.420783,14973.612425,20356.538338,27996.141076,-4085.474203,-9682.418070,18326.888183,25355.170710,21943.445139,4827.797988,-6708.920802,21972.927090,20884.955929,-2343.513351,5370.721861,0.006000,-0.016000,1.008000,192.000000,0.000000,0.000000,0.000000,0.000000,0.000000,0.000000,0.000000,0.000000,0.000000,1764344518.762486,0.000000
222.000000,24438.592725,23992.474257,14956.133360,20346.345943,28025.175992,-4112.206890,-9718.203213,18315.868773,25334.316532,21936.717264,4823.327639,-6716.945078,21970.155474,20876.976356,-2346.933168,5384.982274,0.007000,-0.014000,1.009000,192.000000,0.000000,32.000000,127.500000,80.000000,15.500000,72.000000,0.000000,0.000000,0.000000,1764344518.770492,0.000000
224.000000,24442.616039,24000.275016,14970.438477,20356.001896,28017.554047,-4086.122404,-9691.694044,18325.323561,25435.636990,21947.848433,4811.972953,-6729.171482,21977.777419,20875.232920,-2351.403517,5408.697475,0.007000,-0.014000,1.009000,192.000000,0.000000,0.000000,0.000000,0.000000,0.000000,0.000000,0.000000,0.000000,0.000000,1764344518.778494,0.000000
226.000000,24436.290495,23990.373193,14964.179988,20353.319687,28006.601692,-4090.056311,-9698.287809,18321.255543,25292.094087,21942.126386,4836.045782,-6696.560287,21965.014573,20893.226074,-2340.540569,5352.974576,0.007000,-0.014000,1.009000,192.000000,0.000000,0.000000,0.000000,0.000000,0.000000,0.000000,0.000000,0.000000,0.000000,1764344518.790546,0.000000
228.000000,24438.100986,23989.881455,14958.457942,20347.687047,28027.277056,-4106.864823,-9716.906812,18316.092290,25422.941199,21942.819290,4809.782482,-6734.424142,21971.608337,20869.577929,-2350.554150,5416.207661,0.007000,-0.014000,1.009000,192.000000,0.000000,0.000000,0.000000,0.000000,0.000000,0.000000,0.000000,0.000000,0.000000,1764344518.796593,0.000000
230.000000,24442.124300,23994.530618,14969.745573,20354.817254,27989.949642,-4086.435328,-9685.748480,18322.574296,25356.131835,21940.651171,4823.104122,-6712.497081,21968.859073,20882.229016,-2346.709650,5372.085318,0.007000,-0.014000,1.009000,192.000000,0.000000,0.000000,0.000000,0.000000,0.000000,0.000000,0.000000,0.000000,0.000000,1764344518.803633,0.000000
232.000000,24429.696730,23986.953376,14955.686326,20345.921260,28023.030224,-4112.542166,-9719.365504,18315.824069,25331.209639,21932.604543,4822.344163,-6719.359066,21964.880462,20874.271795,-2345.145028,5384.378777,0.005500,-0.015000,1.011500,192.000000,0.000000,16.000000,127.500000,64.000000,15.500000,88.000000,0.000000,0.000000,0.000000,1764344518.811629,0.000000
234.000000,24446.661704,24000.654996,14966.683384,20350.816292,28011.653186,-4093.632590,-9695.717358,18321.367302,25436.240487,21943.154567,4811.905898,-6734.133569,21977.643308,20870.851978,-2346.754354,5410.127987,0.005500,-0.015000,1.011500,192.000000,0.000000,0.000000,0.000000,0.000000,0.000000,0.000000,0.000000,0.000000,0.000000,1764344518.818725,0.000000
236.000000,24429.987303,23993.502437,14958.524997,20347.932917,27993.101238,-4099.421692,-9702.579344,18314.125337,25288.406049,21932.492785,4827.932099,-6707.400883,21962.980564,20884.598301,-2339.400630,5357.579035,0.005500,-0.015000,1.011500,192.000000,0.000000,0.000000,0.000000,0.000000,0.000000,0.000000,0.000000,0.000000,0.000000,1764344518.826684,0.000000
238.000000,24434.211783,23980.717239,14960.871930,20344.334286,28022.203210,-4114.687933,-9716.146853,18314.639427,25419.230809,21935.130290,4808.754302,-6739.185064,21974.514064,20864.146455,-2348.140162,5415.402998,0.005500,-0.015000,1.011500,192.000000,0.000000,0.000000,0.000000,0.000000,0.000000,0.000000,0.000000,0.000000,0.000000,1764344518.834685,0.000000
240.000000,24447.175795,23997.324586,14976.764021,20356.784207,27991.827189,-4081.383834,-9682.105146,18327.625791,25356.712980,21936.918430,4827.060381,-6708.943153,21977.866826,20882.474885,-2341.300528,5367.190286,0.005500,-0.015000,1.011500,192.000000,0.000000,0.000000,0.000000,0.000000,0.000000,0.000000,0.000000,0.000000,0.000000,1764344518.843709,0.000000
242.000000,24451.176757,24000.945568,14960.268433,20350.436312,28019.833925,-4108.138872,-9716.459777,18322.574296,25341.536145,21937.656038,4829.988459,-6710.418369,21977.240977,20882.385478,-2340.182941,5378.924951,0.004750,-0.015500,1.011750,192.000000,0.000000,16.000000,127.500000,64.000000,15.500000,80.000000,0.000000,0.000000,0.000000,1764344518.850717,0.000000
244.000000,24454.395408,24003.024280,14972.316023,20356.270117,28009.641529,-4090.950381,-9692.051672,18332.632581,25447.908097,21952.095264,4820.913651,-6725.192872,21987.701593,20877.646908,-2347.067278,5411.670257,0.004750,-0.015500,1.011750,192.000000,0.000000,0.000000,0.000000,0.000000,0.000000,0.000000,0.000000,0.000000,0.000000,1764344518.858793,0.000000
246.000000,24438.369207,23997.369289,14966.191645,20352.537376,27997.236311,-4098.505270,-9696.857297,18328.989247,25301.079488,21935.063235,4840.985518,-6694.034540,21972.256538,20889.247464,-2338.372450,5355.768544,0.004750,-0.015500,1.011750,192.000000,0.000000,0.000000,0.000000,0.000000,0.000000,0.000000,0.000000,0.000000,0.000000,1764344518.866853,0.000000
248.000000,24439.933829,23994.508266,14965.766962,20349.274021,28025.019529,-4108.563555,-9710.290695,18328.922192,25429.959646,21941.388779,4824.065247,-6729.640869,21982.627747,20868.482693,-2350.241226,5416.095902,0.004750,-0.015500,1.011750,192.000000,0.000000,0.000000,0.000000,0.000000,0.000000,0.000000,0.000000,0.000000,0.000000,1764344518.876953,0.000000
250.000000,24450.774425,24000.789106,14979.155657,20357.477112,27992.251872,-4085.563610,-9677.880666,18336.700599,25366.659506,21944.138043,4840.113800,-6702.975238,21983.991204,20886.945234,-2344.809752,5364.731594,0.004750,-0.015500,1.011750,192.000000,0.000000,0.000000,0.000000,0.000000,0.000000,0.000000,0.000000,0.000000,0.000000,1764344518.883933,0.000000
252.000000,24446.661704,23991.870760,14964.291747,20350.212795,28020.571532,-4111.715151,-9712.771739,18329.570392,25341.938477,21937.834851,4837.588052,-6704.942191,21976.950404,20878.183350,-2345.837932,5378.902600,0.003375,-0.012750,1.008875,192.000000,0.000000,8.000000,127.500000,88.000000,15.500000,56.000000,0.000000,0.000000,0.000000,1764344518.891225,0.000000
254.000000,24469.035801,24008.679272,14980.876742,20358.393533,28016.861143,-4093.520831,-9687.804841,18338.600497,25449.539775,21950.843567,4825.786331,-6719.783750,21993.401288,20876.819894,-2346.977871,5404.294181,0.003375,-0.012750,1.008875,192.000000,0.000000,0.000000,0.000000,0.000000,0.000000,0.000000,0.000000,0.000000,0.000000,1764344518.899950,0.000000
0.000000,24456.719989,24003.895998,14970.885512,20353.274984,28001.930177,-4097.678256,-9696.611428,18329.503337,25308.164991,21947.669619,4846.081715,-6689.430081,21981.979547,20894.678938,-2338.350098,5351.208788,0.003375,-0.012750,1.008875,192.000000,0.000000,0.000000,0.000000,0.000000,0.000000,0.000000,0.000000,0.000000,0.000000,1764344518.906973,0.000000
2.000000,24431.820146,24000.118554,14967.420991,20347.932917,28029.311064,-4116.185500,-9713.755216,18323.736587,25427.612713,21944.987410,4818.186738,-6727.450398,21988.618015,20869.443818,-2344.027441,5420.499196,0.003375,-0.012750,1.008875,192.000000,0.000000,0.000000,0.000000,0.000000,0.000000,0.000000,0.000000,0.000000,0.000000,1764344518.914986,0.000000
4.000000,24438.637428,23994.463562,14977.702794,20354.660792,27991.693078,-4091.442119,-9682.574532,18324.876526,25359.350486,21939.220660,4832.693020,-6709.345485,21982.068954,20883.011327,-2340.406458,5373.202905,0.003375,-0.012750,1.008875,192.000000,0.000000,0.000000,0.000000,0.000000,0.000000,0.000000,0.000000,0.000000,0.000000,1764344518.922998,0.000000
6.000000,24428.109756,23984.092353,14961.117799,20345.049542,28017.554047,-4119.493558,-9716.750350,18316.740491,25327.432195,21929.408244,4825.585166,-6719.336715,21971.317765,20872.081324,-2341.121714,5382.858858,0.005687,-0.012375,1.011437,192.000000,0.000000,32.000000,127.500000,80.000000,15.500000,88.000000,0.000000,0.000000,0.000000,1764344518.931095,0.000000
8.000000,24447.019332,23994.172990,14977.166352,20352.604431,28015.542390,-4096.113634,-9691.291713,18326.016465,25439.906173,21940.829985,4815.035142,-6728.411523,21992.551922,20870.226129,-2345.972043,5407.781054,0.005687,-0.012375,1.011437,192.000000,0.000000,0.000000,0.000000,0.000000,0.000000,0.000000,0.000000,0.000000,0.000000,1764344518.940059,0.000000
10.000000,24439.933829,24004.946530,14971.310195,20354.549033,28003.852427,-4095.197212,-9696.320855,18323.513070,25292.719936,21934.616200,4836.336355,-6697.186136,21977.598605,20888.286339,-2335.757296,5353.935701,0.005687,-0.012375,1.011437,192.000000,0.000000,0.000000,0.000000,0.000000,0.000000,0.000000,0.000000,0.000000,0.000000,1764344518.947085,0.000000
12.000000,24448.807472,24006.689967,14967.845674,20352.470321,28037.357692,-4102.260363,-9712.078835,18321.277895,25429.445556,21946.283811,4817.382075,-6730.870215,21994.317710,20873.891815,-2346.977871,5416.811158,0.005687,-0.012375,1.011437,192.000000,0.000000,0.000000,0.000000,0.000000,0.000000,0.000000,0.000000,0.000000,0.000000,1764344518.955132,0.000000
14.000000,24465.817149,24006.980539,14980.340300,20357.566518,28004.701794,-4078.835735,-9681.054614,18326.150575,25369.788750,21951.625878,4829.474369,-6706.260944,21995.636463,20892.421412,-2337.858360,5369.023129,0.005687,-0.012375,1.011437,192.000000,0.000000,0.000000,0.000000,0.000000,0.000000,0.000000,0.000000,0.000000,0.000000,1764344518.962142,0.000000
