Sample Index, EXG Channel 0, EXG Channel 1, EXG Channel 2, EXG Channel 3, EXG Channel 4, EXG Channel 5, EXG Channel 6, EXG Channel 7, EXG Channel 8, EXG Channel 9, EXG Channel 10, EXG Channel 11, EXG Channel 12, EXG Channel 13, EXG Channel 14, EXG Channel 15, Accel Channel 0, Accel Channel 1, Accel Channel 2, Not Used, Digital Channel 0 (D11), Digital Channel 1 (D12), Digital Channel 2 (D13), Digital Channel 3 (D17), Not Used, Digital Channel 4 (D18), Analog Channel 0, Analog Channel 1, Analog Channel 2, Timestamp, Marker Channel, Timestamp (Formatted)
252.000000,23843.566935,25205.369318,14463.590320,20629.654304,27097.220969,-3323.771456,-9784.833763,17522.180679,24632.538811,21886.381136,4504.725874,-6456.502552,21955.783302,20710.254694,-1248.210817,5266.339215,0.012000,-0.022000,1.008000,192.000000,0.000000,0.000000,0.000000,0.000000,0.000000,0.000000,0.000000,0.000000,0.000000,1764345234.834532,0.000000
254.000000,23848.394912,25204.698766,14458.717639,20622.233525,27124.959484,-3340.915244,-9803.922153,17518.336179,24724.695054,21881.888435,4485.324560,-6486.945628,21954.844529,20688.215874,-1259.431393,5323.291459,0.012000,-0.022000,1.008000,192.000000,0.000000,0.000000,0.000000,0.000000,0.000000,0.000000,0.000000,0.000000,0.000000,1764345234.842592,0.000000
0.000000,23855.569822,25210.443164,14477.560160,20631.733016,27106.452239,-3315.233089,-9774.775478,17528.461519,24709.026481,21889.778601,4500.814319,-6468.639549,21971.563634,20705.337310,-1252.502352,5282.365415,0.012000,-0.022000,1.008000,192.000000,0.000000,0.000000,0.000000,0.000000,0.000000,0.000000,0.000000,0.000000,0.000000,1764345234.850588,0.000000
2.000000,23843.030494,25196.495676,14462.897416,20618.165507,27111.771955,-3343.440991,-9803.139842,17512.770595,24652.342457,21875.629947,4499.562621,-6472.618159,21958.979602,20698.207104,-1250.445992,5287.998055,0.012000,-0.022000,1.008000,192.000000,0.000000,0.000000,0.000000,0.000000,0.000000,0.000000,0.000000,0.000000,0.000000,1764345234.857842,0.000000
4.000000,23844.930392,25200.921321,14479.080078,20624.289885,27116.778745,-3325.649002,-9786.107813,17521.018388,24766.716333,21882.044897,4488.945542,-6492.064177,21968.210872,20691.434525,-1255.609245,5312.249698,0.010000,-0.026000,1.008000,192.000000,0.000000,40.000000,127.500000,24.000000,15.500000,64.000000,0.000000,0.000000,0.000000,1764345234.866651,0.000000
6.000000,23823.986807,25184.403382,14471.614596,20624.088719,27097.131562,-3328.353563,-9784.789060,17514.022292,24630.907134,21878.736839,4501.708389,-6465.666767,21957.727904,20705.963159,-1241.952329,5261.913569,0.010000,-0.026000,1.008000,192.000000,0.000000,0.000000,0.000000,0.000000,0.000000,0.000000,0.000000,0.000000,0.000000,1764345234.874713,0.000000
8.000000,23801.657415,25162.521024,14458.717639,20617.383196,27121.584370,-3343.798619,-9805.263258,17503.136993,24712.267484,21869.304403,4476.093289,-6496.914506,21957.035000,20690.585159,-1256.391556,5311.199166,0.010000,-0.026000,1.008000,192.000000,0.000000,0.000000,0.000000,0.000000,0.000000,0.000000,0.000000,0.000000,0.000000,1764345234.882691,0.000000
10.000000,23785.519455,25148.282963,14472.531017,20631.375388,27105.602873,-3312.752046,-9774.686071,17513.552906,24681.600890,21871.450170,4480.720100,-6485.313950,21960.298355,20706.812526,-1254.782230,5281.180773,0.010000,-0.026000,1.008000,192.000000,0.000000,0.000000,0.000000,0.000000,0.000000,0.000000,0.000000,0.000000,0.000000,1764345234.889759,0.000000
12.000000,23746.917992,25113.682462,14453.353221,20619.618370,27118.388071,-3333.986203,-9803.564525,17495.112717,24624.201611,21861.414237,4480.965970,-6483.995197,21956.051523,20710.142936,-1251.027137,5275.056395,0.010000,-0.026000,1.008000,192.000000,0.000000,0.000000,0.000000,0.000000,0.000000,0.000000,0.000000,0.000000,0.000000,1764345234.898729,0.000000
14.000000,23723.515716,25091.174256,14463.992651,20624.222830,27118.745699,-3315.993049,-9790.287589,17495.760917,24721.588161,21850.461882,4457.787211,-6513.052465,21963.159378,20696.307206,-1259.721966,5313.747265,0.006000,-0.020000,1.004000,192.000000,0.000000,24.000000,127.500000,48.000000,15.500000,48.000000,0.000000,0.000000,0.000000,1764345234.906902,0.000000
16.000000,23697.677099,25069.113084,14461.310442,20620.378330,27100.149047,-3320.150473,-9789.929961,17487.602530,24577.978203,21833.988647,4468.136068,-6496.623933,21951.223546,20707.438374,-1244.835704,5266.585084,0.006000,-0.020000,1.004000,192.000000,0.000000,0.000000,0.000000,0.000000,0.000000,0.000000,0.000000,0.000000,0.000000,1764345234.913853,0.000000
18.000000,23701.700413,25065.469750,14460.371668,20614.455118,27133.833126,-3326.923052,-9807.654894,17483.623920,24671.989640,21831.954638,4451.618129,-6520.920279,21953.458721,20694.094383,-1254.290492,5316.362419,0.006000,-0.020000,1.004000,192.000000,0.000000,0.000000,0.000000,0.000000,0.000000,0.000000,0.000000,0.000000,0.000000,1764345234.922854,0.000000
20.000000,23716.989007,25080.579529,14473.670956,20623.865202,27109.626187,-3305.286563,-9780.274007,17493.749260,24659.070332,21841.275315,4461.318786,-6506.726921,21965.752180,20707.997168,-1248.367280,5284.265314,0.006000,-0.020000,1.004000,192.000000,0.000000,0.000000,0.000000,0.000000,0.000000,0.000000,0.000000,0.000000,0.000000,1764345234.930920,0.000000
22.000000,23723.046329,25081.205378,14457.197721,20612.979902,27120.980873,-3333.226244,-9807.029045,17486.037908,24605.873180,21841.498833,4465.543266,-6504.067064,21958.510215,20703.102136,-1247.361451,5285.382901,0.006000,-0.020000,1.004000,192.000000,0.000000,0.000000,0.000000,0.000000,0.000000,0.000000,0.000000,0.000000,0.000000,1764345234.937884,0.000000
24.000000,23742.894678,25101.903093,14464.663203,20618.880763,27117.471649,-3319.256403,-9793.707406,17493.302225,24728.248981,21848.316115,4454.590911,-6520.428541,21967.339154,20694.452011,-1255.452783,5314.283706,0.008000,-0.020000,1.004000,192.000000,0.000000,32.000000,127.500000,48.000000,15.500000,48.000000,0.000000,0.000000,0.000000,1764345234.945904,0.000000
26.000000,23752.125949,25111.648454,14462.271567,20618.523135,27103.814733,-3326.386610,-9790.533458,17495.895028,24606.990767,21849.523109,4474.573371,-6489.426671,21961.639459,20709.002997,-1249.104887,5267.255636,0.008000,-0.020000,1.004000,192.000000,0.000000,0.000000,0.000000,0.000000,0.000000,0.000000,0.000000,0.000000,0.000000,1764345234.954953,0.000000
28.000000,23756.551594,25118.376329,14455.029601,20608.710719,27129.228667,-3340.803485,-9811.611153,17488.563655,24706.277216,21857.547385,4461.899932,-6512.158395,21966.087456,20691.188656,-1251.295358,5310.930945,0.008000,-0.020000,1.004000,192.000000,0.000000,0.000000,0.000000,0.000000,0.000000,0.000000,0.000000,0.000000,0.000000,1764345234.963021,0.000000
30.000000,23774.097714,25131.452099,14475.369689,20624.535754,27107.525123,-3309.645153,-9780.877504,17503.002882,24683.947824,21862.017734,4469.924208,-6500.848413,21968.367334,20704.689110,-1245.975643,5283.617113,0.008000,-0.020000,1.004000,192.000000,0.000000,0.000000,0.000000,0.000000,0.000000,0.000000,0.000000,0.000000,0.000000,1764345234.969998,0.000000
32.000000,23780.311499,25136.302428,14464.484389,20613.493993,27117.091670,-3333.449761,-9806.380845,17494.285702,24636.807994,21857.301516,4479.267237,-6494.098186,21963.740523,20699.704671,-1246.512085,5279.929075,0.008000,-0.020000,1.004000,192.000000,0.000000,0.000000,0.000000,0.000000,0.000000,0.000000,0.000000,0.000000,0.000000,1764345234.978037,0.000000
34.000000,23786.190007,25143.946724,14472.463962,20618.858411,27116.063489,-3329.717020,-9792.835688,17500.477135,24754.646391,21866.510435,4471.108850,-6512.136044,21976.481018,20692.082726,-1251.854152,5305.432416,0.008000,-0.020000,1.002000,192.000000,0.000000,32.000000,127.500000,48.000000,15.500000,40.000000,0.000000,0.000000,0.000000,1764345234.988090,0.000000
36.000000,23791.487371,25149.087626,14466.406639,20619.707777,27097.153914,-3327.794770,-9790.287589,17502.287627,24623.374596,21859.894319,4485.279856,-6488.264380,21960.365410,20701.068127,-1245.573312,5260.527761,0.008000,-0.020000,1.002000,192.000000,0.000000,0.000000,0.000000,0.000000,0.000000,0.000000,0.000000,0.000000,0.000000,1764345234.995149,0.000000
38.000000,23802.931464,25158.832986,14455.275471,20614.075138,27120.444431,-3340.356450,-9810.225345,17500.387728,24719.844725,21866.353973,4472.718176,-6507.531584,21961.505349,20689.266406,-1256.503315,5311.087407,0.008000,-0.020000,1.002000,192.000000,0.000000,0.000000,0.000000,0.000000,0.000000,0.000000,0.000000,0.000000,0.000000,1764345235.002112,0.000000
40.000000,23821.192839,25178.681335,14475.168523,20629.564897,27111.883713,-3308.974601,-9777.658853,17521.331313,24703.013862,21875.495836,4487.649141,-6486.342130,21970.066067,20705.650235,-1253.374070,5285.517011,0.008000,-0.020000,1.002000,192.000000,0.000000,0.000000,0.000000,0.000000,0.000000,0.000000,0.000000,0.000000,0.000000,1764345235.010125,0.000000
42.000000,23810.933389,25173.249861,14458.449418,20615.170373,27119.930341,-3332.868616,-9805.844403,17509.417833,24651.604849,21873.730048,4494.533479,-6478.317854,21964.344020,20707.013691,-1248.210817,5286.567543,0.008000,-0.020000,1.002000,192.000000,0.000000,0.000000,0.000000,0.000000,0.000000,0.000000,0.000000,0.000000,0.000000,1764345235.019225,0.000000
44.000000,23825.551429,25186.571501,14473.380384,20621.004179,27122.143164,-3325.671354,-9789.997016,17521.577182,24766.425761,21882.201360,4483.961103,-6496.154546,21969.909605,20697.357738,-1248.099059,5316.407122,0.004000,-0.020000,1.008000,192.000000,0.000000,16.000000,127.500000,48.000000,15.500000,64.000000,0.000000,0.000000,0.000000,1764345235.027203,0.000000
46.000000,23825.260857,25190.661870,14471.368727,20622.255876,27107.502771,-3315.814235,-9786.376034,17520.817223,24640.853660,21884.548293,4505.597592,-6464.124496,21970.468398,20717.116680,-1242.309957,5259.678395,0.004000,-0.020000,1.008000,192.000000,0.000000,0.000000,0.000000,0.000000,0.000000,0.000000,0.000000,0.000000,0.000000,1764345235.034174,0.000000
48.000000,23822.221020,25181.005917,14458.963508,20610.901190,27125.093594,-3341.384630,-9809.420682,17509.842516,24727.757243,21879.474447,4483.424662,-6494.858145,21962.935861,20695.480191,-1249.842495,5311.936773,0.004000,-0.020000,1.008000,192.000000,0.000000,0.000000,0.000000,0.000000,0.000000,0.000000,0.000000,0.000000,0.000000,1764345235.043266,0.000000
50.000000,23843.432825,25200.429583,14479.840038,20626.972094,27113.001300,-3307.141758,-9776.340100,17530.026141,24715.195562,21886.582301,4497.059226,-6477.736709,21973.999974,20709.204162,-1246.690899,5283.840631,0.004000,-0.020000,1.008000,192.000000,0.000000,0.000000,0.000000,0.000000,0.000000,0.000000,0.000000,0.000000,0.000000,1764345235.050223,0.000000
52.000000,23833.128671,25193.791115,14463.947947,20615.729167,27121.159687,-3330.231110,-9803.720987,17516.838612,24662.400742,21882.804857,4502.893031,-6470.584151,21970.557805,20710.969950,-1235.827951,5280.398462,0.004000,-0.020000,1.008000,192.000000,0.000000,0.000000,0.000000,0.000000,0.000000,0.000000,0.000000,0.000000,0.000000,1764345235.058331,0.000000
54.000000,23842.829328,25195.646309,14477.917788,20622.814670,27123.528972,-3322.184482,-9788.074766,17524.617019,24777.467522,21884.525941,4489.504336,-6494.187593,21979.185579,20701.559866,-1249.328405,5314.574279,0.004000,-0.020000,1.002000,192.000000,0.000000,16.000000,127.500000,48.000000,15.500000,40.000000,0.000000,0.000000,0.000000,1764345235.066334,0.000000
56.000000,23831.340531,25189.656042,14474.788544,20621.942952,27107.748641,-3321.223357,-9785.549019,17520.996037,24650.487262,21876.836941,4505.351723,-6471.411165,21972.234186,20712.735738,-1239.806561,5268.552037,0.004000,-0.020000,1.002000,192.000000,0.000000,0.000000,0.000000,0.000000,0.000000,0.000000,0.000000,0.000000,0.000000,1764345235.075357,0.000000
58.000000,23837.219040,25194.506370,14464.842017,20617.316141,27126.322940,-3336.087267,-9804.525650,17517.866792,24741.928249,21879.407391,4491.314827,-6493.047654,21975.050506,20701.761031,-1249.998957,5318.105855,0.004000,-0.020000,1.002000,192.000000,0.000000,0.000000,0.000000,0.000000,0.000000,0.000000,0.000000,0.000000,0.000000,1764345235.082417,0.000000
60.000000,23840.974133,25204.095269,14476.375517,20632.604734,27099.746716,-3318.116464,-9774.239036,17532.283668,24720.828202,21887.610482,4502.133072,-6475.792107,21977.553901,20712.623979,-1252.323538,5286.433433,0.004000,-0.020000,1.002000,192.000000,0.000000,0.000000,0.000000,0.000000,0.000000,0.000000,0.000000,0.000000,0.000000,1764345235.090456,0.000000
62.000000,23835.095624,25196.987414,14459.790523,20622.948780,27115.057661,-3333.941499,-9800.100005,17520.638409,24664.859434,21879.362688,4505.284668,-6471.902904,21967.406209,20711.461688,-1250.244826,5278.789136,0.004000,-0.020000,1.002000,192.000000,0.000000,0.000000,0.000000,0.000000,0.000000,0.000000,0.000000,0.000000,0.000000,1764345235.099451,0.000000
64.000000,23851.568860,25209.884371,14470.944044,20633.208231,27120.891466,-3326.453665,-9784.185563,17532.820109,24785.312985,21890.382098,4495.785176,-6487.437366,21976.503369,20704.711462,-1257.173867,5313.456692,0.003000,-0.021000,1.007000,192.000000,0.000000,8.000000,127.500000,40.000000,15.500000,80.000000,0.000000,0.000000,0.000000,1764345235.106466,0.000000
66.000000,23856.441540,25214.891161,14474.274453,20635.532813,27105.357004,-3317.088284,-9778.463516,17536.217575,24662.110169,21892.729031,4517.913403,-6453.619177,21974.134084,20724.492755,-1246.445030,5259.320767,0.003000,-0.021000,1.007000,192.000000,0.000000,0.000000,0.000000,0.000000,0.000000,0.000000,0.000000,0.000000,0.000000,1764345235.114485,0.000000
68.000000,23847.947877,25207.425679,14463.165636,20625.988618,27123.730138,-3327.683011,-9801.061130,17525.645199,24749.997228,21894.360709,4500.099063,-6477.088508,21973.709401,20711.528744,-1260.034890,5308.896936,0.003000,-0.021000,1.007000,192.000000,0.000000,0.000000,0.000000,0.000000,0.000000,0.000000,0.000000,0.000000,0.000000,1764345235.124540,0.000000
70.000000,23853.178186,25215.137030,14480.398831,20637.119786,27101.557207,-3302.090264,-9771.467420,17537.469272,24726.192621,21899.166334,4504.301191,-6466.918465,21975.050506,20722.414043,-1257.777364,5278.744433,0.003000,-0.021000,1.007000,192.000000,0.000000,0.000000,0.000000,0.000000,0.000000,0.000000,0.000000,0.000000,0.000000,1764345235.130540,0.000000
72.000000,23842.203479,25204.028214,14461.466904,20623.239353,27111.056699,-3331.013421,-9800.234115,17523.298266,24662.847777,21889.353918,4504.703522,-6464.146848,21968.590852,20718.010750,-1255.363376,5279.683206,0.003000,-0.021000,1.007000,192.000000,0.000000,0.000000,0.000000,0.000000,0.000000,0.000000,0.000000,0.000000,0.000000,1764345235.137561,0.000000
74.000000,23849.400741,25213.013615,14471.659299,20629.631952,27116.510524,-3318.205871,-9786.286627,17531.233136,24776.931080,21893.287825,4488.744377,-6486.967979,21973.374125,20703.839744,-1262.672396,5314.842500,0.005500,-0.023500,1.010500,192.000000,0.000000,32.000000,127.500000,24.000000,15.500000,88.000000,0.000000,0.000000,0.000000,1764345235.146627,0.000000
76.000000,23847.299677,25211.381937,14472.218093,20628.559068,27096.863341,-3317.222395,-9783.693824,17529.534403,24656.522233,21895.455944,4512.124301,-6455.206150,21971.608337,20727.689055,-1252.815277,5265.355738,0.005500,-0.023500,1.010500,192.000000,0.000000,0.000000,0.000000,0.000000,0.000000,0.000000,0.000000,0.000000,0.000000,1764345235.154685,0.000000
78.000000,23846.651476,25209.169115,14465.177293,20623.418167,27119.505658,-3331.147531,-9804.078615,17524.594668,24744.677513,21893.667804,4493.415891,-6483.503459,21967.339154,20709.360624,-1251.764745,5312.517919,0.005500,-0.023500,1.010500,192.000000,0.000000,0.000000,0.000000,0.000000,0.000000,0.000000,0.000000,0.000000,0.000000,1764345235.161659,0.000000
80.000000,23856.732113,25217.260446,14485.293863,20636.292772,27103.524161,-3302.090264,-9773.099097,17539.257412,24733.948676,21908.464659,4508.056284,-6463.811572,21978.492675,20727.689055,-1250.289530,5289.272104,0.005500,-0.023500,1.010500,192.000000,0.000000,0.000000,0.000000,0.000000,0.000000,0.000000,0.000000,0.000000,0.000000,1764345235.169697,0.000000
82.000000,23853.826386,25209.347929,14468.150075,20627.977923,27116.890504,-3316.328325,-9800.636447,17527.902726,24675.990602,21897.557008,4512.347819,-6462.090488,21972.345945,20725.006846,-1249.082535,5287.349854,0.005500,-0.023500,1.010500,192.000000,0.000000,0.000000,0.000000,0.000000,0.000000,0.000000,0.000000,0.000000,0.000000,1764345235.178711,0.000000
84.000000,23860.978944,25216.411080,14473.648605,20633.319990,27121.003225,-3316.574194,-9788.477098,17534.295325,24795.438325,21902.027357,4499.204993,-6483.369348,21983.566521,20715.373244,-1258.246751,5320.721009,0.004750,-0.023750,1.010250,192.000000,0.000000,16.000000,127.500000,32.000000,15.500000,72.000000,0.000000,0.000000,0.000000,1764345235.186740,0.000000
86.000000,23857.737941,25216.388728,14468.284186,20635.286943,27107.480420,-3316.931822,-9783.470307,17533.848290,24668.592175,21897.713470,4518.159272,-6456.524903,21980.057297,20727.286724,-1242.086439,5265.914531,0.004750,-0.023750,1.010250,192.000000,0.000000,0.000000,0.000000,0.000000,0.000000,0.000000,0.000000,0.000000,0.000000,1764345235.193779,0.000000
88.000000,23859.257860,25217.305150,14458.360011,20627.128557,27128.267542,-3327.481845,-9804.905630,17528.595630,24762.156577,21891.566740,4502.714217,-6481.178877,21982.806561,20711.528744,-1255.162210,5315.691866,0.004750,-0.023750,1.010250,192.000000,0.000000,0.000000,0.000000,0.000000,0.000000,0.000000,0.000000,0.000000,0.000000,1764345235.202791,0.000000
90.000000,23871.640727,25229.062167,14479.080078,20640.226679,27115.884675,-3296.412921,-9773.814353,17546.745246,24744.856327,21901.356805,4511.811377,-6465.756174,21988.126277,20722.391691,-1251.027137,5290.926134,0.004750,-0.023750,1.010250,192.000000,0.000000,0.000000,0.000000,0.000000,0.000000,0.000000,0.000000,0.000000,0.000000,1764345235.210864,0.000000
92.000000,23864.130540,25220.367339,14464.953776,20627.441481,27125.965312,-3312.014438,-9800.748205,17535.770540,24691.927396,21900.909770,4523.769560,-6453.730935,21985.645233,20730.080692,-1249.507219,5284.891163,0.004750,-0.023750,1.010250,192.000000,0.000000,0.000000,0.000000,0.000000,0.000000,0.000000,0.000000,0.000000,0.000000,1764345235.218904,0.000000
94.000000,23867.036267,25223.027196,14474.497971,20629.408435,27129.876868,-3308.840490,-9788.588856,17539.391522,24800.333357,21900.216866,4504.323543,-6479.323683,21989.176808,20714.188601,-1248.814314,5320.251622,0.004750,-0.023750,1.010250,192.000000,0.000000,0.000000,127.500000,40.000000,15.500000,80.000000,0.000000,0.000000,0.000000,1764345235.225911,0.000000
96.000000,23866.812750,25223.608342,14471.949872,20629.453138,27111.503734,-3305.510081,-9783.604417,17539.749150,24670.760294,21899.009871,4520.372095,-6452.546293,21977.285680,20729.052511,-1240.275948,5272.374186,0.004750,-0.023750,1.010250,192.000000,0.000000,0.000000,0.000000,0.000000,0.000000,0.000000,0.000000,0.000000,0.000000,1764345235.234888,0.000000
98.000000,23868.243261,25218.802717,14461.712773,20620.244219,27134.861307,-3324.531415,-9805.933810,17529.400293,24760.323734,21896.998214,4503.876508,-6477.714357,21978.403268,20711.595799,-1248.322576,5318.999925,0.004750,-0.023750,1.010250,192.000000,0.000000,0.000000,0.000000,0.000000,0.000000,0.000000,0.000000,0.000000,0.000000,1764345235.241982,0.000000
100.000000,23855.279250,25221.730795,14477.828381,20628.961400,27114.498867,-3307.879365,-9777.949426,17535.390560,24735.356836,21901.446212,4504.703522,-6469.734784,21982.247768,20722.235229,-1241.952329,5285.941694,0.004750,-0.023750,1.010250,192.000000,0.000000,0.000000,0.000000,0.000000,0.000000,0.000000,0.000000,0.000000,0.000000,1764345235.249974,0.000000
102.000000,23846.964401,25207.693900,14461.109276,20618.299618,27121.539667,-3323.905566,-9804.570354,17519.766691,24668.748637,21890.270339,4505.508185,-6469.377156,21970.088419,20717.250790,-1239.605396,5280.689035,0.004750,-0.023750,1.010250,192.000000,0.000000,0.000000,0.000000,0.000000,0.000000,0.000000,0.000000,0.000000,0.000000,1764345235.257996,0.000000
104.000000,23850.183052,25213.818278,14473.670956,20622.725263,27126.680568,-3315.188386,-9791.248714,17525.354627,24782.742534,21893.779563,4488.945542,-6491.818308,21977.486846,20707.974816,-1254.156381,5321.793893,0.004375,-0.020875,1.010125,192.000000,0.000000,16.000000,127.500000,56.000000,15.500000,72.000000,0.000000,0.000000,0.000000,1764345235.267001,0.000000
106.000000,23845.489186,25206.084574,14474.877951,20621.205344,27111.101402,-3314.651944,-9788.097118,17521.063092,24658.176262,21886.448191,4507.452787,-6468.728956,21972.413000,20719.553020,-1229.033021,5263.634654,0.004375,-0.020875,1.010125,192.000000,0.000000,0.000000,0.000000,0.000000,0.000000,0.000000,0.000000,0.000000,0.000000,1764345235.274024,0.000000
108.000000,23842.449348,25202.642405,14459.991689,20617.249086,27132.737891,-3334.165017,-9810.314752,17513.530554,24740.363627,21882.402525,4487.850307,-6496.132195,21966.065105,20701.403403,-1243.829875,5316.228308,0.004375,-0.020875,1.010125,192.000000,0.000000,0.000000,0.000000,0.000000,0.000000,0.000000,0.000000,0.000000,0.000000,1764345235.282115,0.000000
110.000000,23848.260802,25208.520914,14472.642776,20632.940010,27113.046004,-3301.330304,-9780.251656,17523.454729,24728.316036,21891.656147,4496.656894,-6479.770718,21977.866826,20716.110851,-1243.584006,5289.585029,0.004375,-0.020875,1.010125,192.000000,0.000000,0.000000,0.000000,0.000000,0.000000,0.000000,0.000000,0.000000,0.000000,1764345235.290124,0.000000
112.000000,23847.254973,25202.664757,14452.883834,20623.015836,27117.136373,-3321.759799,-9807.654894,17510.982455,24663.786550,21878.915653,4497.081577,-6478.206095,21964.142855,20714.702691,-1241.259425,5284.980569,0.004375,-0.020875,1.010125,192.000000,0.000000,0.000000,0.000000,0.000000,0.000000,0.000000,0.000000,0.000000,0.000000,1764345235.299149,0.000000
114.000000,23859.213157,25217.327501,14469.759401,20629.967228,27130.458013,-3308.236993,-9792.120432,17527.321580,24786.631738,21890.873836,4487.716197,-6493.159413,21977.799771,20709.964122,-1251.094192,5319.066980,0.004188,-0.018438,1.010063,192.000000,0.000000,16.000000,127.500000,64.000000,15.500000,72.000000,0.000000,0.000000,0.000000,1764345235.306132,0.000000
116.000000,23857.581479,25219.070938,14472.061631,20627.352074,27110.140277,-3308.438159,-9787.001882,17529.288534,24668.145140,21889.488028,4513.510110,-6462.761040,21979.587910,20724.805680,-1239.068954,5268.887313,0.004188,-0.018438,1.010063,192.000000,0.000000,0.000000,0.000000,0.000000,0.000000,0.000000,0.000000,0.000000,0.000000,1764345235.315184,0.000000
118.000000,23862.476511,25217.014577,14465.758439,20614.142193,27138.661103,-3330.566386,-9809.554793,17524.102929,24756.926269,21890.203284,4501.708389,-6487.929104,21985.421715,20708.667720,-1248.747259,5315.401294,0.004188,-0.018438,1.010063,192.000000,0.000000,0.000000,0.000000,0.000000,0.000000,0.000000,0.000000,0.000000,0.000000,1764345235.323188,0.000000
120.000000,23866.857453,25225.888220,14478.476581,20624.468699,27117.270484,-3308.840490,-9780.564580,17535.949354,24740.631847,21889.197456,4508.145691,-6477.937875,21985.108791,20711.416985,-1241.706460,5285.338197,0.004188,-0.018438,1.010063,192.000000,0.000000,0.000000,0.000000,0.000000,0.000000,0.000000,0.000000,0.000000,0.000000,1764345235.329216,0.000000
122.000000,23858.922584,25221.350815,14463.366802,20614.052786,27131.240324,-3332.667450,-9805.889106,17528.349761,24673.800132,21884.145961,4511.632563,-6469.555970,21976.704535,20708.667720,-1237.012593,5277.224514,0.004188,-0.018438,1.010063,192.000000,0.000000,0.000000,0.000000,0.000000,0.000000,0.000000,0.000000,0.000000,0.000000,1764345235.338249,0.000000
124.000000,23864.175244,25221.149650,14470.251139,20620.020702,27129.206315,-3321.715095,-9795.473194,17533.289496,24793.672537,21895.701813,4496.858060,-6486.208020,21982.247768,20701.336348,-1246.445030,5313.590802,0.005094,-0.019219,1.013031,192.000000,0.000000,24.000000,127.500000,48.000000,15.500000,96.000000,0.000000,0.000000,0.000000,1764345235.346306,0.000000
126.000000,23857.000334,25217.260446,14472.262796,20621.495917,27112.978949,-3311.746217,-9789.907609,17531.411950,24661.037285,21892.997252,4512.750150,-6459.274168,21975.631651,20719.977703,-1244.276910,5267.300340,0.005094,-0.019219,1.013031,192.000000,0.000000,0.000000,0.000000,0.000000,0.000000,0.000000,0.000000,0.000000,0.000000,1764345235.354326,0.000000
128.000000,23855.100436,25211.560751,14464.909073,20613.449289,27135.554211,-3335.327308,-9811.588801,17522.940638,24741.570621,21887.945758,4493.147670,-6486.520944,21972.144779,20701.068127,-1244.120448,5306.482948,0.005094,-0.019219,1.013031,192.000000,0.000000,0.000000,0.000000,0.000000,0.000000,0.000000,0.000000,0.000000,0.000000,1764345235.362312,0.000000
130.000000,23857.156796,25222.043720,14481.561122,20629.430786,27114.543571,-3310.874499,-9780.363414,17538.206880,24726.460841,21895.232427,4499.406159,-6473.668691,21975.586948,20712.936904,-1244.522780,5282.097194,0.005094,-0.019219,1.013031,192.000000,0.000000,0.000000,0.000000,0.000000,0.000000,0.000000,0.000000,0.000000,0.000000,1764345235.370425,0.000000
132.000000,23850.317162,25218.869772,14461.824532,20622.099414,27121.338501,-3332.712154,-9804.503298,17528.193298,24662.870128,21890.538560,4505.977572,-6464.325662,21968.814369,20716.669645,-1244.701593,5275.794003,0.005094,-0.019219,1.013031,192.000000,0.000000,0.000000,0.000000,0.000000,0.000000,0.000000,0.000000,0.000000,0.000000,1764345235.378452,0.000000
134.000000,23863.996430,25229.442147,14470.161732,20633.252935,27124.668911,-3319.144645,-9788.857077,17538.497453,24780.172083,21899.747479,4492.968856,-6483.503459,21973.754105,20712.668683,-1255.832762,5308.114625,0.005094,-0.019219,1.013031,192.000000,0.000000,0.000000,0.000000,0.000000,0.000000,0.000000,0.000000,0.000000,0.000000,1764345235.385465,0.000000
136.000000,23855.793340,25221.529629,14464.327927,20635.845737,27100.529027,-3311.075665,-9785.280798,17532.596592,24655.583460,21896.528828,4511.587860,-6455.787296,21969.328459,20731.354741,-1250.445992,5260.885389,0.008000,-0.020000,1.008000,192.000000,0.000000,32.000000,127.500000,48.000000,15.500000,64.000000,0.000000,0.000000,0.000000,1764345235.394436,0.000000
138.000000,23853.446407,25217.260446,14452.503854,20628.447310,27119.125678,-3328.532377,-9807.878412,17524.102929,24732.451109,21886.403487,4489.571391,-6488.622008,21958.241994,20710.232343,-1256.771535,5314.149596,0.008000,-0.020000,1.008000,192.000000,0.000000,0.000000,0.000000,0.000000,0.000000,0.000000,0.000000,0.000000,0.000000,1764345235.402428,0.000000
140.000000,23874.546453,25232.213763,14471.927520,20641.053693,27104.977024,-3304.995990,-9775.736603,17543.571299,24726.930228,21899.300444,4503.161252,-6471.455869,21971.451875,20725.163308,-1253.910512,5289.517974,0.008000,-0.020000,1.008000,192.000000,0.000000,0.000000,0.000000,0.000000,0.000000,0.000000,0.000000,0.000000,0.000000,1764345235.409444,0.000000
142.000000,23866.321011,25229.665664,14461.377497,20628.402606,27123.417213,-3317.915299,-9799.429452,17535.144691,24670.760294,21898.719299,4514.337124,-6459.184761,21970.289584,20731.086520,-1254.782230,5276.799831,0.008000,-0.020000,1.008000,192.000000,0.000000,0.000000,0.000000,0.000000,0.000000,0.000000,0.000000,0.000000,0.000000,1764345235.417509,0.000000
144.000000,23879.061506,25236.661760,14472.151038,20631.196574,27122.053757,-3314.920165,-9787.046586,17545.337086,24792.309081,21904.798973,4503.228307,-6478.116689,21982.828913,20719.463613,-1256.659777,5312.249698,0.008000,-0.020000,1.008000,192.000000,0.000000,0.000000,0.000000,0.000000,0.000000,0.000000,0.000000,0.000000,0.000000,1764345235.426542,0.000000
146.000000,23870.701953,25238.338141,14473.983881,20630.794243,27112.867190,-3299.631572,-9779.759917,17547.393447,24671.699068,21905.983616,4523.903671,-6446.533674,21981.308994,20739.513128,-1246.489733,5262.047680,0.008000,-0.014000,1.010000,192.000000,0.000000,32.000000,127.500000,72.000000,15.500000,72.000000,0.000000,0.000000,0.000000,1764345235.434564,0.000000
148.000000,23863.817616,25225.552943,14461.422200,20616.511478,27132.603780,-3325.000802,-9805.687941,17532.842461,24750.801891,21898.026395,4503.675342,-6476.507363,21976.883349,20721.139994,-1253.530533,5312.607326,0.008000,-0.014000,1.010000,192.000000,0.000000,0.000000,0.000000,0.000000,0.000000,0.000000,0.000000,0.000000,0.000000,1764345235.441610,0.000000
150.000000,23875.060543,25232.102005,14480.175314,20627.419129,27116.175248,-3305.197156,-9774.306092,17546.633488,24740.810661,21903.323758,4510.179700,-6465.242084,21981.197236,20730.594782,-1247.227341,5283.125375,0.008000,-0.014000,1.010000,192.000000,0.000000,0.000000,0.000000,0.000000,0.000000,0.000000,0.000000,0.000000,0.000000,1764345235.449638,0.000000
152.000000,23863.102360,25223.474231,14463.970299,20616.734995,27121.964350,-3334.679107,-9800.681150,17533.691827,24669.463893,21891.656147,4514.515938,-6463.073964,21967.741486,20726.213840,-1242.801695,5278.878543,0.008000,-0.014000,1.010000,192.000000,0.000000,0.000000,0.000000,0.000000,0.000000,0.000000,0.000000,0.000000,0.000000,1764345235.458683,0.000000
154.000000,23869.897290,25230.313865,14475.168523,20626.569763,27126.211181,-3306.493557,-9787.225400,17539.682095,24787.346993,21902.072060,4499.540269,-6483.972846,21978.649137,20718.435433,-1252.368242,5316.787102,0.008000,-0.014000,1.010000,192.000000,0.000000,0.000000,0.000000,0.000000,0.000000,0.000000,0.000000,0.000000,0.000000,1764345235.465722,0.000000
156.000000,23871.596023,25232.772557,14475.637910,20631.487147,27108.665062,-3299.676275,-9779.290531,17543.146615,24663.384219,21901.692081,4520.215633,-6454.088563,21980.347869,20740.317791,-1244.232207,5261.622997,0.006000,-0.022000,1.010000,192.000000,0.000000,24.000000,127.500000,40.000000,15.500000,72.000000,0.000000,0.000000,0.000000,1764345235.473776,0.000000
158.000000,23854.943973,25221.529629,14458.270604,20619.685426,27123.037234,-3325.738409,-9804.905630,17528.796795,24741.883545,21896.528828,4501.864851,-6480.441270,21972.278890,20719.150689,-1255.251617,5314.149596,0.006000,-0.022000,1.010000,192.000000,0.000000,0.000000,0.000000,0.000000,0.000000,0.000000,0.000000,0.000000,0.000000,1764345235.481756,0.000000
160.000000,23860.040171,25231.073824,14475.190875,20634.526984,27101.356042,-3301.620877,-9772.987339,17543.861871,24730.662969,21898.316967,4506.692828,-6470.494744,21976.078686,20725.565639,-1252.658815,5283.125375,0.006000,-0.022000,1.010000,192.000000,0.000000,0.000000,0.000000,0.000000,0.000000,0.000000,0.000000,0.000000,0.000000,1764345235.490751,0.000000
162.000000,23849.423093,25214.310016,14456.035430,20621.339455,27110.028518,-3332.443933,-9800.547040,17526.159290,24657.036323,21885.554121,4508.123339,-6468.684252,21961.304183,20720.491793,-1246.646195,5276.822183,0.006000,-0.022000,1.010000,192.000000,0.000000,0.000000,0.000000,0.000000,0.000000,0.000000,0.000000,0.000000,0.000000,1764345235.497826,0.000000
164.000000,23849.199575,25214.667644,14462.875064,20627.530888,27114.767088,-3325.961927,-9789.773499,17530.383769,24768.236252,21889.666842,4491.515993,-6492.153584,21962.131198,20708.600665,-1253.932864,5316.563584,0.006000,-0.022000,1.010000,192.000000,0.000000,0.000000,0.000000,0.000000,0.000000,0.000000,0.000000,0.000000,0.000000,1764345235.505797,0.000000
166.000000,23848.171395,25212.298359,14461.399849,20629.251972,27092.169475,-3318.831720,-9783.224438,17530.517880,24641.434806,21879.049764,4505.776406,-6468.572494,21953.928107,20720.402386,-1247.137934,5268.574389,0.006000,-0.022000,1.010000,192.000000,0.000000,0.000000,127.500000,24.000000,15.500000,72.000000,0.000000,0.000000,0.000000,1764345235.514836,0.000000
168.000000,23845.332723,25211.583103,14451.319212,20617.182030,27115.795269,-3341.027002,-9807.297266,17521.040740,24725.767937,21876.345202,4490.264295,-6490.767776,21957.839663,20703.660930,-1256.749184,5312.115587,0.006000,-0.022000,1.010000,192.000000,0.000000,0.000000,0.000000,0.000000,0.000000,0.000000,0.000000,0.000000,0.000000,1764345235.521891,0.000000
170.000000,23857.425017,25217.640426,14473.313328,20628.804937,27102.943015,-3313.087322,-9776.496563,17538.184528,24716.447260,21877.731011,4496.209859,-6480.262456,21965.416904,20712.109889,-1247.964948,5283.773575,0.006000,-0.022000,1.010000,192.000000,0.000000,0.000000,0.000000,0.000000,0.000000,0.000000,0.000000,0.000000,0.000000,1764345235.530022,0.000000
172.000000,23860.353096,25217.349853,14459.455247,20617.047920,27117.359891,-3335.908453,-9802.737511,17529.959086,24652.789492,21873.551234,4505.642296,-6470.114764,21963.338192,20713.875677,-1249.373108,5276.956293,0.006000,-0.022000,1.010000,192.000000,0.000000,0.000000,0.000000,0.000000,0.000000,0.000000,0.000000,0.000000,0.000000,1764345235.537929,0.000000
174.000000,23864.957555,25229.598609,14471.458134,20623.664036,27123.618379,-3326.587776,-9791.338121,17539.346819,24777.042839,21885.062383,4494.466423,-6485.671578,21974.424657,20706.141973,-1255.430431,5314.797797,0.006000,-0.022000,1.010000,192.000000,0.000000,0.000000,0.000000,0.000000,0.000000,0.000000,0.000000,0.000000,0.000000,1764345235.546969,0.000000
176.000000,23866.589232,25231.297342,14475.503799,20627.285019,27112.375452,-3312.662639,-9781.145725,17545.270031,24657.505710,21886.314081,4517.131092,-6453.038031,21973.597643,20727.197317,-1241.795867,5263.388784,0.004000,-0.026000,1.012000,192.000000,0.000000,16.000000,127.500000,24.000000,15.500000,80.000000,0.000000,0.000000,0.000000,1764345235.555008,0.000000
178.000000,23858.095569,25223.742452,14460.841055,20617.830231,27128.222838,-3333.047430,-9805.866755,17533.803586,24735.401539,21885.710583,4500.255525,-6477.937875,21973.441180,20710.701729,-1245.841532,5311.422683,0.004000,-0.026000,1.012000,192.000000,0.000000,0.000000,0.000000,0.000000,0.000000,0.000000,0.000000,0.000000,0.000000,1764345235.562019,0.000000
180.000000,23870.500788,25238.159327,14479.348299,20635.801033,27115.415289,-3296.099996,-9772.942635,17551.059133,24732.071129,21898.741650,4508.972705,-6461.129363,21980.973718,20727.532593,-1245.997995,5289.137994,0.004000,-0.026000,1.012000,192.000000,0.000000,0.000000,0.000000,0.000000,0.000000,0.000000,0.000000,0.000000,0.000000,1764345235.570122,0.000000
182.000000,23857.045037,25223.340121,14459.231729,20621.831193,27114.454164,-3326.543072,-9800.994074,17533.110682,24658.846814,21891.387927,4511.945487,-6456.234331,21969.171997,20729.566601,-1245.774477,5280.398462,0.004000,-0.026000,1.012000,192.000000,0.000000,0.000000,0.000000,0.000000,0.000000,0.000000,0.000000,0.000000,0.000000,1764345235.578173,0.000000
184.000000,23863.661154,25226.961103,14470.653471,20627.888516,27128.222838,-3315.501310,-9788.208877,17541.425531,24774.092409,21888.772772,4494.175851,-6485.224543,21973.307070,20712.825145,-1251.429469,5317.323544,0.004000,-0.026000,1.012000,192.000000,0.000000,0.000000,0.000000,0.000000,0.000000,0.000000,0.000000,0.000000,0.000000,1764345235.586130,0.000000
186.000000,23868.243261,25227.989284,14470.429953,20629.408435,27109.357966,-3310.047485,-9781.391595,17542.230194,24655.516405,21890.113877,4516.460540,-6454.334432,21970.110770,20734.573392,-1243.338137,5261.645348,0.004000,-0.022000,1.012000,192.000000,0.000000,16.000000,127.500000,40.000000,15.500000,80.000000,0.000000,0.000000,0.000000,1764345235.594139,0.000000
188.000000,23850.607735,25214.019443,14450.603956,20618.836059,27122.120812,-3338.970642,-9809.197165,17520.861926,24728.561905,21881.754325,4493.728816,-6483.972846,21964.880462,20710.478212,-1253.932864,5309.813358,0.004000,-0.022000,1.012000,192.000000,0.000000,0.000000,0.000000,0.000000,0.000000,0.000000,0.000000,0.000000,0.000000,1764345235.603183,0.000000
190.000000,23852.574689,25220.009711,14470.094677,20632.850603,27107.301606,-3306.091226,-9778.999958,17532.775406,24717.251923,21884.078906,4493.952333,-6480.418918,21965.975698,20720.223572,-1251.898855,5288.243924,0.004000,-0.022000,1.012000,192.000000,0.000000,0.000000,0.000000,0.000000,0.000000,0.000000,0.000000,0.000000,0.000000,1764345235.609150,0.000000
192.000000,23843.499880,25205.414022,14453.934366,20620.288923,27117.516353,-3334.835569,-9804.257429,17519.856098,24648.587364,21874.713525,4499.652028,-6474.875686,21959.627802,20720.089462,-1246.243864,5276.397500,0.004000,-0.022000,1.012000,192.000000,0.000000,0.000000,0.000000,0.000000,0.000000,0.000000,0.000000,0.000000,0.000000,1764345235.618208,0.000000
194.000000,23854.720456,25213.862981,14463.791485,20628.089682,27124.087766,-3325.716058,-9792.276894,17529.847327,24772.036048,21879.765019,4487.000941,-6493.628799,21969.507273,20707.997168,-1257.397384,5314.171948,0.004000,-0.022000,1.012000,192.000000,0.000000,0.000000,0.000000,0.000000,0.000000,0.000000,0.000000,0.000000,0.000000,1764345235.626270,0.000000
196.000000,23861.224814,25224.502411,14471.815762,20632.224754,27120.779708,-3306.582964,-9782.330368,17539.011543,24655.382294,21881.910787,4509.978534,-6462.202246,21971.116599,20728.069035,-1245.573312,5260.684223,0.010000,-0.020000,1.012000,192.000000,0.000000,40.000000,127.500000,48.000000,15.500000,80.000000,0.000000,0.000000,0.000000,1764345235.634430,0.000000
198.000000,23854.899270,25216.254618,14458.203549,20619.841888,27139.018731,-3326.855996,-9808.593668,17525.399330,24744.118720,21884.458886,4500.210822,-6480.754194,21981.487808,20716.423776,-1247.674375,5305.231250,0.010000,-0.020000,1.012000,192.000000,0.000000,0.000000,0.000000,0.000000,0.000000,0.000000,0.000000,0.000000,0.000000,1764345235.642305,0.000000
200.000000,23867.840930,25232.616095,14477.582512,20631.956533,27123.953655,-3305.644191,-9777.345929,17542.744284,24733.300475,21882.290767,4500.590801,-6475.859162,21981.733678,20719.418909,-1240.700631,5294.345950,0.010000,-0.020000,1.012000,192.000000,0.000000,0.000000,0.000000,0.000000,0.000000,0.000000,0.000000,0.000000,0.000000,1764345235.650313,0.000000
202.000000,23865.471645,25225.910571,14467.367764,20624.580458,27136.604743,-3323.704401,-9797.864830,17539.860909,24672.704896,21886.157618,4516.326429,-6458.894188,21984.393535,20727.599648,-1239.583044,5278.811488,0.010000,-0.020000,1.012000,192.000000,0.000000,0.000000,0.000000,0.000000,0.000000,0.000000,0.000000,0.000000,0.000000,1764345235.658307,0.000000
204.000000,23866.052790,25226.737586,14472.709831,20629.676655,27134.794251,-3316.082456,-9787.270103,17543.571299,24794.857180,21892.594921,4501.462519,-6480.329511,21988.595663,20717.049625,-1249.060184,5317.390599,0.010000,-0.020000,1.012000,192.000000,0.000000,0.000000,0.000000,0.000000,0.000000,0.000000,0.000000,0.000000,0.000000,1764345235.665436,0.000000
206.000000,23865.516349,25226.245847,14472.575721,20633.051769,27111.324920,-3306.135929,-9777.658853,17546.588784,24663.428922,21887.968110,4520.282688,-6453.574473,21980.012593,20732.025293,-1245.886236,5264.975758,0.011000,-0.019000,1.012000,192.000000,0.000000,48.000000,127.500000,56.000000,15.500000,80.000000,0.000000,0.000000,0.000000,1764345235.674394,0.000000
208.000000,23856.620354,25215.651121,14455.901319,20622.524097,27127.976969,-3334.567348,-9803.028083,17531.523708,24736.899106,21884.190665,4500.546098,-6479.636607,21973.396477,20714.501526,-1252.994091,5311.690904,0.011000,-0.019000,1.012000,192.000000,0.000000,0.000000,0.000000,0.000000,0.000000,0.000000,0.000000,0.000000,0.000000,1764345235.682440,0.000000
210.000000,23852.529985,25219.517972,14470.429953,20636.829214,27109.939111,-3313.467302,-9772.853228,17542.990153,24724.180964,21887.610482,4501.015484,-6472.864029,21972.703573,20722.369340,-1250.311881,5287.975703,0.011000,-0.019000,1.012000,192.000000,0.000000,0.000000,0.000000,0.000000,0.000000,0.000000,0.000000,0.000000,0.000000,1764345235.689470,0.000000
212.000000,23856.329782,25220.948484,14457.957680,20630.436615,27121.830240,-3327.347735,-9795.361435,17535.882298,24653.638858,21881.396697,4508.592726,-6460.235293,21963.360544,20723.844555,-1249.976605,5278.945598,0.011000,-0.019000,1.012000,192.000000,0.000000,0.000000,0.000000,0.000000,0.000000,0.000000,0.000000,0.000000,0.000000,1764345235.697521,0.000000
214.000000,23861.448331,25225.105909,14465.020831,20632.470624,27122.053757,-3321.290412,-9786.957179,17540.240889,24778.316889,21892.617272,4496.008694,-6478.921351,21972.323593,20719.016578,-1254.290492,5314.730741,0.011000,-0.019000,1.012000,192.000000,0.000000,0.000000,0.000000,0.000000,0.000000,0.000000,0.000000,0.000000,0.000000,1764345235.706586,0.000000
216.000000,23853.714627,25219.875600,14465.579625,20629.989580,27102.674795,-3323.905566,-9780.810449,17538.408046,24647.916811,21880.681441,4508.615078,-6458.469505,21956.990296,20725.319770,-1244.209855,5271.144840,0.010500,-0.018500,1.011000,192.000000,0.000000,40.000000,127.500000,56.000000,15.500000,72.000000,0.000000,0.000000,0.000000,1764345235.714565,0.000000
218.000000,23854.228718,25218.020406,14459.052915,20620.579495,27127.284065,-3335.416715,-9802.849269,17533.647124,24734.999208,21880.793200,4499.830842,-6479.480145,21967.450913,20711.528744,-1255.095155,5308.561660,0.010500,-0.018500,1.011000,192.000000,0.000000,0.000000,0.000000,0.000000,0.000000,0.000000,0.000000,0.000000,0.000000,1764345235.721582,0.000000
220.000000,23864.555224,25225.910571,14479.460058,20632.314161,27115.839972,-3315.009572,-9771.892103,17549.226290,24729.880658,21880.524979,4505.195261,-6473.959264,21973.597643,20715.820279,-1244.567483,5287.707482,0.010500,-0.018500,1.011000,192.000000,0.000000,0.000000,0.000000,0.000000,0.000000,0.000000,0.000000,0.000000,0.000000,1764345235.731700,0.000000
222.000000,23864.488168,25224.345949,14467.457171,20624.714568,27125.898257,-3325.425485,-9795.026159,17541.179662,24668.189844,21884.324775,4518.852177,-6457.374270,21973.843512,20725.632694,-1246.243864,5274.274084,0.010500,-0.018500,1.011000,192.000000,0.000000,0.000000,0.000000,0.000000,0.000000,0.000000,0.000000,0.000000,0.000000,1764345235.738649,0.000000
224.000000,23872.668907,25236.862926,14476.844904,20631.151871,27129.653350,-3314.584889,-9783.939693,17548.265165,24790.297424,21892.103182,4504.882336,-6479.502497,21984.751163,20717.317846,-1248.188466,5310.685076,0.010500,-0.018500,1.011000,192.000000,0.000000,0.000000,0.000000,0.000000,0.000000,0.000000,0.000000,0.000000,0.000000,1764345235.747662,0.000000
226.000000,23868.980869,25229.866830,14478.409526,20634.571688,27114.051832,-3311.254479,-9775.490734,17549.203938,24671.654364,21893.600749,4526.362363,-6450.355822,21981.018422,20736.719160,-1246.310919,5261.511238,0.008250,-0.019250,1.012500,192.000000,0.000000,24.000000,127.500000,48.000000,15.500000,88.000000,0.000000,0.000000,0.000000,1764345235.753722,0.000000
228.000000,23867.907985,25223.943618,14465.803142,20623.127594,27136.157708,-3336.042563,-9799.384749,17539.369171,24747.069150,21887.677537,4509.129168,-6475.523886,21979.498503,20718.547191,-1252.994091,5310.014523,0.008250,-0.019250,1.012500,192.000000,0.000000,0.000000,0.000000,0.000000,0.000000,0.000000,0.000000,0.000000,0.000000,1764345235.761704,0.000000
230.000000,23874.814674,25234.292475,14481.851695,20634.281115,27117.248132,-3311.455645,-9769.053432,17555.641241,24743.694036,21890.829133,4517.376961,-6465.040918,21984.192369,20725.990322,-1247.920245,5283.594761,0.008250,-0.019250,1.012500,192.000000,0.000000,0.000000,0.000000,0.000000,0.000000,0.000000,0.000000,0.000000,0.000000,1764345235.770785,0.000000
232.000000,23863.907023,25225.284722,14464.417334,20622.814670,27121.562019,-3338.836532,-9796.076691,17542.856043,24665.977021,21879.675612,4522.294345,-6458.290691,21979.073820,20724.537459,-1247.115582,5275.078747,0.008250,-0.019250,1.012500,192.000000,0.000000,0.000000,0.000000,0.000000,0.000000,0.000000,0.000000,0.000000,0.000000,1764345235.777776,0.000000
234.000000,23876.088724,25229.777423,14470.273491,20628.201440,27122.746661,-3331.795732,-9786.398385,17549.226290,24784.016583,21883.855389,4504.748226,-6482.341168,21980.146704,20710.344101,-1255.117506,5316.228308,0.008250,-0.019250,1.012500,192.000000,0.000000,0.000000,0.000000,0.000000,0.000000,0.000000,0.000000,0.000000,0.000000,1764345235.785800,0.000000
236.000000,23870.344325,25237.980513,14474.877951,20635.845737,27106.362832,-3309.153415,-9774.149629,17555.775351,24664.814730,21887.230502,4525.825921,-6452.009851,21977.620957,20731.533555,-1249.730736,5263.187619,0.006125,-0.019625,1.016250,192.000000,0.000000,16.000000,127.500000,48.000000,15.500000,112.000000,0.000000,0.000000,0.000000,1764345235.793812,0.000000
238.000000,23868.489131,25228.928057,14460.125799,20624.692216,27126.747623,-3339.149456,-9800.234115,17544.599479,24741.078882,21888.884531,4511.654915,-6470.539447,21977.308032,20718.614247,-1253.038794,5303.845442,0.006125,-0.019625,1.016250,192.000000,0.000000,0.000000,0.000000,0.000000,0.000000,0.000000,0.000000,0.000000,0.000000,1764345235.801855,0.000000
240.000000,23878.100381,25240.483909,14479.661224,20638.974981,27111.302568,-3309.913374,-9768.986376,17560.044534,24737.882583,21888.526903,4514.270069,-6462.537523,21977.129218,20722.950485,-1253.351719,5294.971799,0.006125,-0.019625,1.016250,192.000000,0.000000,0.000000,0.000000,0.000000,0.000000,0.000000,0.000000,0.000000,0.000000,1764345235.810887,0.000000
242.000000,23861.917718,25230.000941,14461.735125,20625.072196,27118.589237,-3326.855996,-9796.903705,17543.325429,24664.457102,21886.090563,4523.210767,-6453.574473,21972.390648,20728.717235,-1251.317710,5282.633636,0.006125,-0.019625,1.016250,192.000000,0.000000,0.000000,0.000000,0.000000,0.000000,0.000000,0.000000,0.000000,0.000000,1764345235.817926,0.000000
244.000000,23869.092628,25234.627752,14474.408564,20628.760234,27128.692225,-3317.758836,-9786.264275,17551.036781,24781.379078,21890.113877,4505.061150,-6481.715319,21978.380916,20714.903857,-1248.479038,5318.530538,0.006125,-0.019625,1.016250,192.000000,0.000000,0.000000,0.000000,0.000000,0.000000,0.000000,0.000000,0.000000,0.000000,1764345235.827929,0.000000
246.000000,23865.046962,25232.012598,14473.134514,20629.430786,27106.318129,-3315.546014,-9778.865847,17551.014429,24660.433788,21890.851485,4524.842444,-6451.316947,21975.676355,20732.427625,-1242.980509,5267.613264,0.007063,-0.021813,1.015125,192.000000,0.000000,32.000000,127.500000,32.000000,15.500000,88.000000,0.000000,0.000000,0.000000,1764345235.833962,0.000000
248.000000,23857.067389,25221.708443,14460.774000,20618.970170,27129.921571,-3336.199026,-9803.139842,17539.793854,24732.115833,21881.955490,4505.217612,-6478.630779,21972.211834,20709.293569,-1250.356585,5310.796834,0.007063,-0.021813,1.015125,192.000000,0.000000,0.000000,0.000000,0.000000,0.000000,0.000000,0.000000,0.000000,0.000000,1764345235.841973,0.000000
250.000000,23864.532872,25230.067996,14475.906131,20634.370522,27112.911893,-3308.996953,-9772.920283,17549.740380,24730.193583,21887.543426,4509.151519,-6469.175991,21976.212797,20722.235229,-1249.708384,5292.937791,0.007063,-0.021813,1.015125,192.000000,0.000000,0.000000,0.000000,0.000000,0.000000,0.000000,0.000000,0.000000,0.000000,1764345235.852039,0.000000
252.000000,23856.821520,25220.009711,14458.047087,20624.401644,27123.886600,-3330.812255,-9797.350740,17537.424569,24657.840986,21884.592996,4512.504281,-6461.174066,21967.674430,20728.180793,-1251.474172,5285.248790,0.007063,-0.021813,1.015125,192.000000,0.000000,0.000000,0.000000,0.000000,0.000000,0.000000,0.000000,0.000000,0.000000,1764345235.858110,0.000000
254.000000,23860.375447,25225.061205,14465.713735,20630.034283,27130.815641,-3317.781188,-9787.538324,17541.157310,24778.227482,21887.141095,4494.287609,-6485.984503,21972.480055,20714.613284,-1248.903721,5320.966878,0.007063,-0.021813,1.015125,192.000000,0.000000,0.000000,0.000000,0.000000,0.000000,0.000000,0.000000,0.000000,0.000000,1764345235.866110,0.000000
0.000000,23859.593136,25222.311940,14466.876026,20632.761196,27114.789440,-3306.113578,-9778.910551,17542.207842,24659.830291,21887.677537,4514.761807,-6457.016642,21970.669564,20734.215764,-1244.165152,5268.015595,0.005531,-0.019906,1.011563,192.000000,0.000000,16.000000,127.500000,56.000000,15.500000,64.000000,0.000000,0.000000,0.000000,1764345235.874153,0.000000
2.000000,23856.285078,25218.266275,14457.242424,20622.948780,27137.185888,-3327.951232,-9802.782214,17533.781234,24735.490946,21880.122647,4499.674380,-6482.788203,21971.094247,20714.434470,-1255.184562,5315.714218,0.005531,-0.019906,1.011563,192.000000,0.000000,0.000000,0.000000,0.000000,0.000000,0.000000,0.000000,0.000000,0.000000,1764345235.882126,0.000000
4.000000,23859.928412,25223.541286,14473.425087,20631.755368,27119.505658,-3312.327363,-9774.306092,17544.644182,24733.792214,21881.083772,4502.580107,-6478.295502,21975.564596,20718.010750,-1249.976605,5290.635561,0.005531,-0.019906,1.011563,192.000000,0.000000,0.000000,0.000000,0.000000,0.000000,0.000000,0.000000,0.000000,0.000000,1764345235.889188,0.000000
6.000000,23852.440578,25216.478135,14455.968375,20619.797184,27119.058623,-3330.409924,-9799.630618,17531.300191,24656.678695,21873.730048,4510.827900,-6468.080755,21967.965003,20720.067110,-1247.517913,5278.140936,0.005531,-0.019906,1.011563,192.000000,0.000000,0.000000,0.000000,0.000000,0.000000,0.000000,0.000000,0.000000,0.000000,1764345235.898180,0.000000
8.000000,23862.811787,25228.391615,14466.250177,20628.581420,27127.641693,-3318.608203,-9786.867772,17544.197147,24778.987441,21878.490970,4491.784214,-6489.158450,21973.016497,20708.913590,-1257.397384,5318.105855,0.005531,-0.019906,1.011563,192.000000,0.000000,0.000000,0.000000,0.000000,0.000000,0.000000,0.000000,0.000000,0.000000,1764345235.906196,0.000000
10.000000,23866.231604,25231.945542,14470.631119,20631.665961,27102.272463,-3312.975563,-9776.764783,17547.996944,24655.874032,21882.290767,4516.885223,-6453.865046,21967.965003,20730.751244,-1251.675338,5263.098212,0.005766,-0.020953,1.008781,192.000000,0.000000,24.000000,127.500000,40.000000,15.500000,56.000000,0.000000,0.000000,0.000000,1764345235.915250,0.000000
12.000000,23854.675752,25219.473269,14453.442628,20615.975036,27127.529934,-3344.133895,-9804.704464,17531.590764,24727.489022,21875.227615,4499.830842,-6481.670616,21968.210872,20710.120584,-1251.608283,5309.321619,0.005766,-0.020953,1.008781,192.000000,0.000000,0.000000,0.000000,0.000000,0.000000,0.000000,0.000000,0.000000,0.000000,1764345235.921283,0.000000
14.000000,23865.806921,25231.878487,14478.498933,20631.777719,27106.519295,-3309.734560,-9770.126315,17549.941546,24727.489022,21880.212054,4502.803624,-6473.981616,21966.288622,20717.116680,-1245.081573,5283.930037,0.005766,-0.020953,1.008781,192.000000,0.000000,0.000000,0.000000,0.000000,0.000000,0.000000,0.000000,0.000000,0.000000,1764345235.930313,0.000000
16.000000,23856.128616,25221.596685,14459.745820,20617.405548,27105.200542,-3340.110581,-9796.635484,17536.083464,24652.789492,21878.267453,4514.068903,-6461.241121,21962.265308,20722.168174,-1245.215684,5270.854267,0.005766,-0.020953,1.008781,192.000000,0.000000,0.000000,0.000000,0.000000,0.000000,0.000000,0.000000,0.000000,0.000000,1764345235.937308,0.000000
18.000000,23866.857453,25232.370225,14469.535884,20621.294751,27117.046966,-3333.338002,-9788.365339,17543.839519,24773.064229,21879.653261,4495.695769,-6489.091395,21963.427599,20703.146840,-1257.017405,5315.445997,0.005766,-0.020953,1.008781,192.000000,0.000000,0.000000,0.000000,0.000000,0.000000,0.000000,0.000000,0.000000,0.000000,1764345235.946352,0.000000
20.000000,23874.300584,25237.131147,14472.687480,20626.078025,27098.405611,-3320.373991,-9777.837667,17548.689848,24662.400742,21885.665880,4521.713200,-6454.826171,21965.685125,20730.617133,-1253.709346,5260.527761,0.005766,-0.020953,1.008781,192.000000,0.000000,0.000000,0.000000,0.000000,0.000000,0.000000,0.000000,0.000000,0.000000,1764345235.955404,0.000000
22.000000,23857.357962,25221.976664,14458.717639,20613.024606,27120.556190,-3341.921072,-9806.537307,17532.395426,24732.585219,21879.742668,4503.496528,-6480.910657,21966.713305,20708.555962,-1253.709346,5302.303171,0.004000,-0.020000,1.004000,192.000000,0.000000,16.000000,127.500000,48.000000,15.500000,48.000000,0.000000,0.000000,0.000000,1764345235.962400,0.000000
24.000000,23870.545491,25234.292475,14475.012061,20628.179089,27105.312300,-3312.729694,-9775.915417,17546.141749,24731.579391,21884.883569,4505.150557,-6472.752270,21972.368297,20719.933000,-1250.602454,5287.193392,0.004000,-0.020000,1.004000,192.000000,0.000000,0.000000,0.000000,0.000000,0.000000,0.000000,0.000000,0.000000,0.000000,1764345235.969417,0.000000
26.000000,23867.326840,25229.330388,14461.332793,20618.791356,27115.236475,-3329.202930,-9799.876487,17536.262278,24660.456140,21882.827208,4514.985325,-6461.397584,21967.003878,20727.979628,-1253.061146,5277.224514,0.004000,-0.020000,1.004000,192.000000,0.000000,0.000000,0.000000,0.000000,0.000000,0.000000,0.000000,0.000000,0.000000,1764345235.977464,0.000000
28.000000,23865.069314,25230.023292,14468.977090,20621.540621,27125.473574,-3318.451741,-9792.209839,17538.855080,24777.914557,21887.766944,4496.433377,-6488.644360,21974.491712,20717.854287,-1253.195256,5314.641334,0.004000,-0.020000,1.004000,192.000000,0.000000,0.000000,0.000000,0.000000,0.000000,0.000000,0.000000,0.000000,0.000000,1764345235.987487,0.000000
30.000000,23867.662116,25228.950409,14469.647642,20625.072196,27106.675757,-3304.168976,-9782.911513,17540.442054,24657.170434,21887.498723,4513.979496,-6459.475334,21970.043715,20736.897974,-1245.752125,5263.746412,0.004000,-0.020000,1.004000,192.000000,0.000000,0.000000,0.000000,0.000000,0.000000,0.000000,0.000000,0.000000,0.000000,1764345235.993518,0.000000
32.000000,23852.060598,25227.050510,14458.114142,20617.316141,27133.877830,-3322.631517,-9806.067920,17532.149557,24729.210106,21885.107086,4498.355627,-6481.938837,21968.993183,20722.034064,-1254.335195,5310.841538,0.004000,-0.024000,1.010000,192.000000,0.000000,16.000000,127.500000,32.000000,15.500000,72.000000,0.000000,0.000000,0.000000,1764345236.001565,0.000000
34.000000,23859.324915,25231.409100,14472.575721,20628.156737,27116.108193,-3307.074703,-9776.518914,17541.850214,24736.072092,21893.578397,4503.608287,-6473.579284,21978.470323,20731.734721,-1253.262312,5286.522840,0.004000,-0.024000,1.010000,192.000000,0.000000,0.000000,0.000000,0.000000,0.000000,0.000000,0.000000,0.000000,0.000000,1764345236.009563,0.000000
36.000000,23848.216098,25221.887257,14452.369744,20615.416243,27116.778745,-3336.333136,-9803.788043,17525.578144,24644.519346,21876.859293,4502.267182,-6470.181819,21957.191462,20725.029197,-1246.020346,5279.392633,0.004000,-0.024000,1.010000,192.000000,0.000000,0.000000,0.000000,0.000000,0.000000,0.000000,0.000000,0.000000,0.000000,1764345236.018578,0.000000
38.000000,23863.974078,25233.174888,14464.551445,20625.474528,27128.401652,-3319.368162,-9790.578162,17541.358476,24775.969955,21891.656147,4491.337179,-6486.588000,21971.429523,20722.011712,-1256.212742,5316.362419,0.004000,-0.024000,1.010000,192.000000,0.000000,0.000000,0.000000,0.000000,0.000000,0.000000,0.000000,0.000000,0.000000,1764345236.025622,0.000000
40.000000,23853.379351,25231.006769,14462.606843,20625.854507,27103.300643,-3307.544089,-9782.308016,17538.631563,24655.829329,21892.237293,4509.822072,-6455.340261,21963.204081,20739.960163,-1246.333271,5266.942712,0.004000,-0.024000,1.010000,192.000000,0.000000,0.000000,0.000000,0.000000,0.000000,0.000000,0.000000,0.000000,0.000000,1764345236.034665,0.000000
42.000000,23856.799168,25227.676359,14454.627270,20615.930333,27126.702920,-3330.544034,-9805.822051,17531.166080,24723.622170,21886.694060,4495.092272,-6479.994235,21961.907680,20722.928133,-1250.803620,5308.718122,0.004000,-0.022000,1.010000,192.000000,0.000000,16.000000,127.500000,40.000000,15.500000,72.000000,0.000000,0.000000,0.000000,1764345236.041737,0.000000
44.000000,23867.148026,25237.891106,14473.738012,20628.201440,27111.324920,-3310.829796,-9775.222513,17546.678191,24736.921458,21893.533694,4504.010618,-6470.159467,21971.675393,20731.846479,-1248.389631,5286.701654,0.004000,-0.022000,1.010000,192.000000,0.000000,0.000000,0.000000,0.000000,0.000000,0.000000,0.000000,0.000000,0.000000,1764345236.049691,0.000000
46.000000,23862.454160,25231.453804,14459.276433,20618.232562,27123.148992,-3330.074648,-9798.289513,17535.122339,24656.991620,21887.789296,4513.353647,-6460.369403,21967.227395,20734.729854,-1244.813352,5271.703633,0.004000,-0.022000,1.010000,192.000000,0.000000,0.000000,0.000000,0.000000,0.000000,0.000000,0.000000,0.000000,0.000000,1764345236.057743,0.000000
48.000000,23865.404590,25234.851269,14464.417334,20622.367635,27127.686397,-3326.140741,-9790.578162,17539.525633,24779.993269,21892.952549,4494.980513,-6485.537468,21972.323593,20720.223572,-1252.323538,5310.461558,0.004000,-0.022000,1.010000,192.000000,0.000000,0.000000,0.000000,0.000000,0.000000,0.000000,0.000000,0.000000,0.000000,1764345236.065729,0.000000
50.000000,23867.080971,25239.701598,14468.820628,20627.508536,27107.435716,-3315.546014,-9779.961083,17544.644182,24659.919698,21893.354880,4515.454711,-6454.490895,21970.490750,20738.619058,-1245.774477,5263.925226,0.004000,-0.022000,1.010000,192.000000,0.000000,0.000000,0.000000,0.000000,0.000000,0.000000,0.000000,0.000000,0.000000,1764345236.073804,0.000000
52.000000,23870.210215,25235.924153,14460.796352,20619.484260,27139.398711,-3329.292337,-9803.229249,17541.805511,24732.965199,21892.237293,4504.904688,-6475.501534,21971.027192,20723.241058,-1250.647158,5303.264296,0.008000,-0.020000,1.014000,192.000000,0.000000,32.000000,127.500000,48.000000,15.500000,88.000000,0.000000,0.000000,0.000000,1764345236.081764,0.000000
54.000000,23880.313203,25248.642295,14475.548503,20634.504632,27118.656292,-3300.145662,-9770.819219,17559.798665,24746.152728,21903.301406,4516.549947,-6460.279996,21979.364393,20736.249773,-1250.490695,5285.919343,0.008000,-0.020000,1.014000,192.000000,0.000000,0.000000,0.000000,0.000000,0.000000,0.000000,0.000000,0.000000,0.000000,1764345236.089802,0.000000
56.000000,23871.618375,25242.339104,14457.465942,20621.697083,27123.618379,-3324.911395,-9795.450842,17547.348743,24666.692277,21899.523961,4525.110665,-6447.271281,21969.663736,20742.038875,-1256.503315,5272.865924,0.008000,-0.020000,1.014000,192.000000,0.000000,0.000000,0.000000,0.000000,0.000000,0.000000,0.000000,0.000000,0.000000,1764345236.097842,0.000000
58.000000,23880.179093,25248.575240,14465.847846,20625.653341,27126.792327,-3315.233089,-9787.225400,17550.992078,24788.889264,21901.535618,4504.234136,-6472.953436,21976.503369,20723.911610,-1262.001844,5314.328410,0.008000,-0.020000,1.014000,192.000000,0.000000,0.000000,0.000000,0.000000,0.000000,0.000000,0.000000,0.000000,0.000000,1764345236.105908,0.000000
60.000000,23873.026535,25247.748226,14468.105372,20628.022626,27114.007129,-3306.873537,-9778.485868,17550.232118,24671.006163,21900.261569,4521.154406,-6444.231444,21975.966928,20742.217689,-1249.440163,5261.958273,0.008000,-0.020000,1.014000,192.000000,0.000000,0.000000,0.000000,0.000000,0.000000,0.000000,0.000000,0.000000,0.000000,1764345236.113957,0.000000
62.000000,23868.220910,25242.517917,14451.989764,20616.712644,27137.029426,-3329.851130,-9806.246734,17537.469272,24739.201336,21897.847581,4504.904688,-6468.438383,21973.664698,20727.353779,-1253.195256,5302.616096,0.002000,-0.020000,1.010000,192.000000,0.000000,8.000000,127.500000,48.000000,15.500000,72.000000,0.000000,0.000000,0.000000,1764345236.121953,0.000000
64.000000,23883.174227,25251.592726,14470.027622,20631.688312,27124.713615,-3297.843432,-9776.004824,17553.517825,24741.503565,21903.591979,4506.066979,-6464.325662,21973.374125,20733.053474,-1255.743355,5290.166174,0.002000,-0.020000,1.010000,192.000000,0.000000,0.000000,0.000000,0.000000,0.000000,0.000000,0.000000,0.000000,0.000000,1764345236.129990,0.000000
66.000000,23874.300584,25247.971743,14455.633099,20621.182993,27136.247115,-3311.701514,-9800.256467,17541.559642,24668.145140,21906.788278,4517.533424,-6448.366517,21972.658869,20745.838671,-1253.977567,5273.692939,0.002000,-0.020000,1.010000,192.000000,0.000000,0.000000,0.000000,0.000000,0.000000,0.000000,0.000000,0.000000,0.000000,1764345236.136988,0.000000
68.000000,23869.114979,25246.205955,14461.422200,20621.138289,27140.918629,-3314.182557,-9794.333255,17543.638354,24785.178874,21905.938912,4497.707426,-6476.306197,21973.172959,20728.158442,-1257.620902,5314.574279,0.002000,-0.020000,1.010000,192.000000,0.000000,0.000000,0.000000,0.000000,0.000000,0.000000,0.000000,0.000000,0.000000,1764345236.146143,0.000000
70.000000,23867.773875,25243.434339,14463.947947,20622.278228,27119.975045,-3314.428427,-9784.498487,17542.587822,24663.719495,21901.580322,4513.957144,-6449.819380,21967.003878,20743.312924,-1246.668547,5267.300340,0.002000,-0.020000,1.010000,192.000000,0.000000,0.000000,0.000000,0.000000,0.000000,0.000000,0.000000,0.000000,0.000000,1764345236.154142,0.000000
72.000000,23865.873976,25243.859022,14451.453322,20614.410414,27143.936115,-3325.805464,-9810.024179,17533.513014,24726.326731,21897.288787,4496.746301,-6473.288712,21961.348887,20725.096253,-1246.601492,5304.627753,-0.002000,-0.020000,1.012000,192.000000,127.500000,120.000000,127.500000,48.000000,15.500000,80.000000,0.000000,0.000000,0.000000,1764345236.161133,0.000000
74.000000,23870.769008,25252.285630,14467.658337,20627.843812,27125.317112,-3293.887173,-9779.312882,17545.761770,24739.268391,21907.548238,4501.171947,-6463.565703,21968.501445,20739.580183,-1249.596626,5288.355683,-0.002000,-0.020000,1.012000,192.000000,0.000000,0.000000,0.000000,0.000000,0.000000,0.000000,0.000000,0.000000,0.000000,1764345236.169164,0.000000
76.000000,23864.488168,25240.997999,14454.493160,20617.293789,27127.552286,-3321.580985,-9801.284647,17534.317676,24659.852643,21897.087621,4507.989229,-6457.821305,21963.181730,20739.446073,-1250.915378,5276.106927,-0.002000,-0.020000,1.012000,192.000000,0.000000,0.000000,0.000000,0.000000,0.000000,0.000000,0.000000,0.000000,0.000000,1764345236.178192,0.000000
78.000000,23869.897290,25246.004790,14463.433857,20620.467737,27141.835051,-3316.708304,-9792.366301,17539.235060,24784.508322,21903.167296,4494.265258,-6482.072947,21975.676355,20729.164270,-1253.396422,5309.612192,-0.002000,-0.020000,1.012000,192.000000,0.000000,0.000000,0.000000,0.000000,0.000000,0.000000,0.000000,0.000000,0.000000,1764345236.186201,0.000000
80.000000,23863.325878,25244.328409,14466.071363,20625.206307,27119.393899,-3305.197156,-9781.436298,17539.615040,24664.121826,21896.148848,4510.000886,-6457.731898,21970.535454,20741.413026,-1245.528608,5265.445145,-0.002000,-0.020000,1.012000,192.000000,0.000000,0.000000,0.000000,0.000000,0.000000,0.000000,0.000000,0.000000,0.000000,1764345236.193214,0.000000
82.000000,23859.906061,25233.353702,14451.162750,20614.030434,27140.315132,-3329.046467,-9808.526612,17527.858022,24732.294647,21895.411241,4495.584011,-6478.966055,21969.529625,20728.136090,-1253.396422,5307.801701,0.008000,-0.024000,1.012000,192.000000,0.000000,32.000000,127.500000,32.000000,15.500000,80.000000,0.000000,0.000000,0.000000,1764345236.201261,0.000000
84.000000,23864.152892,25236.862926,14466.116067,20625.429824,27121.226742,-3302.134967,-9780.005786,17538.452749,24736.049740,21895.858275,4494.354665,-6475.546238,21968.412038,20732.114700,-1254.022271,5289.719139,0.008000,-0.024000,1.012000,192.000000,0.000000,0.000000,0.000000,0.000000,0.000000,0.000000,0.000000,0.000000,0.000000,1764345236.210283,0.000000
86.000000,23861.023648,25234.940676,14452.503854,20616.377368,27126.121774,-3323.726752,-9802.871621,17530.830804,24657.908041,21892.550217,4504.480005,-6462.425764,21961.326535,20736.540346,-1246.936768,5273.469421,0.008000,-0.024000,1.012000,192.000000,0.000000,0.000000,0.000000,0.000000,0.000000,0.000000,0.000000,0.000000,0.000000,1764345236.217353,0.000000
88.000000,23868.802055,25240.573316,14459.835227,20621.741786,27131.799118,-3318.272927,-9794.065034,17537.469272,24781.155560,21898.808706,4488.587915,-6484.844564,21964.724000,20725.029197,-1259.565504,5315.021314,0.008000,-0.024000,1.012000,192.000000,0.000000,0.000000,0.000000,0.000000,0.000000,0.000000,0.000000,0.000000,0.000000,1764345236.227365,0.000000
90.000000,23871.596023,25244.730740,14464.663203,20627.419129,27114.521219,-3311.477996,-9781.838629,17542.677229,24664.188881,21899.948645,4511.140825,-6455.899055,21963.002916,20742.664724,-1249.238998,5262.047680,0.008000,-0.024000,1.012000,192.000000,0.000000,0.000000,0.000000,0.000000,0.000000,0.000000,0.000000,0.000000,0.000000,1764345236.233404,0.000000
92.000000,23864.443465,25238.919287,14452.101523,20617.427900,27146.059531,-3328.286508,-9807.163156,17532.842461,24729.053644,21901.312101,4497.595668,-6475.814459,21967.361506,20730.103043,-1249.417812,5301.409102,0.007000,-0.023000,1.007000,192.000000,0.000000,24.000000,127.500000,40.000000,15.500000,40.000000,0.000000,0.000000,0.000000,1764345236.242436,0.000000
94.000000,23870.880767,25246.518880,14470.228788,20628.670827,27127.306417,-3297.731673,-9775.982472,17547.102874,24743.604629,21908.665825,4501.239002,-6469.690081,21970.960137,20737.993209,-1247.920245,5289.719139,0.007000,-0.023000,1.007000,192.000000,0.000000,0.000000,0.000000,0.000000,0.000000,0.000000,0.000000,0.000000,0.000000,1764345236.249419,0.000000
96.000000,23862.387104,25237.622885,14456.594224,20617.606713,27133.900182,-3320.329287,-9799.049473,17535.547022,24654.398817,21900.060403,4510.224403,-6457.620139,21964.433427,20742.217689,-1247.204989,5272.821220,0.007000,-0.023000,1.007000,192.000000,0.000000,0.000000,0.000000,0.000000,0.000000,0.000000,0.000000,0.000000,0.000000,1764345236.257446,0.000000
98.000000,23864.845796,25237.332313,14465.110238,20617.249086,27141.835051,-3325.000802,-9794.288551,17535.748188,24775.344107,21900.283921,4490.063130,-6487.772642,21969.842550,20725.208011,-1246.489733,5309.321619,0.007000,-0.023000,1.007000,192.000000,0.000000,0.000000,0.000000,0.000000,0.000000,0.000000,0.000000,0.000000,0.000000,1764345236.266498,0.000000
100.000000,23863.884671,25240.707426,14469.111200,20623.328760,27126.814679,-3301.129139,-9781.503353,17541.894918,24658.198614,21897.489953,4507.721008,-6462.045784,21966.690954,20741.904764,-1244.008689,5267.233284,0.007000,-0.023000,1.007000,192.000000,0.000000,0.000000,0.000000,0.000000,0.000000,0.000000,0.000000,0.000000,0.000000,1764345236.273502,0.000000
102.000000,23853.960497,25229.688016,14452.705020,20610.990597,27143.287914,-3318.161168,-9809.063054,17530.003790,24726.729062,21900.574493,4498.623848,-6479.167220,21968.389686,20731.712369,-1253.999919,5307.332314,0.007500,-0.020500,1.007500,192.000000,0.000000,32.000000,127.500000,56.000000,15.500000,64.000000,0.000000,0.000000,0.000000,1764345236.281520,0.000000
104.000000,23863.728209,25239.388673,14469.044145,20623.194650,27123.417213,-3301.218546,-9778.530571,17545.046514,24732.898144,21897.512304,4498.757958,-6476.753232,21968.948480,20732.897011,-1249.484867,5294.256543,0.007500,-0.020500,1.007500,192.000000,0.000000,0.000000,0.000000,0.000000,0.000000,0.000000,0.000000,0.000000,0.000000,1764345236.289548,0.000000
106.000000,23860.509558,25237.086444,14453.844959,20613.426937,27128.334597,-3323.391476,-9800.167060,17534.071807,24647.067445,21889.935063,4507.206918,-6464.124496,21957.549090,20736.205070,-1245.707422,5277.760956,0.007500,-0.020500,1.007500,192.000000,0.000000,0.000000,0.000000,0.000000,0.000000,0.000000,0.000000,0.000000,0.000000,1764345236.298626,0.000000
108.000000,23865.315183,25244.730740,14459.209378,20616.399719,27135.375397,-3320.910432,-9793.372130,17538.899784,24776.394639,21895.165371,4491.314827,-6486.833869,21968.032058,20722.034064,-1255.765707,5312.629677,0.007500,-0.020500,1.007500,192.000000,0.000000,0.000000,0.000000,0.000000,0.000000,0.000000,0.000000,0.000000,0.000000,1764345236.305605,0.000000
110.000000,23865.046962,25237.756996,14464.350279,20623.082891,27122.500792,-3307.208813,-9780.855153,17543.906575,24661.104341,21892.527865,4510.202051,-6458.737726,21962.444122,20737.345009,-1245.886236,5263.455840,0.007500,-0.020500,1.007500,192.000000,0.000000,0.000000,0.000000,0.000000,0.000000,0.000000,0.000000,0.000000,0.000000,1764345236.313593,0.000000
112.000000,23861.604793,25234.314827,14454.627270,20613.605751,27145.768958,-3329.582909,-9807.274915,17532.574240,24728.830126,21890.806781,4498.981476,-6480.575380,21963.964041,20723.933962,-1248.903721,5300.671494,0.006750,-0.016250,1.004750,192.000000,0.000000,24.000000,127.500000,80.000000,15.500000,40.000000,0.000000,0.000000,0.000000,1764345236.321672,0.000000
114.000000,23872.020706,25245.758920,14474.229750,20624.893382,27138.683455,-3300.860918,-9778.038833,17547.460502,24739.201336,21897.087621,4503.563583,-6473.914561,21971.206006,20733.232288,-1248.344928,5289.048587,0.006750,-0.016250,1.004750,192.000000,0.000000,0.000000,0.000000,0.000000,0.000000,0.000000,0.000000,0.000000,0.000000,1764345236.330693,0.000000
116.000000,23863.839968,25243.881374,14458.449418,20616.511478,27138.951676,-3322.899738,-9799.898839,17539.302115,24657.528062,21892.192589,4514.292421,-6458.245988,21966.154512,20737.412064,-1241.751163,5267.188581,0.006750,-0.016250,1.004750,192.000000,0.000000,0.000000,0.000000,0.000000,0.000000,0.000000,0.000000,0.000000,0.000000,1764345236.337695,0.000000
118.000000,23870.590195,25246.273011,14461.980994,20620.668902,27143.332618,-3317.445912,-9795.026159,17541.827862,24779.657993,21895.724165,4495.204031,-6481.469450,21967.942651,20724.403348,-1252.077669,5311.735608,0.006750,-0.016250,1.004750,192.000000,0.000000,0.000000,0.000000,0.000000,0.000000,0.000000,0.000000,0.000000,0.000000,1764345236.345726,0.000000
120.000000,23871.551320,25246.049493,14464.551445,20625.318065,27126.568809,-3308.929897,-9782.419775,17543.973630,24659.517367,21894.383060,4507.989229,-6456.301386,21958.979602,20740.586011,-1243.941634,5265.020462,0.006750,-0.016250,1.004750,192.000000,0.000000,0.000000,0.000000,0.000000,0.000000,0.000000,0.000000,0.000000,0.000000,1764345236.354821,0.000000
122.000000,23863.974078,25239.254563,14451.922709,20612.979902,27141.142147,-3323.682049,-9809.353627,17531.099025,24728.584257,21896.238255,4495.561659,-6475.434479,21966.713305,20729.454843,-1248.434335,5300.649142,0.005375,-0.016125,1.006375,192.000000,0.000000,16.000000,127.500000,64.000000,15.500000,64.000000,0.000000,0.000000,0.000000,1764345236.361804,0.000000
124.000000,23873.272404,25248.441130,14468.910035,20625.251010,27130.413309,-3291.674351,-9778.999958,17544.063037,24743.001132,21904.262531,4499.607325,-6471.344110,21973.955271,20740.429549,-1249.663681,5286.791061,0.005375,-0.016125,1.006375,192.000000,0.000000,0.000000,0.000000,0.000000,0.000000,0.000000,0.000000,0.000000,0.000000,1764345236.369821,0.000000
126.000000,23858.274383,25236.527650,14454.627270,20612.510516,27133.229629,-3317.736485,-9802.245772,17529.959086,24654.734094,21892.147886,4505.195261,-6466.180857,21960.812445,20738.887279,-1246.400326,5273.424718,0.005375,-0.016125,1.006375,192.000000,0.000000,0.000000,0.000000,0.000000,0.000000,0.000000,0.000000,0.000000,0.000000,1764345236.377856,0.000000
128.000000,23865.851625,25240.930944,14463.500913,20617.807879,27143.220859,-3309.265174,-9795.763766,17536.686961,24780.887339,21897.534656,4491.404234,-6488.242029,21969.619032,20728.784290,-1258.514972,5318.061151,0.005375,-0.016125,1.006375,192.000000,0.000000,0.000000,0.000000,0.000000,0.000000,0.000000,0.000000,0.000000,0.000000,1764345236.385888,0.000000
130.000000,23869.472607,25245.848327,14467.591282,20624.133423,27126.099423,-3299.698627,-9782.151554,17543.683057,24668.882748,21897.668767,4510.962011,-6459.095354,21967.741486,20745.078712,-1240.030079,5264.886351,0.005375,-0.016125,1.006375,192.000000,0.000000,0.000000,0.000000,0.000000,0.000000,0.000000,0.000000,0.000000,0.000000,1764345236.394892,0.000000
132.000000,23871.059581,25248.061150,14457.175369,20615.304484,27149.389940,-3328.644136,-9806.649066,17537.513976,24735.647408,21898.294616,4500.769615,-6476.730880,21967.517968,20733.522860,-1250.289530,5302.392578,0.004687,-0.020063,1.011188,192.000000,0.000000,16.000000,127.500000,32.000000,15.500000,96.000000,0.000000,0.000000,0.000000,1764345236.401931,0.000000
134.000000,23872.601852,25253.984362,14473.827419,20627.285019,27130.949751,-3293.507194,-9777.994129,17550.477988,24750.623077,21907.771755,4507.832767,-6467.521962,21980.481980,20744.966953,-1250.870675,5286.165212,0.004687,-0.020063,1.011188,192.000000,0.000000,0.000000,0.000000,0.000000,0.000000,0.000000,0.000000,0.000000,0.000000,1764345236.409957,0.000000
136.000000,23866.432770,25245.021313,14460.572834,20617.204382,27134.794251,-3314.540185,-9799.965894,17539.995019,24661.037285,21898.249912,4516.371133,-6458.536560,21966.936823,20745.235174,-1247.204989,5274.676415,0.004687,-0.020063,1.011188,192.000000,0.000000,0.000000,0.000000,0.000000,0.000000,0.000000,0.000000,0.000000,0.000000,1764345236.418962,0.000000
138.000000,23875.127599,25252.375037,14471.346375,20621.518269,27146.014827,-3307.991124,-9791.807507,17547.952240,24790.632700,21905.625988,4502.267182,-6481.648264,21980.526683,20734.729854,-1253.731698,5314.976611,0.004687,-0.020063,1.011188,192.000000,0.000000,0.000000,0.000000,0.000000,0.000000,0.000000,0.000000,0.000000,0.000000,1764345236.426043,0.000000
140.000000,23876.960442,25255.548984,14474.721488,20629.855469,27137.901144,-3300.078607,-9778.955254,17552.377886,24680.125675,21907.972921,4523.255470,-6450.244063,21981.331346,20754.220576,-1241.035907,5262.561770,0.004687,-0.020063,1.011188,192.000000,0.000000,0.000000,0.000000,0.000000,0.000000,0.000000,0.000000,0.000000,0.000000,1764345236.434068,0.000000
142.000000,23870.746657,25249.268144,14458.784695,20618.903115,27155.603725,-3317.624726,-9806.939638,17540.553813,24740.810661,21907.950569,4508.391560,-6469.712433,21980.683146,20742.508262,-1251.027137,5310.327448,0.005344,-0.021031,1.013594,192.000000,0.000000,24.000000,127.500000,40.000000,15.500000,96.000000,0.000000,0.000000,0.000000,1764345236.441169,0.000000
144.000000,23880.626128,25262.992115,14479.594169,20633.029417,27141.611533,-3285.348807,-9775.758955,17555.909461,24755.562813,21913.739671,4511.029066,-6462.403412,21987.075745,20747.984439,-1239.471285,5293.273067,0.005344,-0.021031,1.013594,192.000000,0.000000,0.000000,0.000000,0.000000,0.000000,0.000000,0.000000,0.000000,0.000000,1764345236.449100,0.000000
146.000000,23864.801093,25249.268144,14459.097619,20620.199516,27142.125623,-3307.566441,-9801.731682,17539.011543,24666.178187,21908.799935,4517.801645,-6449.729973,21977.844474,20751.359552,-1237.794904,5275.101098,0.005344,-0.021031,1.013594,192.000000,0.000000,0.000000,0.000000,0.000000,0.000000,0.000000,0.000000,0.000000,0.000000,1764345236.458126,0.000000
148.000000,23871.394857,25251.570374,14467.412468,20625.206307,27153.502661,-3299.855089,-9794.847345,17546.342915,24783.144865,21907.972921,4496.813356,-6480.061290,21979.342041,20733.634619,-1246.422678,5321.100989,0.005344,-0.021031,1.013594,192.000000,0.000000,0.000000,0.000000,0.000000,0.000000,0.000000,0.000000,0.000000,0.000000,1764345236.466170,0.000000
150.000000,23872.177168,25252.442092,14470.340546,20628.402606,27134.637789,-3296.591734,-9780.877504,17548.712200,24669.195672,21906.855334,4517.667534,-6449.014717,21975.743410,20750.689000,-1244.343966,5268.797906,0.005344,-0.021031,1.013594,192.000000,0.000000,0.000000,0.000000,0.000000,0.000000,0.000000,0.000000,0.000000,0.000000,1764345236.473194,0.000000
152.000000,23855.346305,25241.355627,14454.895491,20613.292827,27151.021618,-3328.487674,-9809.867717,17532.976572,24723.644522,21894.226598,4500.501394,-6475.456831,21965.841587,20727.376131,-1246.065050,5304.203070,0.005672,-0.022516,1.012797,192.000000,0.000000,24.000000,127.500000,32.000000,15.500000,80.000000,0.000000,0.000000,0.000000,1764345236.481220,0.000000
154.000000,23860.710723,25244.909554,14472.262796,20625.586286,27132.380263,-3300.436235,-9779.625807,17543.459540,24739.648371,21894.874799,4503.273011,-6473.355767,21972.010669,20731.175927,-1242.980509,5289.786195,0.005672,-0.022516,1.012797,192.000000,0.000000,0.000000,0.000000,0.000000,0.000000,0.000000,0.000000,0.000000,0.000000,1764345236.490270,0.000000
156.000000,23853.178186,25235.253601,14457.443590,20617.137327,27137.319998,-3321.849206,-9801.441109,17531.456653,24652.588326,21888.996290,4512.124301,-6463.342185,21964.411076,20738.060264,-1245.573312,5275.972816,0.005672,-0.022516,1.012797,192.000000,0.000000,0.000000,0.000000,0.000000,0.000000,0.000000,0.000000,0.000000,0.000000,1764345236.497266,0.000000
158.000000,23857.961459,25237.868755,14465.154942,20618.433728,27150.149900,-3317.915299,-9796.367263,17535.189394,24773.958298,21889.644490,4490.219592,-6491.751253,21968.635555,20718.614247,-1244.411021,5315.602459,0.005672,-0.022516,1.012797,192.000000,0.000000,0.000000,0.000000,0.000000,0.000000,0.000000,0.000000,0.000000,0.000000,1764345236.505283,0.000000
160.000000,23856.866223,25237.444071,14471.569892,20623.641684,27131.821469,-3308.460511,-9781.458650,17541.447883,24664.926489,21887.744592,4510.738493,-6462.962206,21966.489788,20737.590878,-1238.867788,5266.003938,0.005672,-0.022516,1.012797,192.000000,0.000000,0.000000,0.000000,0.000000,0.000000,0.000000,0.000000,0.000000,0.000000,1764345236.513323,0.000000
162.000000,23861.135407,25241.422682,14461.466904,20616.287961,27161.705752,-3330.052296,-9806.380845,17533.870641,24730.350045,21888.437496,4500.166118,-6478.675482,21968.814369,20725.878564,-1243.136971,5304.560698,0.005672,-0.022516,1.012797,192.000000,0.000000,0.000000,0.000000,0.000000,0.000000,0.000000,0.000000,0.000000,0.000000,1764345236.522424,0.000000
164.000000,23863.884671,25244.753092,14474.117991,20624.848679,27132.469670,-3293.686008,-9778.865847,17543.504243,24746.219784,21898.540485,4502.624810,-6474.518058,21974.335250,20736.205070,-1241.348832,5290.277933,0.005672,-0.022516,1.012797,192.000000,0.000000,0.000000,127.500000,48.000000,15.500000,80.000000,0.000000,0.000000,0.000000,1764345236.529382,0.000000
166.000000,23854.787511,25237.399368,14459.499950,20614.656283,27139.085786,-3318.988182,-9800.167060,17536.061112,24652.856547,21889.353918,4511.990191,-6460.928197,21959.381933,20736.741511,-1243.516951,5273.380014,0.005672,-0.022516,1.012797,192.000000,0.000000,0.000000,0.000000,0.000000,0.000000,0.000000,0.000000,0.000000,0.000000,1764345236.537409,0.000000
168.000000,23862.632974,25240.796833,14465.534921,20615.818574,27141.388016,-3317.624726,-9794.713234,17539.816205,24775.031182,21890.784429,4493.013560,-6488.130270,21962.444122,20718.860116,-1246.243864,5314.395465,0.005672,-0.022516,1.012797,192.000000,0.000000,0.000000,0.000000,0.000000,0.000000,0.000000,0.000000,0.000000,0.000000,1764345236.546417,0.000000
170.000000,23858.520253,25240.506260,14469.267663,20620.467737,27125.115946,-3303.811348,-9780.743394,17544.308906,24661.350210,21890.203284,4512.794854,-6458.827133,21959.761913,20736.026256,-1241.125314,5258.314938,0.005672,-0.022516,1.012797,192.000000,0.000000,0.000000,0.000000,0.000000,0.000000,0.000000,0.000000,0.000000,0.000000,1764345236.554497,0.000000
172.000000,23856.083912,25233.264295,14455.722506,20609.202458,27144.539612,-3334.254424,-9807.431377,17533.535365,24723.085728,21885.889397,4500.143766,-6480.284808,21957.906718,20718.569543,-1248.702556,5300.135052,0.005672,-0.022516,1.012797,192.000000,0.000000,0.000000,0.000000,0.000000,0.000000,0.000000,0.000000,0.000000,0.000000,1764345236.561469,0.000000
174.000000,23859.816654,25242.182641,14471.033450,20622.300580,27129.474536,-3310.807444,-9778.709385,17545.068865,24740.542440,21888.772772,4500.724912,-6476.596770,21966.668602,20723.665741,-1244.634538,5286.969875,0.004000,-0.022000,1.010000,192.000000,0.000000,16.000000,127.500000,40.000000,15.500000,72.000000,0.000000,0.000000,0.000000,1764345236.570544,0.000000
176.000000,23852.865261,25238.181679,14454.694325,20613.873972,27131.463841,-3327.481845,-9800.524688,17535.457615,24644.407588,21884.101258,4506.938697,-6463.632758,21953.793997,20728.538421,-1244.813352,5274.497601,0.004000,-0.022000,1.010000,192.000000,0.000000,0.000000,0.000000,0.000000,0.000000,0.000000,0.000000,0.000000,0.000000,1764345236.578530,0.000000
178.000000,23860.777779,25241.512089,14460.975165,20621.406510,27144.785481,-3313.020267,-9793.617999,17544.688886,24769.823226,21891.209113,4490.085481,-6486.588000,21960.432465,20719.664779,-1252.032966,5319.871643,0.004000,-0.022000,1.010000,192.000000,0.000000,0.000000,0.000000,0.000000,0.000000,0.000000,0.000000,0.000000,0.000000,1764345236.584604,0.000000
180.000000,23859.146101,25243.993133,14464.663203,20629.296676,27123.618379,-3303.341961,-9779.469345,17548.332220,24657.326896,21894.852447,4511.498453,-6453.462714,21960.253651,20743.849366,-1245.238035,5270.362529,0.004000,-0.022000,1.010000,192.000000,0.000000,0.000000,0.000000,0.000000,0.000000,0.000000,0.000000,0.000000,0.000000,1764345236.593601,0.000000
182.000000,23858.430846,25237.622885,14450.067514,20618.858411,27142.840879,-3313.355543,-9806.693769,17538.340990,24716.179039,21894.204246,4496.567487,-6474.629816,21953.548128,20734.126357,-1251.340062,5312.629677,0.004000,-0.022000,1.010000,192.000000,0.000000,0.000000,0.000000,0.000000,0.000000,0.000000,0.000000,0.000000,0.000000,1764345236.601626,0.000000
184.000000,23872.199520,25254.967839,14468.172427,20632.649438,27130.390958,-3285.549973,-9776.116583,17554.970688,24739.380150,21904.687214,4502.043665,-6465.979691,21961.214776,20744.162291,-1251.116544,5297.765767,0.004000,-0.018000,1.016000,192.000000,0.000000,16.000000,127.500000,56.000000,15.500000,96.000000,0.000000,0.000000,0.000000,1764345236.610657,0.000000
186.000000,23862.543567,25244.171947,14454.314346,20622.099414,27132.626132,-3310.002781,-9797.686016,17543.459540,24648.565012,21897.713470,4511.006714,-6455.250854,21951.245898,20748.118549,-1246.355623,5272.396537,0.004000,-0.018000,1.016000,192.000000,0.000000,0.000000,0.000000,0.000000,0.000000,0.000000,0.000000,0.000000,0.000000,1764345236.617666,0.000000
188.000000,23865.404590,25249.156386,14463.478561,20623.015836,27143.712597,-3314.026095,-9792.612170,17546.611136,24781.490836,21905.424822,4496.299266,-6479.122517,21964.388724,20737.210898,-1254.178733,5314.283706,0.004000,-0.018000,1.016000,192.000000,0.000000,0.000000,0.000000,0.000000,0.000000,0.000000,0.000000,0.000000,0.000000,1764345236.625687,0.000000
190.000000,23863.571747,25247.055322,14467.680689,20625.854507,27120.332673,-3302.023208,-9779.871676,17550.142711,24664.747675,21897.735822,4510.671438,-6456.122572,21960.968907,20748.006791,-1243.204027,5266.428622,0.004000,-0.018000,1.016000,192.000000,0.000000,0.000000,0.000000,0.000000,0.000000,0.000000,0.000000,0.000000,0.000000,1764345236.633690,0.000000
192.000000,23864.979907,25247.658819,14456.571872,20614.186897,27148.562926,-3325.000802,-9805.352665,17545.024162,24726.952580,21899.389851,4503.809453,-6469.220694,21965.796884,20735.668628,-1248.814314,5303.331352,0.004000,-0.018000,1.016000,192.000000,0.000000,0.000000,0.000000,0.000000,0.000000,0.000000,0.000000,0.000000,0.000000,1764345236.640735,0.000000
194.000000,23879.597948,25259.326429,14475.682613,20624.334589,27138.728158,-3303.341961,-9774.283740,17559.642203,24748.544365,21903.793145,4506.134034,-6465.219732,21971.161302,20734.081654,-1236.006765,5285.137032,0.008000,-0.022000,1.016000,192.000000,0.000000,32.000000,127.500000,40.000000,15.500000,96.000000,0.000000,0.000000,0.000000,1764345236.650804,0.000000
196.000000,23868.109151,25246.585935,14455.990726,20616.779699,27135.844783,-3319.546976,-9798.200106,17545.180624,24661.618431,21901.803839,4517.980458,-6448.724145,21966.042753,20743.514090,-1236.565559,5269.647273,0.008000,-0.022000,1.016000,192.000000,0.000000,0.000000,0.000000,0.000000,0.000000,0.000000,0.000000,0.000000,0.000000,1764345236.657848,0.000000
198.000000,23869.919642,25247.435301,14458.941157,20621.518269,27150.351065,-3307.901717,-9794.221496,17547.594613,24780.060325,21899.792182,4493.929981,-6481.290636,21964.567538,20727.018503,-1245.059221,5321.838596,0.008000,-0.022000,1.016000,192.000000,0.000000,0.000000,0.000000,0.000000,0.000000,0.000000,0.000000,0.000000,0.000000,1764345236.665863,0.000000
200.000000,23870.053753,25247.480005,14462.092753,20627.128557,27128.155783,-3291.517888,-9780.497525,17548.868662,24664.837082,21900.283921,4511.543156,-6454.759116,21958.018477,20747.559756,-1238.241939,5269.401404,0.008000,-0.022000,1.016000,192.000000,0.000000,0.000000,0.000000,0.000000,0.000000,0.000000,0.000000,0.000000,0.000000,1764345236.673910,0.000000
202.000000,23858.922584,25241.757958,14446.133607,20617.271437,27142.952638,-3316.864767,-9807.341970,17537.223403,24718.503620,21896.931159,4497.260391,-6477.468488,21959.225471,20734.059302,-1252.837628,5310.282744,0.008000,-0.022000,1.016000,192.000000,0.000000,0.000000,0.000000,0.000000,0.000000,0.000000,0.000000,0.000000,0.000000,1764345236.681917,0.000000
204.000000,23870.567843,25247.792929,14462.651546,20630.391911,27126.278237,-3294.378912,-9776.742432,17550.589746,24737.837879,21901.580322,4498.936772,-6470.673558,21960.343058,20738.082616,-1252.904684,5298.682189,0.006000,-0.018000,1.016000,192.000000,0.000000,24.000000,127.500000,56.000000,15.500000,96.000000,0.000000,0.000000,0.000000,1764345236.692797,0.000000
206.000000,23862.051828,25244.082540,14449.911052,20621.071234,27128.781632,-3312.617935,-9797.306037,17540.218537,24643.938201,21897.825229,4508.346857,-6455.295557,21950.664753,20743.581145,-1247.808486,5276.956293,0.006000,-0.018000,1.016000,192.000000,0.000000,0.000000,0.000000,0.000000,0.000000,0.000000,0.000000,0.000000,0.000000,1764345236.698923,0.000000
208.000000,23868.735000,25246.965915,14460.371668,20624.826327,27144.584315,-3304.705418,-9791.740452,17546.164101,24766.559871,21902.653206,4491.583048,-6480.307159,21955.984468,20728.024331,-1250.066012,5317.301192,0.006000,-0.018000,1.016000,192.000000,0.000000,0.000000,0.000000,0.000000,0.000000,0.000000,0.000000,0.000000,0.000000,1764345236.705942,0.000000
210.000000,23860.196633,25242.853194,14463.567968,20626.793280,27120.109155,-3306.538261,-9779.871676,17545.605307,24655.561108,21902.295578,4510.403217,-6453.909749,21955.246860,20744.117587,-1241.684108,5262.472363,0.006000,-0.018000,1.016000,192.000000,0.000000,0.000000,0.000000,0.000000,0.000000,0.000000,0.000000,0.000000,0.000000,1764345236.714005,0.000000
212.000000,23863.951726,25238.092272,14452.660317,20615.505650,27148.786443,-3331.706325,-9806.134976,17535.122339,24710.389937,21896.014738,4495.204031,-6476.529715,21953.771645,20728.896049,-1245.752125,5302.817262,0.006000,-0.018000,1.016000,192.000000,0.000000,0.000000,0.000000,0.000000,0.000000,0.000000,0.000000,0.000000,0.000000,1764345236.720994,0.000000
214.000000,23861.403628,25246.161252,14467.054840,20625.921562,27134.838955,-3308.885194,-9778.083536,17546.097046,24738.530783,21903.211999,4497.729778,-6472.126421,21965.059276,20735.199241,-1246.199160,5292.937791,0.008000,-0.018000,1.006000,192.000000,0.000000,32.000000,127.500000,56.000000,15.500000,56.000000,0.000000,0.000000,0.000000,1764345236.729049,0.000000
216.000000,23862.700029,25241.065054,14455.901319,20616.802051,27141.723292,-3316.775360,-9797.931885,17539.682095,24648.542660,21894.628929,4507.273973,-6463.051613,21958.309049,20739.244907,-1238.040774,5265.422793,0.008000,-0.018000,1.006000,192.000000,0.000000,0.000000,0.000000,0.000000,0.000000,0.000000,0.000000,0.000000,0.000000,1764345236.738076,0.000000
218.000000,23864.130540,25239.835708,14458.851750,20616.891458,27142.058568,-3317.557671,-9796.009635,17540.665572,24781.200264,21901.692081,4495.628714,-6478.809593,21966.780361,20729.052511,-1253.642291,5307.645238,0.008000,-0.018000,1.006000,192.000000,0.000000,0.000000,0.000000,0.000000,0.000000,0.000000,0.000000,0.000000,0.000000,1764345236.746210,0.000000
220.000000,23862.878843,25239.925115,14463.143285,20621.674731,27116.309359,-3310.114540,-9782.643292,17544.241851,24655.583460,21888.571607,4504.323543,-6460.436459,21950.798863,20733.008770,-1237.012593,5267.792078,0.008000,-0.018000,1.006000,192.000000,0.000000,0.000000,0.000000,0.000000,0.000000,0.000000,0.000000,0.000000,0.000000,1764345236.753164,0.000000
222.000000,23863.974078,25238.718121,14452.257985,20615.617408,27145.143109,-3325.939575,-9806.917287,17539.011543,24710.412289,21890.203284,4496.589839,-6476.842639,21953.548128,20721.631732,-1246.847361,5302.929020,0.008000,-0.018000,1.006000,192.000000,0.000000,0.000000,0.000000,0.000000,0.000000,0.000000,0.000000,0.000000,0.000000,1764345236.762158,0.000000
224.000000,23875.753448,25252.062112,14472.553369,20630.906001,27133.833126,-3298.648095,-9776.429507,17556.200034,24741.816490,21900.909770,4505.463482,-6467.164334,21963.986392,20732.338218,-1250.110716,5292.848384,0.010000,-0.020000,1.012000,192.000000,0.000000,40.000000,127.500000,48.000000,15.500000,80.000000,0.000000,0.000000,0.000000,1764345236.770128,0.000000
226.000000,23870.098456,25248.217612,14457.153017,20622.345283,27144.494908,-3308.460511,-9795.808470,17545.739418,24649.704951,21898.451078,4514.851214,-6451.205188,21957.727904,20742.977648,-1237.146704,5269.803735,0.010000,-0.020000,1.012000,192.000000,0.000000,0.000000,0.000000,0.000000,0.000000,0.000000,0.000000,0.000000,0.000000,1764345236.778233,0.000000
228.000000,23867.952689,25245.647162,14457.667107,20621.786490,27150.574583,-3307.968772,-9794.824993,17544.375961,24775.388810,21902.228523,4493.460595,-6478.831944,21963.181730,20729.432491,-1247.897893,5319.581070,0.010000,-0.020000,1.012000,192.000000,0.000000,0.000000,0.000000,0.000000,0.000000,0.000000,0.000000,0.000000,0.000000,1764345236.785220,0.000000
230.000000,23864.666982,25241.556792,14456.549520,20623.261705,27125.764147,-3309.242822,-9784.431432,17541.827862,24667.407533,21896.528828,4507.989229,-6455.072040,21957.414980,20742.284744,-1236.699669,5270.049604,0.010000,-0.020000,1.012000,192.000000,0.000000,0.000000,0.000000,0.000000,0.000000,0.000000,0.000000,0.000000,0.000000,1764345236.794216,0.000000
232.000000,23856.977982,25235.745339,14445.306593,20611.996426,27147.713560,-3326.900700,-9811.074711,17533.781234,24712.468649,21888.996290,4491.270124,-6477.759061,21955.246860,20724.425700,-1242.779343,5312.249698,0.010000,-0.020000,1.012000,192.000000,0.000000,0.000000,0.000000,0.000000,0.000000,0.000000,0.000000,0.000000,0.000000,1764345236.801289,0.000000
234.000000,23878.614471,25257.337124,14465.534921,20628.156737,27138.750510,-3296.167051,-9778.307054,17554.478950,24743.448167,21904.217828,4501.954258,-6467.007872,21969.820198,20737.367360,-1237.481980,5293.943619,0.008000,-0.021000,1.012000,192.000000,0.000000,24.000000,127.500000,40.000000,15.500000,80.000000,0.000000,0.000000,0.000000,1764345236.810328,0.000000
236.000000,23867.259785,25246.407121,14449.598128,20618.880763,27138.281123,-3312.461473,-9799.362397,17543.571299,24650.911945,21901.043880,4513.398351,-6453.373307,21960.566576,20744.989305,-1239.091306,5276.241037,0.008000,-0.021000,1.012000,192.000000,0.000000,0.000000,0.000000,0.000000,0.000000,0.000000,0.000000,0.000000,0.000000,1764345236.817351,0.000000
238.000000,23877.318070,25249.737531,14461.288090,20623.082891,27146.148937,-3304.146624,-9793.372130,17550.679153,24780.283842,21907.212962,4499.115586,-6477.468488,21968.300279,20735.154538,-1247.272044,5311.713256,0.008000,-0.021000,1.012000,192.000000,0.000000,0.000000,0.000000,0.000000,0.000000,0.000000,0.000000,0.000000,0.000000,1764345236.826349,0.000000
240.000000,23869.003221,25243.210822,14464.171465,20626.234487,27124.266580,-3302.805519,-9781.033967,17546.745246,24668.502768,21900.976825,4514.918270,-6453.105086,21965.998049,20750.510186,-1240.164189,5264.953406,0.008000,-0.021000,1.012000,192.000000,0.000000,0.000000,0.000000,0.000000,0.000000,0.000000,0.000000,0.000000,0.000000,1764345236.833379,0.000000
242.000000,23864.778741,25238.114624,14449.061686,20614.522173,27145.523089,-3333.583872,-9808.727778,17535.122339,24715.553190,21892.326700,4495.874583,-6476.663825,21958.979602,20733.165232,-1249.954253,5304.024256,0.008000,-0.021000,1.012000,192.000000,0.000000,0.000000,0.000000,0.000000,0.000000,0.000000,0.000000,0.000000,0.000000,1764345236.848375,0.000000
244.000000,23871.976003,25245.870679,14466.652509,20626.055673,27129.005149,-3299.586868,-9779.044661,17549.628621,24740.296571,21897.735822,4497.349798,-6473.758098,21965.662773,20737.680285,-1247.719079,5292.915439,0.008000,-0.018500,1.011000,192.000000,0.000000,32.000000,127.500000,64.000000,15.500000,72.000000,0.000000,0.000000,0.000000,1764345236.853429,0.000000
246.000000,23868.265613,25244.216650,14456.124837,20620.043054,27137.007074,-3314.450778,-9796.166098,17543.616002,24651.537794,21896.975863,4513.197185,-6454.155618,21960.186596,20748.632639,-1238.890140,5268.775555,0.008000,-0.018500,1.011000,192.000000,0.000000,0.000000,0.000000,0.000000,0.000000,0.000000,0.000000,0.000000,0.000000,1764345236.858947,0.000000
248.000000,23871.372506,25247.927040,14460.215206,20625.899211,27143.354969,-3316.797711,-9791.628694,17547.885185,24777.601633,21903.234351,4496.500432,-6476.507363,21967.875596,20736.786215,-1243.963986,5312.026180,0.008000,-0.018500,1.011000,192.000000,0.000000,0.000000,0.000000,0.000000,0.000000,0.000000,0.000000,0.000000,0.000000,1764345236.865400,0.000000
250.000000,23878.569767,25250.318676,14463.567968,20632.425920,27119.036271,-3307.879365,-9777.815315,17551.953203,24665.574690,21903.547275,4514.650049,-6446.511322,21960.320706,20755.449922,-1239.001899,5264.595779,0.008000,-0.018500,1.011000,192.000000,0.000000,0.000000,0.000000,0.000000,0.000000,0.000000,0.000000,0.000000,0.000000,1764345236.873459,0.000000
252.000000,23861.358924,25243.344932,14447.497064,20622.546449,27136.828260,-3326.990107,-9807.341970,17538.564508,24708.646501,21895.433592,4497.930944,-6468.348976,21951.424712,20735.713331,-1246.422678,5308.896936,0.008000,-0.018500,1.011000,192.000000,0.000000,0.000000,0.000000,0.000000,0.000000,0.000000,0.000000,0.000000,0.000000,1764345236.881537,0.000000
254.000000,23879.463837,25258.387656,14473.581549,20642.730074,27129.027501,-3279.112670,-9772.562656,17559.351630,24738.240211,21906.408299,4506.268144,-6462.537523,21965.148683,20750.823110,-1249.171942,5298.972762,0.008000,-0.018250,1.011500,192.000000,0.000000,32.000000,127.500000,56.000000,15.500000,80.000000,0.000000,0.000000,0.000000,1764345236.888508,0.000000
0.000000,23860.174282,25240.997999,14452.839131,20624.714568,27125.138298,-3315.903642,-9798.691845,17536.821072,24643.535870,21900.261569,4515.030028,-6450.892264,21959.918375,20759.227366,-1241.594701,5272.374186,0.008000,-0.018250,1.011500,192.000000,0.000000,0.000000,0.000000,0.000000,0.000000,0.000000,0.000000,0.000000,0.000000,1764345236.897543,0.000000
2.000000,23869.651421,25241.534441,14459.365840,20624.133423,27141.767996,-3318.943479,-9795.808470,17539.659743,24768.884452,21899.300444,4489.973723,-6483.883439,21963.561709,20738.596706,-1245.148628,5314.797797,0.008000,-0.018250,1.011500,192.000000,0.000000,0.000000,0.000000,0.000000,0.000000,0.000000,0.000000,0.000000,0.000000,1764345236.905592,0.000000
4.000000,23868.466779,25242.093234,14464.506741,20624.088719,27122.098460,-3299.273944,-9782.509182,17542.230194,24662.557204,21901.177991,4507.117511,-6456.927235,21960.678334,20755.852253,-1238.845436,5268.127354,0.008000,-0.018250,1.011500,192.000000,0.000000,0.000000,0.000000,0.000000,0.000000,0.000000,0.000000,0.000000,0.000000,1764345236.912556,0.000000
6.000000,23856.843872,25231.051473,14448.860520,20606.319083,27138.795214,-3324.799636,-9811.968781,17529.243830,24711.127545,21894.360709,4494.466423,-6478.697834,21959.069009,20738.104968,-1243.941634,5302.884317,0.008000,-0.018250,1.011500,192.000000,0.000000,0.000000,0.000000,0.000000,0.000000,0.000000,0.000000,0.000000,0.000000,1764345236.920624,0.000000
8.000000,23880.581424,25250.162214,14471.435782,20621.451214,27132.313208,-3291.964923,-9778.508220,17550.321525,24742.017656,21899.613368,4499.473214,-6474.830982,21966.534491,20742.217689,-1241.549998,5288.467442,0.007000,-0.015125,1.009750,192.000000,0.000000,24.000000,127.500000,80.000000,15.500000,64.000000,0.000000,0.000000,0.000000,1764345236.929659,0.000000
10.000000,23868.667945,25247.859984,14457.935328,20612.398757,27140.337484,-3313.377895,-9799.429452,17540.218537,24649.436730,21901.110935,4515.655877,-6453.462714,21960.946555,20752.968878,-1237.102000,5265.959235,0.007000,-0.015125,1.009750,192.000000,0.000000,0.000000,0.000000,0.000000,0.000000,0.000000,0.000000,0.000000,0.000000,1764345236.937644,0.000000
12.000000,23878.033325,25247.949391,14462.562139,20617.472603,27148.495871,-3312.394418,-9797.797775,17542.900746,24776.908729,21905.335415,4496.768653,-6480.083642,21969.082590,20737.747340,-1243.762820,5310.707427,0.007000,-0.015125,1.009750,192.000000,0.000000,0.000000,0.000000,0.000000,0.000000,0.000000,0.000000,0.000000,0.000000,1764345236.944699,0.000000
14.000000,23877.295718,25255.079598,14469.446477,20624.982789,27136.023597,-3295.429444,-9781.816278,17546.745246,24670.872053,21907.749403,4512.057246,-6452.590996,21964.411076,20755.449922,-1234.285681,5262.673529,0.007000,-0.015125,1.009750,192.000000,0.000000,0.000000,0.000000,0.000000,0.000000,0.000000,0.000000,0.000000,0.000000,1764345236.952682,0.000000
16.000000,23860.978944,25240.662723,14449.441665,20611.325873,27148.875850,-3321.156302,-9812.840499,17528.193298,24715.352024,21907.123555,4498.400330,-6473.579284,21962.935861,20744.497567,-1238.331346,5298.972762,0.007000,-0.015125,1.009750,192.000000,0.000000,0.000000,0.000000,0.000000,0.000000,0.000000,0.000000,0.000000,0.000000,1764345236.961766,0.000000
18.000000,23875.999317,25251.793891,14469.759401,20628.112033,27139.733987,-3289.170955,-9780.139897,17545.739418,24741.391807,21908.598770,4495.181679,-6472.551104,21967.227395,20747.358590,-1242.622881,5293.742453,0.005500,-0.018562,1.007875,192.000000,0.000000,16.000000,127.500000,40.000000,15.500000,56.000000,0.000000,0.000000,0.000000,1764345236.969777,0.000000
20.000000,23869.785532,25246.876508,14453.330869,20620.803013,27144.494908,-3313.221432,-9800.077653,17536.061112,24650.911945,21911.392738,4512.571336,-6451.249892,21964.142855,20763.541253,-1238.912492,5264.975758,0.005500,-0.018562,1.007875,192.000000,0.000000,0.000000,0.000000,0.000000,0.000000,0.000000,0.000000,0.000000,0.000000,1764345236.976793,0.000000
22.000000,23871.551320,25245.401292,14456.460113,20617.137327,27144.204336,-3311.835624,-9800.412929,17535.479967,24770.449075,21906.430651,4489.280819,-6485.783337,21964.209910,20741.323619,-1242.846399,5316.787102,0.005500,-0.018562,1.007875,192.000000,0.000000,0.000000,0.000000,0.000000,0.000000,0.000000,0.000000,0.000000,0.000000,1764345236.985873,0.000000
24.000000,23877.809808,25250.832766,14465.132590,20623.820498,27125.473574,-3292.568420,-9782.442127,17545.247679,24663.339515,21905.827153,4510.403217,-6456.413145,21965.014573,20757.327468,-1237.996070,5267.076822,0.005500,-0.018562,1.007875,192.000000,0.000000,0.000000,0.000000,0.000000,0.000000,0.000000,0.000000,0.000000,0.000000,1764345236.994665,0.000000
26.000000,23864.219947,25240.148633,14450.022811,20607.682539,27152.183908,-3320.463398,-9811.722912,17529.780272,24708.847667,21897.199380,4498.333275,-6477.580247,21958.487863,20738.484948,-1240.901797,5298.279857,0.005500,-0.018562,1.007875,192.000000,0.000000,0.000000,0.000000,0.000000,0.000000,0.000000,0.000000,0.000000,0.000000,1764345237.000895,0.000000
28.000000,23872.288927,25247.323543,14465.914901,20619.148984,27139.823394,-3294.758891,-9783.135031,17542.029028,24742.643504,21901.736784,4500.277877,-6474.093375,21965.416904,20740.407198,-1241.840570,5290.680264,0.004750,-0.018281,1.008938,192.000000,0.000000,16.000000,127.500000,56.000000,15.500000,72.000000,0.000000,0.000000,0.000000,1764345237.010938,0.000000
30.000000,23864.421113,25238.740473,14450.469846,20608.643664,27140.650408,-3321.223357,-9804.212726,17529.579107,24641.099529,21893.511342,4506.715179,-6463.029261,21954.442198,20743.782311,-1234.419791,5269.893142,0.004750,-0.018281,1.008938,192.000000,0.000000,0.000000,0.000000,0.000000,0.000000,0.000000,0.000000,0.000000,0.000000,1764345237.017978,0.000000
32.000000,23874.926433,25246.250659,14456.683631,20612.711681,27157.369513,-3324.464360,-9800.010598,17536.485796,24769.465598,21900.216866,4489.817260,-6486.297427,21961.550052,20729.924229,-1242.511123,5314.015486,0.004750,-0.018281,1.008938,192.000000,0.000000,0.000000,0.000000,0.000000,0.000000,0.000000,0.000000,0.000000,0.000000,1764345237.024976,0.000000
34.000000,23875.529930,25249.066979,14465.512570,20619.819536,27133.430795,-3294.848298,-9783.067975,17545.381790,24664.144178,21901.267398,4510.738493,-6455.876703,21968.054410,20748.520881,-1234.844474,5267.210933,0.004750,-0.018281,1.008938,192.000000,0.000000,0.000000,0.000000,0.000000,0.000000,0.000000,0.000000,0.000000,0.000000,1764345237.033003,0.000000
36.000000,23868.891462,25241.355627,14450.179273,20609.045995,27157.593031,-3307.834662,-9811.119415,17533.960048,24711.976911,21894.159543,4502.334237,-6473.378119,21965.618070,20734.282820,-1240.007727,5303.219593,0.004750,-0.018281,1.008938,192.000000,0.000000,0.000000,0.000000,0.000000,0.000000,0.000000,0.000000,0.000000,0.000000,1764345237.043013,0.000000
38.000000,23883.375392,25256.040723,14469.602939,20624.312237,27142.058568,-3285.751138,-9779.446993,17551.550871,24743.179946,21901.736784,4503.407121,-6470.874723,21967.383858,20738.015561,-1239.515989,5295.217668,0.005375,-0.019141,1.008469,192.000000,0.000000,24.000000,127.500000,48.000000,15.500000,64.000000,0.000000,0.000000,0.000000,1764345237.050123,0.000000
40.000000,23868.802055,25242.584973,14452.883834,20615.796222,27136.381225,-3304.526604,-9799.071824,17538.855080,24642.664152,21897.244084,4515.700581,-6452.255720,21961.907680,20750.845462,-1240.678279,5273.380014,0.005375,-0.019141,1.008469,192.000000,0.000000,0.000000,0.000000,0.000000,0.000000,0.000000,0.000000,0.000000,0.000000,1764345237.057181,0.000000
42.000000,23870.612546,25247.100025,14456.616575,20617.159679,27146.439510,-3308.818139,-9797.238981,17541.313772,24762.558909,21895.970034,4492.588877,-6483.414052,21957.392628,20731.555907,-1245.439201,5317.636468,0.005375,-0.019141,1.008469,192.000000,0.000000,0.000000,0.000000,0.000000,0.000000,0.000000,0.000000,0.000000,0.000000,1764345237.067160,0.000000
44.000000,23872.154817,25244.954258,14462.293918,20622.792318,27125.764147,-3293.060159,-9781.659816,17546.253508,24657.483358,21898.495781,4511.409046,-6453.239197,21957.079703,20753.304154,-1237.750201,5268.753203,0.005375,-0.019141,1.008469,192.000000,0.000000,0.000000,0.000000,0.000000,0.000000,0.000000,0.000000,0.000000,0.000000,1764345237.074229,0.000000
46.000000,23871.126636,25245.088368,14452.056819,20612.242295,27151.446301,-3314.830758,-9807.721950,17539.324467,24699.102306,21898.831057,4502.133072,-6470.517095,21953.168148,20740.340142,-1245.886236,5301.833785,0.005375,-0.019141,1.008469,192.000000,0.000000,0.000000,0.000000,0.000000,0.000000,0.000000,0.000000,0.000000,0.000000,1764345237.081293,0.000000
48.000000,23878.681526,25252.799720,14468.865331,20626.189783,27133.855478,-3284.946476,-9778.374109,17551.170892,24739.067225,21913.650264,4505.776406,-6463.677462,21966.668602,20750.264317,-1250.401288,5293.362474,0.005375,-0.019141,1.008469,192.000000,0.000000,0.000000,0.000000,0.000000,0.000000,0.000000,0.000000,0.000000,0.000000,1764345237.089312,0.000000
50.000000,23869.025572,25241.869717,14448.994630,20611.124708,27131.128565,-3318.652906,-9802.134013,17535.748188,24630.549506,21901.490915,4508.324505,-6455.854351,21953.212852,20745.011657,-1238.063125,5270.228418,0.008000,-0.020000,1.010000,192.000000,0.000000,32.000000,127.500000,48.000000,15.500000,72.000000,0.000000,0.000000,0.000000,1764345237.097276,0.000000
52.000000,23873.272404,25238.047569,14452.749724,20611.571742,27143.824356,-3322.966793,-9801.821089,17536.575203,24758.490891,21900.507438,4486.352740,-6488.085567,21958.979602,20727.398482,-1245.618015,5319.066980,0.008000,-0.020000,1.010000,192.000000,0.000000,0.000000,0.000000,0.000000,0.000000,0.000000,0.000000,0.000000,0.000000,1764345237.106325,0.000000
54.000000,23870.299622,25241.981476,14459.164674,20618.210211,27119.438603,-3279.582057,-9784.990225,17540.956144,24656.522233,21901.066232,4505.821110,-6461.442287,21958.934898,20748.811453,-1237.705497,5268.037947,0.008000,-0.020000,1.010000,192.000000,0.000000,0.000000,0.000000,0.000000,0.000000,0.000000,0.000000,0.000000,0.000000,1764345237.113282,0.000000
56.000000,23862.118883,25235.566525,14446.424180,20605.872048,27147.400635,-3317.535319,-9812.147595,17530.093197,24701.449239,21893.041956,4495.606362,-6483.972846,21956.520910,20730.997113,-1240.074782,5299.464500,0.008000,-0.020000,1.010000,192.000000,0.000000,0.000000,0.000000,0.000000,0.000000,0.000000,0.000000,0.000000,0.000000,1764345237.121304,0.000000
58.000000,23869.271442,25240.327446,14463.098581,20618.545487,27135.777728,-3300.190365,-9783.224438,17542.297249,24738.329618,21896.059441,4498.310923,-6477.580247,21964.634593,20735.422759,-1239.448934,5293.161308,0.008000,-0.020000,1.010000,192.000000,0.000000,0.000000,0.000000,0.000000,0.000000,0.000000,0.000000,0.000000,0.000000,1764345237.129382,0.000000
60.000000,23861.537738,25231.923191,14451.274508,20610.208286,27144.427853,-3313.579060,-9801.932848,17529.869679,24633.812861,21889.622139,4506.223441,-6465.130325,21952.788169,20740.653067,-1232.654003,5267.233284,0.008000,-0.026000,1.014000,192.000000,0.000000,32.000000,127.500000,24.000000,15.500000,88.000000,0.000000,0.000000,0.000000,1764345237.137443,0.000000
62.000000,23863.258822,25233.800737,14454.314346,20610.342397,27150.909859,-3311.656810,-9801.686979,17529.221479,24756.278069,21896.394717,4485.570429,-6492.734729,21955.068046,20727.666703,-1241.684108,5315.445997,0.008000,-0.026000,1.014000,192.000000,0.000000,0.000000,0.000000,0.000000,0.000000,0.000000,0.000000,0.000000,0.000000,1764345237.145448,0.000000
64.000000,23864.823444,25243.344932,14463.545616,20618.299618,27128.535763,-3291.048502,-9783.716176,17537.111644,24653.124768,21900.529790,4506.916345,-6462.179895,21957.169110,20749.817282,-1235.045640,5263.657005,0.008000,-0.026000,1.014000,192.000000,0.000000,0.000000,0.000000,0.000000,0.000000,0.000000,0.000000,0.000000,0.000000,1764345237.154479,0.000000
66.000000,23853.088779,25229.375092,14442.110293,20604.754460,27143.578487,-3321.022191,-9815.545060,17516.659798,24690.921568,21898.607540,4491.471290,-6482.743500,21947.647267,20739.200203,-1249.328405,5299.710369,0.008000,-0.026000,1.014000,192.000000,0.000000,0.000000,0.000000,0.000000,0.000000,0.000000,0.000000,0.000000,0.000000,1764345237.161453,0.000000
68.000000,23869.271442,25238.874583,14460.259910,20616.019740,27136.224763,-3295.898830,-9785.526667,17530.540232,24723.376301,21897.936988,4486.240981,-6489.270209,21948.161357,20736.629753,-1236.766724,5294.010674,0.008000,-0.026000,1.014000,192.000000,0.000000,0.000000,0.000000,0.000000,0.000000,0.000000,0.000000,0.000000,0.000000,1764345237.168484,0.000000
70.000000,23852.507633,25223.720100,14446.446532,20604.218019,27132.603780,-3325.023153,-9805.106795,17516.592743,24626.369730,21888.795124,4500.590801,-6472.305235,21943.489843,20743.558793,-1234.553901,5268.306168,0.006000,-0.020000,1.014000,192.000000,0.000000,24.000000,127.500000,48.000000,15.500000,88.000000,0.000000,0.000000,0.000000,1764345237.177568,0.000000
72.000000,23860.017819,25231.274990,14455.007250,20607.794298,27144.852536,-3318.295278,-9800.792909,17523.700598,24749.907821,21886.448191,4481.681226,-6503.575325,21946.417921,20722.123471,-1246.713250,5315.222480,0.006000,-0.020000,1.014000,192.000000,0.000000,0.000000,0.000000,0.000000,0.000000,0.000000,0.000000,0.000000,0.000000,1764345237.185563,0.000000
74.000000,23869.584366,25233.644275,14461.690421,20615.639760,27124.624208,-3295.250630,-9783.313845,17532.440130,24655.628163,21896.484124,4510.090293,-6466.829058,21950.195366,20746.956259,-1242.108791,5259.700747,0.006000,-0.020000,1.014000,192.000000,0.000000,0.000000,0.000000,0.000000,0.000000,0.000000,0.000000,0.000000,0.000000,1764345237.193616,0.000000
76.000000,23861.247165,25225.172964,14445.239537,20601.312292,27138.974028,-3317.691781,-9813.958086,17519.699635,24691.815638,21883.922444,4493.818223,-6489.761947,21937.723093,20726.482061,-1250.021309,5300.783253,0.006000,-0.020000,1.014000,192.000000,0.000000,0.000000,0.000000,0.000000,0.000000,0.000000,0.000000,0.000000,0.000000,1764345237.200590,0.000000
78.000000,23870.433732,25234.270124,14466.473695,20611.258818,27132.693187,-3301.039732,-9784.364377,17536.709313,24732.674626,21887.275206,4496.522784,-6488.510250,21949.368352,20726.236192,-1242.086439,5286.545192,0.006000,-0.020000,1.014000,192.000000,0.000000,0.000000,0.000000,0.000000,0.000000,0.000000,0.000000,0.000000,0.000000,1764345237.212099,0.000000
80.000000,23875.708744,25236.348836,14459.656413,20605.916751,27140.739815,-3317.200043,-9799.563563,17533.490662,24638.149099,21886.559950,4513.845386,-6467.209037,21948.764855,20734.931020,-1233.905701,5257.845552,0.006000,-0.028000,1.008000,192.000000,0.000000,24.000000,127.500000,16.000000,15.500000,64.000000,0.000000,0.000000,0.000000,1764345237.217680,0.000000
82.000000,23870.947822,25238.807528,14461.980994,20607.839001,27151.714522,-3317.624726,-9801.016426,17534.630601,24773.287746,21895.344185,4497.841537,-6492.935895,21961.840625,20724.716273,-1244.522780,5308.405198,0.006000,-0.028000,1.008000,192.000000,0.000000,0.000000,0.000000,0.000000,0.000000,0.000000,0.000000,0.000000,0.000000,1764345237.224628,0.000000
84.000000,23878.770933,25243.903726,14468.999442,20618.433728,27132.961408,-3292.702531,-9781.950388,17544.934755,24664.971192,21900.373328,4515.432360,-6458.804781,21959.046657,20747.425645,-1237.526684,5259.544284,0.006000,-0.028000,1.008000,192.000000,0.000000,0.000000,0.000000,0.000000,0.000000,0.000000,0.000000,0.000000,0.000000,1764345237.232682,0.000000
86.000000,23867.773875,25233.867792,14451.430971,20603.458059,27150.798100,-3322.810331,-9811.789967,17529.981438,24702.119792,21893.801915,4501.395464,-6474.003968,21953.816349,20733.612267,-1246.042698,5296.379959,0.006000,-0.028000,1.008000,192.000000,0.000000,0.000000,0.000000,0.000000,0.000000,0.000000,0.000000,0.000000,0.000000,1764345237.242757,0.000000
88.000000,23875.909910,25243.769615,14467.993613,20616.422071,27135.420100,-3301.307953,-9781.838629,17543.683057,24738.799004,21901.423860,4500.836670,-6475.233313,21959.963078,20737.881450,-1239.247768,5285.807584,0.006000,-0.028000,1.008000,192.000000,0.000000,0.000000,0.000000,0.000000,0.000000,0.000000,0.000000,0.000000,0.000000,1764345237.249778,0.000000
90.000000,23867.304488,25238.896935,14452.213282,20607.973112,27132.559077,-3321.580985,-9800.904667,17533.110682,24634.371654,21895.522999,4514.068903,-6458.760078,21951.782340,20743.357628,-1238.197236,5263.746412,0.010000,-0.022000,1.006000,192.000000,0.000000,40.000000,127.500000,40.000000,15.500000,56.000000,0.000000,0.000000,0.000000,1764345237.256802,0.000000
92.000000,23870.634898,25242.763787,14456.236596,20609.113051,27144.517260,-3318.541148,-9800.144708,17536.351685,24761.329563,21898.741650,4494.198202,-6487.817346,21954.665715,20726.750282,-1251.161248,5310.170985,0.010000,-0.022000,1.006000,192.000000,0.000000,0.000000,0.000000,0.000000,0.000000,0.000000,0.000000,0.000000,0.000000,1764345237.265789,0.000000
94.000000,23866.745694,25241.735606,14461.444552,20612.130536,27127.999321,-3298.268115,-9785.638426,17535.994057,24657.595117,21897.266435,4510.783197,-6461.218770,21952.676410,20746.062189,-1238.465457,5257.554979,0.010000,-0.022000,1.006000,192.000000,0.000000,0.000000,0.000000,0.000000,0.000000,0.000000,0.000000,0.000000,0.000000,1764345237.273866,0.000000
96.000000,23861.783607,25228.861002,14447.161787,20599.814725,27144.450205,-3327.638308,-9814.092197,17522.940638,24693.894350,21892.125534,4495.449900,-6483.168183,21949.837738,20729.901878,-1242.377012,5290.590857,0.010000,-0.022000,1.006000,192.000000,0.000000,0.000000,0.000000,0.000000,0.000000,0.000000,0.000000,0.000000,0.000000,1764345237.280870,0.000000
98.000000,23875.574634,25239.701598,14467.904206,20611.281170,27129.340426,-3307.588793,-9783.962045,17538.139825,24737.524955,21895.366537,4496.433377,-6483.995197,21961.393590,20732.315866,-1241.639404,5283.818279,0.010000,-0.022000,1.006000,192.000000,0.000000,0.000000,0.000000,0.000000,0.000000,0.000000,0.000000,0.000000,0.000000,1764345237.288933,0.000000
100.000000,23869.316145,25234.739510,14456.661279,20605.313254,27131.687359,-3311.969735,-9800.949371,17532.954220,24640.741901,21891.969072,4511.185528,-6463.297482,21959.605451,20742.262392,-1237.392573,5259.454877,0.008000,-0.018000,1.006000,192.000000,0.000000,32.000000,127.500000,56.000000,15.500000,56.000000,0.000000,0.000000,0.000000,1764345237.297943,0.000000
102.000000,23876.625166,25239.567487,14464.640852,20606.430841,27145.433682,-3314.003743,-9800.144708,17536.754016,24773.354801,21896.953511,4496.433377,-6489.158450,21964.858111,20729.231325,-1251.250655,5308.427549,0.008000,-0.018000,1.006000,192.000000,0.000000,0.000000,0.000000,0.000000,0.000000,0.000000,0.000000,0.000000,0.000000,1764345237.305021,0.000000
104.000000,23881.855474,25244.350761,14475.347337,20614.365711,27131.463841,-3295.138871,-9781.860981,17543.325429,24677.644632,21899.434555,4517.622831,-6461.911674,21972.524759,20749.347895,-1233.592776,5257.197351,0.008000,-0.018000,1.006000,192.000000,0.000000,0.000000,0.000000,0.000000,0.000000,0.000000,0.000000,0.000000,0.000000,1764345237.313053,0.000000
106.000000,23881.386087,25241.623848,14457.890625,20603.458059,27162.331600,-3314.853110,-9810.158290,17532.507185,24722.012844,21900.753307,4507.989229,-6475.792107,21971.876558,20739.803700,-1236.587910,5292.714273,0.008000,-0.018000,1.006000,192.000000,0.000000,0.000000,0.000000,0.000000,0.000000,0.000000,0.000000,0.000000,0.000000,1764345237.320996,0.000000
108.000000,23887.979852,25256.532461,14476.040241,20619.886591,27145.634847,-3296.547031,-9780.095193,17549.494511,24760.256679,21911.772717,4507.095159,-6473.556933,21975.743410,20746.263355,-1240.812390,5289.294456,0.008000,-0.018000,1.006000,192.000000,0.000000,0.000000,0.000000,0.000000,0.000000,0.000000,0.000000,0.000000,0.000000,1764345237.330034,0.000000
110.000000,23880.290852,25248.329371,14458.203549,20611.616446,27136.805908,-3307.678200,-9800.256467,17537.357514,24652.454216,21907.972921,4520.841482,-6454.781467,21966.266270,20755.874605,-1237.660794,5266.518029,0.008000,-0.020000,1.010000,192.000000,0.000000,32.000000,127.500000,48.000000,15.500000,72.000000,0.000000,0.000000,0.000000,1764345237.337102,0.000000
112.000000,23888.806866,25250.877470,14462.562139,20613.985731,27150.127548,-3313.579060,-9799.116528,17542.006676,24776.506397,21909.738709,4500.411987,-6484.710453,21966.758009,20738.127320,-1243.941634,5316.585936,0.008000,-0.020000,1.010000,192.000000,0.000000,0.000000,0.000000,0.000000,0.000000,0.000000,0.000000,0.000000,0.000000,1764345237.345201,0.000000
114.000000,23886.750506,25253.604383,14472.598073,20623.574629,27124.065414,-3290.914391,-9780.497525,17549.293345,24674.805960,21910.252799,4520.349743,-6454.692060,21964.254613,20759.249718,-1237.571387,5263.701709,0.008000,-0.020000,1.010000,192.000000,0.000000,0.000000,0.000000,0.000000,0.000000,0.000000,0.000000,0.000000,0.000000,1764345237.353186,0.000000
116.000000,23878.726230,25246.094197,14458.427067,20610.252990,27145.321923,-3311.634458,-9810.091234,17537.849252,24713.675644,21906.296540,4513.375999,-6469.511267,21958.823140,20745.905727,-1243.919282,5297.251677,0.008000,-0.020000,1.010000,192.000000,0.000000,0.000000,0.000000,0.000000,0.000000,0.000000,0.000000,0.000000,0.000000,1764345237.361193,0.000000
118.000000,23889.499770,25259.013505,14477.537808,20622.904077,27134.056644,-3295.563554,-9779.938731,17552.154368,24754.914612,21907.905866,4512.303115,-6471.813497,21966.489788,20745.056360,-1239.940672,5290.456747,0.008000,-0.020000,1.010000,192.000000,0.000000,0.000000,0.000000,0.000000,0.000000,0.000000,0.000000,0.000000,0.000000,1764345237.369164,0.000000
120.000000,23883.554206,25250.989229,14465.736087,20615.751519,27136.068301,-3315.411903,-9796.367263,17545.895880,24652.409512,21908.598770,4529.066924,-6448.902959,21965.662773,20757.238061,-1239.538341,5265.243979,0.006000,-0.022000,1.009000,192.000000,0.000000,16.000000,127.500000,32.000000,15.500000,64.000000,0.000000,0.000000,0.000000,1764345237.377213,0.000000
122.000000,23884.783552,25251.011580,14466.563102,20613.739862,27139.286952,-3311.053313,-9798.423624,17547.080522,24772.438380,21906.564761,4506.357551,-6480.038939,21963.137026,20734.640447,-1247.897893,5314.417817,0.006000,-0.022000,1.009000,192.000000,0.000000,0.000000,0.000000,0.000000,0.000000,0.000000,0.000000,0.000000,0.000000,1764345237.386237,0.000000
124.000000,23889.276253,25255.951316,14477.157828,20621.674731,27125.294760,-3298.268115,-9778.597627,17555.708296,24671.810826,21906.877685,4524.641278,-6451.898092,21963.628765,20752.946526,-1237.124352,5261.466534,0.006000,-0.022000,1.009000,192.000000,0.000000,0.000000,0.000000,0.000000,0.000000,0.000000,0.000000,0.000000,0.000000,1764345237.392298,0.000000
126.000000,23883.017764,25249.961048,14458.963508,20611.772908,27146.953600,-3323.972621,-9808.727778,17541.716104,24710.658158,21902.966130,4514.918270,-6465.577360,21964.299317,20740.563660,-1235.939710,5289.674436,0.006000,-0.022000,1.009000,192.000000,0.000000,0.000000,0.000000,0.000000,0.000000,0.000000,0.000000,0.000000,0.000000,1764345237.401299,0.000000
128.000000,23887.286948,25257.761807,14474.587378,20625.608638,27134.704844,-3297.865784,-9780.363414,17554.031915,24749.863118,21905.424822,4510.336162,-6468.326624,21967.808541,20743.357628,-1239.605396,5293.921267,0.006000,-0.022000,1.009000,192.000000,0.000000,0.000000,0.000000,0.000000,0.000000,0.000000,0.000000,0.000000,0.000000,1764345237.409307,0.000000
130.000000,23876.044020,25250.475138,14459.410543,20616.042091,27132.536725,-3311.477996,-9799.027121,17543.325429,24646.888631,21900.775659,4523.210767,-6452.099258,21958.979602,20751.046628,-1238.934843,5273.469421,0.005000,-0.025000,1.010500,192.000000,0.000000,16.000000,127.500000,16.000000,15.500000,80.000000,0.000000,0.000000,0.000000,1764345237.417339,0.000000
132.000000,23885.699974,25252.687961,14465.959604,20616.153850,27148.182946,-3313.422598,-9796.881353,17548.466331,24773.645374,21901.602674,4504.859985,-6482.140003,21961.795922,20731.332389,-1245.908588,5320.676305,0.005000,-0.025000,1.010500,192.000000,0.000000,0.000000,0.000000,0.000000,0.000000,0.000000,0.000000,0.000000,0.000000,1764345237.425400,0.000000
134.000000,23888.337480,25258.365304,14474.207398,20624.200478,27130.793289,-3286.354636,-9777.971778,17554.344839,24677.376411,21907.391776,4526.541177,-6452.255720,21965.640422,20754.108817,-1235.023288,5265.109869,0.005000,-0.025000,1.010500,192.000000,0.000000,0.000000,0.000000,0.000000,0.000000,0.000000,0.000000,0.000000,0.000000,1764345237.433410,0.000000
136.000000,23878.927395,25248.239964,14454.202587,20610.409452,27144.651371,-3303.833700,-9810.337104,17534.384732,24713.988568,21904.486049,4511.878432,-6469.824191,21964.455779,20744.005828,-1244.679242,5301.923192,0.005000,-0.025000,1.010500,192.000000,0.000000,0.000000,0.000000,0.000000,0.000000,0.000000,0.000000,0.000000,0.000000,1764345237.441432,0.000000
