Sample Index, EXG Channel 0, EXG Channel 1, EXG Channel 2, EXG Channel 3, EXG Channel 4, EXG Channel 5, EXG Channel 6, EXG Channel 7, EXG Channel 8, EXG Channel 9, EXG Channel 10, EXG Channel 11, EXG Channel 12, EXG Channel 13, EXG Channel 14, EXG Channel 15, Accel Channel 0, Accel Channel 1, Accel Channel 2, Not Used, Digital Channel 0 (D11), Digital Channel 1 (D12), Digital Channel 2 (D13), Digital Channel 3 (D17), Not Used, Digital Channel 4 (D18), Analog Channel 0, Analog Channel 1, Analog Channel 2, Timestamp, Marker Channel, Timestamp (Formatted)
248.000000,23199.054384,25552.536613,14287.592684,20225.735930,26649.806100,-2001.218736,-9931.863538,17477.678356,24553.257174,21355.773074,4106.797767,-6635.249452,21988.506256,20169.275423,-711.612488,5212.315048,0.010000,-0.018000,1.010000,192.000000,0.000000,0.000000,0.000000,0.000000,0.000000,0.000000,0.000000,0.000000,0.000000,1764345639.062708,0.000000
250.000000,23180.949471,25539.170270,14269.823047,20211.631979,26658.500929,-2016.440274,-9956.405754,17459.461684,24471.829769,21347.637039,4115.492596,-6624.967650,21983.857093,20172.650537,-701.598907,5200.423920,0.010000,-0.016000,1.016000,192.000000,0.000000,40.000000,127.500000,64.000000,15.500000,96.000000,0.000000,0.000000,0.000000,1764345639.069715,0.000000
252.000000,23197.735631,25552.558965,14280.797753,20218.605723,26676.896414,-2001.822233,-9947.889739,17469.251748,24586.695383,21351.839167,4094.660770,-6649.398106,21989.445029,20158.680696,-700.928354,5244.009822,0.010000,-0.016000,1.016000,192.000000,0.000000,0.000000,0.000000,0.000000,0.000000,0.000000,0.000000,0.000000,0.000000,1764345639.076715,0.000000
254.000000,23196.662747,25557.208128,14285.044585,20227.613476,26656.064589,-1998.156547,-9933.808140,17477.946577,24483.251510,21358.120007,4117.191329,-6614.730551,21992.686032,20183.781705,-690.043055,5203.910792,0.010000,-0.016000,1.016000,192.000000,0.000000,0.000000,0.000000,0.000000,0.000000,0.000000,0.000000,0.000000,0.000000,1764345639.088026,0.000000
0.000000,23206.095184,25569.233366,14279.948387,20221.824374,26689.860426,-2007.477225,-9955.087001,17477.879522,24549.770302,21366.636022,4112.050427,-6624.587670,21995.591759,20178.484342,-695.005142,5247.072011,0.010000,-0.016000,1.016000,192.000000,0.000000,0.000000,0.000000,0.000000,0.000000,0.000000,0.000000,0.000000,0.000000,1764345639.092777,0.000000
2.000000,23220.087376,25579.269299,14302.814222,20236.665933,26672.135493,-1978.174088,-9923.682800,17497.817278,24572.569081,21382.394002,4127.361372,-6608.740283,22010.925056,20192.700051,-693.306410,5221.881595,0.010000,-0.016000,1.016000,192.000000,0.000000,0.000000,0.000000,0.000000,0.000000,0.000000,0.000000,0.000000,0.000000,1764345639.101724,0.000000
4.000000,23211.683120,25573.882529,14290.565466,20227.144090,26676.158807,-2000.391722,-9943.642908,17486.663757,24490.538179,21372.358069,4136.793809,-6599.509013,22002.140820,20192.141258,-697.352075,5203.463757,0.010000,-0.022000,1.014000,192.000000,0.000000,40.000000,127.500000,40.000000,15.500000,88.000000,0.000000,0.000000,0.000000,1764345639.108821,0.000000
6.000000,23217.136945,25575.000116,14295.996940,20228.529898,26678.706906,-2006.069065,-9938.077323,17490.016519,24610.634102,21376.224920,4121.751085,-6624.475911,22008.645178,20181.367717,-707.499767,5236.656098,0.010000,-0.022000,1.014000,192.000000,0.000000,0.000000,0.000000,0.000000,0.000000,0.000000,0.000000,0.000000,0.000000,1764345639.116818,0.000000
8.000000,23204.105878,25561.857290,14292.018329,20229.669837,26647.325056,-1999.452949,-9930.656544,17484.450934,24495.030879,21368.446513,4131.630556,-6603.554678,21998.095155,20190.174304,-704.594040,5189.292751,0.010000,-0.022000,1.014000,192.000000,0.000000,0.000000,0.000000,0.000000,0.000000,0.000000,0.000000,0.000000,0.000000,1764345639.125860,0.000000
10.000000,23191.812419,25549.943811,14276.930902,20219.723310,26667.754551,-2021.491769,-9955.265815,17472.202179,24546.305781,21361.025734,4111.558689,-6627.627507,21988.103925,20174.572787,-712.439503,5226.150778,0.010000,-0.022000,1.014000,192.000000,0.000000,0.000000,0.000000,0.000000,0.000000,0.000000,0.000000,0.000000,0.000000,1764345639.132860,0.000000
12.000000,23198.205018,25552.558965,14292.063033,20228.999284,26644.955772,-2004.727960,-9928.801349,17482.394574,24556.006438,21362.612708,4112.341000,-6623.604193,21989.310919,20176.003298,-713.847663,5203.776682,0.010000,-0.022000,1.014000,192.000000,0.000000,0.000000,0.000000,0.000000,0.000000,0.000000,0.000000,0.000000,0.000000,1764345639.140906,0.000000
14.000000,23183.966957,25539.416139,14275.790963,20214.917685,26648.219126,-2028.085533,-9953.477675,17465.563710,24471.472141,21351.995629,4118.375971,-6617.546870,21977.106866,20174.528083,-708.460892,5188.979827,0.004000,-0.016000,1.018000,192.000000,0.000000,16.000000,127.500000,64.000000,15.500000,104.000000,0.000000,0.000000,0.000000,1764345639.148933,0.000000
16.000000,23186.291538,25542.120700,14282.921169,20219.142165,26654.522318,-2019.748332,-9947.733277,17469.408210,24583.946119,21347.838205,4098.281753,-6644.368964,21983.432410,20156.579632,-711.813654,5233.906833,0.004000,-0.016000,1.018000,192.000000,0.000000,0.000000,0.000000,0.000000,0.000000,0.000000,0.000000,0.000000,0.000000,1764345639.156961,0.000000
18.000000,23192.572378,25550.167328,14289.246713,20226.607648,26640.887754,-2004.817367,-9935.551576,17476.046679,24476.076600,21352.889699,4116.677239,-6615.669324,21982.851265,20179.467819,-697.665000,5189.203344,0.004000,-0.016000,1.018000,192.000000,0.000000,0.000000,0.000000,0.000000,0.000000,0.000000,0.000000,0.000000,0.000000,1764345639.164953,0.000000
20.000000,23195.768678,25555.375285,14279.635463,20221.332636,26671.084961,-2015.590908,-9957.232768,17473.319766,24544.607049,21365.741952,4107.825948,-6626.867548,21985.555826,20176.897368,-700.593078,5235.314993,0.004000,-0.016000,1.018000,192.000000,0.000000,0.000000,0.000000,0.000000,0.000000,0.000000,0.000000,0.000000,0.000000,1764345639.171964,0.000000
22.000000,23205.290521,25561.320849,14298.880315,20233.313171,26658.567984,-1982.510326,-9927.348486,17489.949464,24561.728485,21368.446513,4114.777340,-6617.725684,21993.557750,20189.593159,-695.854508,5222.596851,0.004000,-0.016000,1.018000,192.000000,0.000000,0.000000,0.000000,0.000000,0.000000,0.000000,0.000000,0.000000,0.000000,1764345639.181005,0.000000
24.000000,23200.708413,25560.627945,14285.402213,20222.070244,26673.029563,-2000.637591,-9951.063687,17476.560769,24486.716030,21363.417371,4126.042619,-6606.750978,21991.121410,20199.785554,-691.518270,5212.292697,0.001000,-0.017000,1.017000,192.000000,127.500000,120.000000,127.500000,56.000000,15.500000,96.000000,0.000000,0.000000,0.000000,1764345639.189039,0.000000
26.000000,23218.969788,25575.178930,14297.539210,20226.607648,26697.080040,-1986.265419,-9943.128817,17488.451897,24611.818744,21372.983917,4114.285602,-6629.817978,22005.582989,20183.401726,-695.720398,5249.731868,0.001000,-0.017000,1.017000,192.000000,0.000000,0.000000,0.000000,0.000000,0.000000,0.000000,0.000000,0.000000,0.000000,1764345639.196132,0.000000
28.000000,23212.487783,25569.345125,14291.571294,20225.400654,26665.005286,-1988.098262,-9937.317364,17481.299338,24503.993929,21374.727353,4133.955137,-6600.447786,22005.158306,20200.992549,-688.456081,5201.765025,0.001000,-0.017000,1.017000,192.000000,0.000000,0.000000,0.000000,0.000000,0.000000,0.000000,0.000000,0.000000,0.000000,1764345639.205169,0.000000
30.000000,23202.161277,25561.432607,14274.271044,20215.029444,26689.592205,-2001.263440,-9963.491257,17468.737658,24553.748912,21362.590356,4113.123311,-6629.907385,21994.161248,20177.031479,-696.547412,5244.769781,0.001000,-0.017000,1.017000,192.000000,0.000000,0.000000,0.000000,0.000000,0.000000,0.000000,0.000000,0.000000,0.000000,1764345639.213364,0.000000
32.000000,23210.431422,25567.556985,14289.492582,20224.148956,26660.780807,-1984.656094,-9936.266832,17478.281853,24559.314496,21366.770132,4111.134006,-6625.414684,21993.222474,20181.613586,-697.888517,5223.781493,0.001000,-0.017000,1.017000,192.000000,0.000000,0.000000,0.000000,0.000000,0.000000,0.000000,0.000000,0.000000,0.000000,1764345639.222188,0.000000
34.000000,23205.424631,25563.690134,14276.327405,20213.151898,26663.239499,-2010.695876,-9956.875140,17468.894120,24481.083391,21356.175406,4118.398323,-6616.742208,21987.813352,20176.562092,-696.234488,5196.087682,-0.000500,-0.017500,1.017500,192.000000,127.500000,120.000000,127.500000,56.000000,15.500000,104.000000,0.000000,0.000000,0.000000,1764345639.228212,0.000000
36.000000,23217.069890,25574.441323,14289.269065,20220.192697,26675.823531,-2004.951478,-9945.766323,17482.349870,24599.927616,21360.668106,4106.440140,-6637.797551,21994.004785,20162.256975,-704.839910,5228.162435,-0.000500,-0.017500,1.017500,192.000000,0.000000,0.000000,0.000000,0.000000,0.000000,0.000000,0.000000,0.000000,0.000000,1764345639.236375,0.000000
38.000000,23226.725844,25579.939852,14297.293341,20226.674703,26651.460129,-2007.253707,-9931.662373,17489.927112,24499.434173,21369.988784,4134.201006,-6601.766539,21999.570370,20185.860418,-694.312238,5175.993464,-0.000500,-0.017500,1.017500,192.000000,0.000000,0.000000,0.000000,0.000000,0.000000,0.000000,0.000000,0.000000,0.000000,1764345639.245272,0.000000
40.000000,23215.885248,25570.105084,14287.391518,20218.337502,26675.734124,-2029.203120,-9953.656489,17481.366394,24561.616726,21355.057818,4122.891024,-6622.620716,21997.648120,20163.888653,-702.224756,5216.114845,-0.000500,-0.017500,1.017500,192.000000,0.000000,0.000000,0.000000,0.000000,0.000000,0.000000,0.000000,0.000000,0.000000,1764345639.252273,0.000000
42.000000,23229.385701,25585.907768,14302.948332,20234.497814,26655.617554,-2004.437388,-9923.749855,17498.398423,24572.882005,21371.218130,4126.623765,-6610.818995,22001.626730,20175.690374,-698.335552,5201.206231,-0.000500,-0.017500,1.017500,192.000000,0.000000,0.000000,0.000000,0.000000,0.000000,0.000000,0.000000,0.000000,0.000000,1764345639.260323,0.000000
44.000000,23220.713224,25576.341221,14288.598512,20227.747587,26668.067475,-2013.556899,-9944.984012,17488.965987,24493.957996,21372.089848,4138.023154,-6594.323408,21995.167076,20185.748659,-692.993485,5189.404510,-0.000500,-0.017500,1.017500,192.000000,0.000000,0.000000,127.500000,48.000000,15.500000,88.000000,0.000000,0.000000,0.000000,1764345639.269317,0.000000
46.000000,23223.976579,25578.598747,14293.113565,20228.775767,26676.628193,-1999.967039,-9941.005402,17492.184638,24613.986863,21374.034449,4121.125236,-6620.050266,22000.576198,20174.170455,-697.195613,5236.544339,-0.000500,-0.017500,1.017500,192.000000,0.000000,0.000000,0.000000,0.000000,0.000000,0.000000,0.000000,0.000000,0.000000,1764345639.277367,0.000000
48.000000,23219.439175,25577.659974,14290.140783,20228.596953,26656.399865,-1982.979713,-9935.216300,17489.055394,24498.517752,21372.380420,4134.223358,-6595.820975,21994.429468,20195.538723,-692.568802,5195.193612,-0.000500,-0.017500,1.017500,192.000000,0.000000,0.000000,0.000000,0.000000,0.000000,0.000000,0.000000,0.000000,0.000000,1764345639.285364,0.000000
50.000000,23207.525695,25566.417046,14276.036832,20214.671816,26682.059667,-2013.355734,-9962.619539,17472.291585,24555.268831,21366.725429,4114.598526,-6622.084275,21988.707422,20178.506694,-696.949744,5235.359697,-0.000500,-0.017500,1.017500,192.000000,0.000000,0.000000,0.000000,0.000000,0.000000,0.000000,0.000000,0.000000,0.000000,1764345639.293422,0.000000
52.000000,23204.731727,25562.974878,14287.436222,20220.282104,26659.439702,-1984.454928,-9938.211434,17475.934920,24559.560366,21363.596185,4110.351695,-6624.744132,21987.522779,20179.065487,-697.575593,5217.411246,-0.000500,-0.017500,1.017500,192.000000,0.000000,0.000000,0.000000,0.000000,0.000000,0.000000,0.000000,0.000000,0.000000,1764345639.302473,0.000000
54.000000,23200.484896,25558.459825,14277.534399,20209.150935,26670.995554,-2003.543318,-9959.579701,17465.340193,24474.176702,21352.062685,4114.307954,-6620.765522,21976.883349,20175.377449,-694.222831,5204.626048,-0.001250,-0.019750,1.013750,192.000000,127.500000,120.000000,127.500000,40.000000,15.500000,72.000000,0.000000,0.000000,0.000000,1764345639.309477,0.000000
56.000000,23213.426556,25568.652221,14287.659739,20213.822450,26679.578624,-1999.341190,-9950.460190,17476.828990,24605.090869,21364.691420,4106.149567,-6640.859740,21995.748221,20165.877958,-698.536718,5242.288738,-0.001250,-0.019750,1.013750,192.000000,0.000000,0.000000,0.000000,0.000000,0.000000,0.000000,0.000000,0.000000,0.000000,1764345639.316461,0.000000
58.000000,23222.344902,25576.520035,14296.421623,20222.919610,26665.497025,-1982.689140,-9933.092884,17491.089403,24497.601330,21369.809970,4129.261271,-6607.801510,21993.334233,20186.843894,-692.434691,5189.605676,-0.001250,-0.019750,1.013750,192.000000,0.000000,0.000000,0.000000,0.000000,0.000000,0.000000,0.000000,0.000000,0.000000,1764345639.324522,0.000000
60.000000,23209.537352,25564.718314,14279.724870,20212.727214,26681.724391,-2015.970888,-9958.551521,17477.432487,24559.560366,21367.574795,4121.281698,-6624.431208,21991.635500,20171.152970,-696.927392,5221.188691,-0.001250,-0.019750,1.013750,192.000000,0.000000,0.000000,0.000000,0.000000,0.000000,0.000000,0.000000,0.000000,0.000000,1764345639.333618,0.000000
62.000000,23224.736538,25578.598747,14296.041643,20229.669837,26658.232708,-1998.201251,-9927.437893,17494.665682,24567.919918,21362.612708,4120.655849,-6620.452597,21992.641329,20171.734115,-700.146043,5209.185804,-0.001250,-0.019750,1.013750,192.000000,0.000000,0.000000,0.000000,0.000000,0.000000,0.000000,0.000000,0.000000,0.000000,1764345639.340647,0.000000
64.000000,23214.767660,25571.580299,14277.735564,20223.232534,26659.238536,-2024.106923,-9949.275547,17482.618091,24486.045478,21362.590356,4129.909471,-6603.040588,21983.186541,20181.770048,-700.973058,5189.583324,-0.002625,-0.023875,1.010875,192.000000,127.500000,112.000000,127.500000,16.000000,15.500000,64.000000,0.000000,0.000000,0.000000,1764345639.348609,0.000000
66.000000,23226.882306,25583.069096,14286.139820,20228.082863,26661.429007,-2003.833890,-9941.743009,17492.944597,24602.498067,21365.138455,4113.168015,-6627.225176,21985.131143,20169.677755,-713.177110,5230.688182,-0.002625,-0.023875,1.010875,192.000000,0.000000,0.000000,0.000000,0.000000,0.000000,0.000000,0.000000,0.000000,0.000000,1764345639.356656,0.000000
68.000000,23227.329341,25584.946643,14290.364300,20229.982761,26640.284257,-1991.205155,-9931.304745,17495.336234,24499.121249,21371.776923,4137.173788,-6595.083367,21985.779343,20187.849723,-706.069256,5183.034263,-0.002625,-0.023875,1.010875,192.000000,0.000000,0.000000,0.000000,0.000000,0.000000,0.000000,0.000000,0.000000,0.000000,1764345639.364714,0.000000
70.000000,23218.343940,25577.749381,14275.589797,20216.437604,26667.128702,-2016.730847,-9958.417411,17482.551036,24556.766398,21361.718638,4119.806483,-6619.223251,21979.923186,20168.537816,-709.556128,5224.340287,-0.002625,-0.023875,1.010875,192.000000,0.000000,0.000000,0.000000,0.000000,0.000000,0.000000,0.000000,0.000000,0.000000,1764345639.372768,0.000000
72.000000,23218.008663,25576.967070,14290.654873,20224.394825,26648.621458,-1999.162376,-9934.724562,17487.557827,24562.711962,21366.501911,4119.046523,-6614.328219,21984.594701,20173.209330,-705.309296,5208.939935,-0.002625,-0.023875,1.010875,192.000000,0.000000,0.000000,0.000000,0.000000,0.000000,0.000000,0.000000,0.000000,0.000000,1764345639.382710,0.000000
74.000000,23213.918294,25573.144921,14277.824971,20216.974046,26665.407618,-2006.940783,-9957.121009,17474.482056,24480.926929,21362.210377,4122.086361,-6608.293248,21976.212797,20176.807961,-689.707779,5199.842775,-0.002625,-0.023875,1.010875,192.000000,0.000000,0.000000,127.500000,32.000000,15.500000,64.000000,0.000000,0.000000,0.000000,1764345639.390741,0.000000
76.000000,23218.723919,25576.162407,14286.899780,20223.299590,26680.986784,-1995.317876,-9950.303727,17477.231321,24605.806125,21372.581586,4106.529547,-6631.002621,21990.383803,20171.063563,-695.228660,5241.327613,-0.002625,-0.023875,1.010875,192.000000,0.000000,0.000000,0.000000,0.000000,0.000000,0.000000,0.000000,0.000000,0.000000,1764345639.397765,0.000000
78.000000,23219.595637,25575.961241,14291.727756,20228.529898,26666.480501,-1971.066233,-9938.881986,17480.360565,24495.544970,21372.961566,4126.914338,-6604.560507,21991.881370,20193.661176,-685.237430,5197.227621,-0.002625,-0.023875,1.010875,192.000000,0.000000,0.000000,0.000000,0.000000,0.000000,0.000000,0.000000,0.000000,0.000000,1764345639.404795,0.000000
80.000000,23213.068928,25569.836863,14277.757916,20215.789403,26691.782676,-1996.860146,-9964.742954,17468.402382,24558.465130,21373.498007,4112.922145,-6627.403990,21992.395460,20183.960519,-691.115939,5235.225586,-0.002625,-0.023875,1.010875,192.000000,0.000000,0.000000,0.000000,0.000000,0.000000,0.000000,0.000000,0.000000,0.000000,1764345639.412859,0.000000
82.000000,23229.206887,25584.052573,14297.159230,20229.178098,26671.330830,-1974.575457,-9934.009306,17487.379013,24568.322249,21379.555330,4116.163148,-6623.470083,21999.659777,20191.828333,-685.460947,5218.618240,-0.002625,-0.023875,1.010875,192.000000,0.000000,0.000000,0.000000,0.000000,0.000000,0.000000,0.000000,0.000000,0.000000,1764345639.420912,0.000000
84.000000,23220.467355,25580.811570,14280.820105,20217.823412,26676.963470,-1989.260553,-9956.383402,17475.644347,24495.097935,21375.353202,4127.920166,-6606.102777,21997.648120,20198.377394,-688.523136,5199.507499,0.002687,-0.023938,1.006438,192.000000,0.000000,32.000000,127.500000,32.000000,15.500000,40.000000,0.000000,0.000000,0.000000,1764345639.428881,0.000000
86.000000,23226.479975,25578.978727,14288.754974,20218.270447,26681.255005,-2001.039922,-9949.521416,17479.757068,24613.405718,21377.476618,4111.111654,-6631.941394,22003.996015,20184.139333,-697.977924,5232.968060,0.002687,-0.023938,1.006438,192.000000,0.000000,0.000000,0.000000,0.000000,0.000000,0.000000,0.000000,0.000000,0.000000,1764345639.437911,0.000000
88.000000,23221.540239,25575.670669,14293.135916,20224.573639,26651.527184,-1994.177937,-9936.982088,17482.886312,24502.205789,21374.436781,4130.110637,-6606.259239,21997.737527,20191.358947,-695.586287,5181.849621,0.002687,-0.023938,1.006438,192.000000,0.000000,0.000000,0.000000,0.000000,0.000000,0.000000,0.000000,0.000000,0.000000,1764345639.445014,0.000000
90.000000,23216.444041,25570.038029,14282.429431,20216.124680,26678.550443,-2010.539414,-9958.663280,17473.856208,24559.850938,21367.530092,4115.202023,-6628.610984,21993.848323,20172.963461,-702.716494,5224.697915,0.002687,-0.023938,1.006438,192.000000,0.000000,0.000000,0.000000,0.000000,0.000000,0.000000,0.000000,0.000000,0.000000,1764345639.454006,0.000000
92.000000,23224.244800,25581.638584,14297.025120,20230.139223,26658.635039,-1995.027303,-9929.606012,17489.591836,24574.334869,21376.739010,4123.203948,-6616.094007,22001.649082,20183.111153,-701.867128,5204.849566,0.002687,-0.023938,1.006438,192.000000,0.000000,0.000000,0.000000,0.000000,0.000000,0.000000,0.000000,0.000000,0.000000,1764345639.461030,0.000000
94.000000,23206.743384,25566.528805,14277.310881,20218.024578,26664.111217,-2017.826082,-9955.779905,17470.659908,24481.329260,21363.149150,4122.376933,-6608.561469,21984.661756,20183.871112,-697.754407,5200.312161,0.002687,-0.023938,1.006438,192.000000,0.000000,0.000000,0.000000,0.000000,0.000000,0.000000,0.000000,0.000000,0.000000,1764345639.469106,0.000000
96.000000,23220.087376,25577.838788,14288.419698,20220.125642,26674.482426,-1995.921373,-9949.655527,17478.326556,24600.285244,21369.050010,4104.070855,-6633.841292,21991.456686,20170.683583,-697.195613,5243.965118,0.008000,-0.024000,1.010000,192.000000,0.000000,32.000000,127.500000,32.000000,15.500000,72.000000,0.000000,0.000000,0.000000,1764345639.478235,0.000000
98.000000,23218.455698,25576.989421,14295.684015,20221.667912,26660.154958,-1990.646361,-9939.150207,17480.159400,24496.282577,21368.893548,4127.048448,-6604.582859,22002.543152,20187.045060,-686.734997,5193.047845,0.008000,-0.024000,1.010000,192.000000,0.000000,0.000000,0.000000,0.000000,0.000000,0.000000,0.000000,0.000000,0.000000,1764345639.485133,0.000000
100.000000,23210.856105,25572.630831,14283.926998,20214.649464,26688.251101,-1995.429635,-9962.060745,17471.129295,24558.331020,21366.479560,4112.899794,-6626.845196,21995.994091,20175.600967,-688.120805,5232.185749,0.008000,-0.024000,1.010000,192.000000,0.000000,0.000000,0.000000,0.000000,0.000000,0.000000,0.000000,0.000000,0.000000,1764345639.493166,0.000000
102.000000,23227.061120,25586.086581,14298.209762,20229.111043,26669.945022,-1975.536582,-9933.316402,17485.680280,24569.573947,21377.990708,4117.951288,-6617.457463,21993.915378,20183.759354,-686.153851,5218.439426,0.008000,-0.024000,1.010000,192.000000,0.000000,0.000000,0.000000,0.000000,0.000000,0.000000,0.000000,0.000000,0.000000,1764345639.501216,0.000000
104.000000,23222.479012,25585.885416,14283.234094,20224.931267,26683.020792,-1987.539469,-9953.343565,17478.460667,24493.935644,21376.157865,4126.735524,-6601.900649,21991.322576,20192.387127,-685.572706,5206.078912,0.008000,-0.024000,1.010000,192.000000,0.000000,0.000000,0.000000,0.000000,0.000000,0.000000,0.000000,0.000000,0.000000,1764345639.508248,0.000000
106.000000,23225.943533,25586.891244,14288.240884,20227.345255,26687.558196,-1983.851431,-9947.934443,17481.858132,24614.657416,21385.456191,4110.686971,-6622.508958,22000.933826,20188.497923,-694.133424,5244.367450,0.006000,-0.022000,1.012000,192.000000,0.000000,24.000000,127.500000,40.000000,15.500000,80.000000,0.000000,0.000000,0.000000,1764345639.516278,0.000000
108.000000,23228.916315,25589.238177,14292.912399,20229.893354,26664.692362,-1985.885440,-9936.870329,17484.897969,24499.009490,21385.143266,4128.255442,-6599.799585,21994.630634,20198.265636,-689.663075,5192.779624,0.006000,-0.022000,1.012000,192.000000,0.000000,0.000000,0.000000,0.000000,0.000000,0.000000,0.000000,0.000000,0.000000,1764345639.525211,0.000000
110.000000,23225.250629,25585.706602,14282.809410,20221.064415,26688.161694,-2003.118635,-9959.445591,17478.974757,24564.544805,21377.074287,4116.699590,-6619.647934,21994.518875,20181.814752,-698.983753,5231.515197,0.006000,-0.022000,1.012000,192.000000,0.000000,0.000000,0.000000,0.000000,0.000000,0.000000,0.000000,0.000000,0.000000,1764345639.532255,0.000000
112.000000,23238.192289,25595.854294,14302.434242,20232.128529,26666.659315,-1977.972922,-9927.728466,17498.465478,24575.027773,21387.043165,4126.802579,-6606.661571,22003.638387,20193.370604,-701.934183,5213.499691,0.006000,-0.022000,1.012000,192.000000,0.000000,0.000000,0.000000,0.000000,0.000000,0.000000,0.000000,0.000000,0.000000,1764345639.542305,0.000000
114.000000,23223.306027,25583.180855,14282.429431,20221.958485,26660.713751,-2005.197347,-9950.706059,17482.796905,24492.706298,21374.749705,4132.614032,-6597.944391,21991.680204,20189.079069,-696.860337,5194.053673,0.006000,-0.022000,1.012000,192.000000,0.000000,0.000000,0.000000,0.000000,0.000000,0.000000,0.000000,0.000000,0.000000,1764345639.548375,0.000000
116.000000,23223.820117,25584.678422,14286.877428,20226.518241,26665.139397,-2003.230393,-9943.732315,17485.635577,24602.609825,21376.247272,4110.418750,-6624.140635,21991.054355,20171.197673,-707.142139,5236.276118,0.006000,-0.020000,1.012000,192.000000,0.000000,24.000000,127.500000,48.000000,15.500000,80.000000,0.000000,0.000000,0.000000,1764345639.558331,0.000000
118.000000,23223.730710,25585.907768,14290.341948,20228.373436,26649.448472,-1995.094358,-9933.226995,17487.714289,24491.655766,21377.498970,4127.003744,-6597.117376,21986.651061,20192.431830,-702.403570,5192.354940,0.006000,-0.020000,1.012000,192.000000,0.000000,0.000000,0.000000,0.000000,0.000000,0.000000,0.000000,0.000000,0.000000,1764345639.565343,0.000000
120.000000,23217.785146,25577.883491,14279.724870,20216.906991,26679.578624,-2013.355734,-9958.685632,17476.136086,24558.442778,21372.559234,4114.397361,-6620.184376,21989.713250,20175.600967,-698.044979,5229.458836,0.006000,-0.020000,1.012000,192.000000,0.000000,0.000000,0.000000,0.000000,0.000000,0.000000,0.000000,0.000000,0.000000,1764345639.572412,0.000000
122.000000,23219.930913,25579.515169,14293.761765,20223.992494,26657.472748,-1991.585134,-9934.232823,17483.936844,24566.087075,21376.180217,4116.632535,-6615.334048,21994.831800,20181.211255,-695.318067,5215.846624,0.006000,-0.020000,1.012000,192.000000,0.000000,0.000000,0.000000,0.000000,0.000000,0.000000,0.000000,0.000000,0.000000,1764345639.581390,0.000000
124.000000,23212.286617,25572.697887,14279.747221,20212.660159,26669.475635,-2015.970888,-9956.271643,17472.515103,24482.536254,21363.842054,4120.991125,-6610.841347,21981.063125,20179.244301,-691.115939,5203.776682,0.006000,-0.020000,1.012000,192.000000,0.000000,0.000000,0.000000,0.000000,0.000000,0.000000,0.000000,0.000000,0.000000,1764345639.588439,0.000000
126.000000,23215.035881,25573.480198,14287.100945,20213.353063,26676.918766,-2007.052542,-9951.063687,17475.107905,24599.301767,21368.647679,4105.635477,-6636.076467,21991.009652,20165.699144,-694.826328,5242.445200,0.010000,-0.020000,1.006000,192.000000,0.000000,40.000000,127.500000,48.000000,15.500000,56.000000,0.000000,0.000000,0.000000,1764345639.596465,0.000000
128.000000,23222.031977,25580.118666,14290.230190,20221.846726,26663.194795,-1984.767852,-9938.412599,17480.584083,24487.543045,21366.166635,4121.840492,-6608.852042,21989.377974,20183.178208,-685.662113,5194.411301,0.010000,-0.020000,1.006000,192.000000,0.000000,0.000000,0.000000,0.000000,0.000000,0.000000,0.000000,0.000000,0.000000,1764345639.604500,0.000000
130.000000,23218.656864,25578.755209,14275.522742,20215.230610,26686.172388,-1991.719245,-9961.278434,17474.258539,24553.704209,21371.016964,4110.910488,-6623.783007,21987.433372,20178.305528,-693.507575,5236.924319,0.010000,-0.020000,1.006000,192.000000,0.000000,0.000000,0.000000,0.000000,0.000000,0.000000,0.000000,0.000000,0.000000,1764345639.612614,0.000000
132.000000,23240.986257,25596.122515,14300.042605,20231.726197,26672.157845,-1975.961265,-9926.253250,17498.644292,24565.103598,21385.389136,4118.867710,-6611.802472,21991.277872,20191.448354,-689.841889,5211.689199,0.010000,-0.020000,1.006000,192.000000,0.000000,0.000000,0.000000,0.000000,0.000000,0.000000,0.000000,0.000000,0.000000,1764345639.621557,0.000000
134.000000,23222.590771,25581.057439,14282.764707,20218.583371,26669.386228,-2002.626896,-9950.639004,17482.104001,24497.266054,21368.960603,4135.050372,-6597.944391,22001.760841,20189.526104,-694.178128,5193.807804,0.010000,-0.020000,1.006000,192.000000,0.000000,0.000000,0.000000,0.000000,0.000000,0.000000,0.000000,0.000000,0.000000,1764345639.629573,0.000000
136.000000,23217.807498,25576.095352,14289.738451,20218.181040,26673.163673,-2009.064199,-9946.168655,17481.768725,24602.185142,21367.686554,4110.642268,-6630.868510,21985.153494,20168.582519,-703.007067,5239.584176,0.010000,-0.018000,1.008000,192.000000,0.000000,40.000000,127.500000,56.000000,15.500000,64.000000,0.000000,0.000000,0.000000,1764345639.636607,0.000000
138.000000,23225.429443,25585.036049,14294.924056,20224.931267,26658.277411,-1993.149757,-9934.076361,17488.988339,24487.967728,21366.412504,4128.344849,-6604.985190,21978.515026,20181.792400,-687.159680,5187.325798,0.010000,-0.018000,1.008000,192.000000,0.000000,0.000000,0.000000,0.000000,0.000000,0.000000,0.000000,0.000000,0.000000,1764345639.644633,0.000000
140.000000,23216.086413,25576.073000,14280.618939,20213.151898,26685.345374,-2005.867899,-9958.842094,17476.806638,24554.128892,21367.328926,4116.163148,-6622.553661,21982.985375,20171.242377,-698.760235,5231.314031,0.010000,-0.018000,1.008000,192.000000,0.000000,0.000000,0.000000,0.000000,0.000000,0.000000,0.000000,0.000000,0.000000,1764345639.652640,0.000000
142.000000,23235.040693,25594.490837,14301.160193,20229.379264,26673.476597,-1982.175050,-9926.655582,17497.593760,24564.053066,21373.140380,4120.544090,-6613.456501,21988.640367,20177.880845,-695.362770,5213.164415,0.010000,-0.018000,1.008000,192.000000,0.000000,0.000000,0.000000,0.000000,0.000000,0.000000,0.000000,0.000000,0.000000,1764345639.660766,0.000000
144.000000,23226.748195,25585.348974,14287.391518,20215.811755,26676.583490,-2003.118635,-9950.527245,17482.394574,24493.466257,21379.220054,4134.223358,-6597.273838,21988.036870,20183.737002,-692.211174,5197.607600,0.010000,-0.018000,1.008000,192.000000,0.000000,0.000000,0.000000,0.000000,0.000000,0.000000,0.000000,0.000000,0.000000,1764345639.668755,0.000000
146.000000,23229.698626,25585.572491,14297.472155,20216.415252,26686.686478,-2008.036018,-9942.435913,17487.379013,24608.868314,21369.653507,4116.632535,-6628.655687,21992.574274,20161.832292,-691.384159,5235.851435,0.006000,-0.018000,1.006000,192.000000,0.000000,24.000000,127.500000,56.000000,15.500000,56.000000,0.000000,0.000000,0.000000,1764345639.675756,0.000000
148.000000,23224.870649,25586.444209,14297.270989,20218.315151,26664.558251,-1997.865975,-9933.338753,17488.809525,24492.080449,21370.189949,4134.044544,-6602.124167,21986.986338,20178.216121,-683.471642,5182.766042,0.006000,-0.018000,1.006000,192.000000,0.000000,0.000000,0.000000,0.000000,0.000000,0.000000,0.000000,0.000000,0.000000,1764345639.684802,0.000000
150.000000,23218.008663,25573.457846,14285.290454,20209.374453,26693.481409,-2007.834853,-9957.746858,17479.287681,24553.905374,21364.289089,4117.884233,-6623.894766,21985.846399,20163.329859,-688.836061,5229.794112,0.006000,-0.018000,1.006000,192.000000,0.000000,0.000000,0.000000,0.000000,0.000000,0.000000,0.000000,0.000000,0.000000,1764345639.692774,0.000000
152.000000,23223.104861,25582.242081,14300.221419,20223.657217,26668.939193,-1989.148794,-9928.823701,17489.681243,24556.900508,21368.267699,4117.034866,-6618.060961,21988.059221,20174.505731,-687.562011,5215.667810,0.006000,-0.018000,1.006000,192.000000,0.000000,0.000000,0.000000,0.000000,0.000000,0.000000,0.000000,0.000000,0.000000,1764345639.701828,0.000000
154.000000,23214.410033,25576.341221,14284.619902,20214.135374,26675.443551,-2013.623954,-9949.946100,17477.901873,24480.703411,21364.981993,4124.902681,-6605.834556,21978.380916,20177.567920,-687.137328,5200.669789,0.006000,-0.018000,1.006000,192.000000,0.000000,0.000000,0.000000,0.000000,0.000000,0.000000,0.000000,0.000000,0.000000,1764345639.708858,0.000000
156.000000,23214.790012,25577.235291,14289.783155,20215.945866,26677.164635,-2010.986449,-9944.313460,17481.634615,24594.987881,21366.859539,4107.669486,-6632.679001,21982.158361,20159.373600,-693.708741,5235.180883,0.008000,-0.020000,1.008000,192.000000,0.000000,32.000000,127.500000,48.000000,15.500000,64.000000,0.000000,0.000000,0.000000,1764345639.717956,0.000000
158.000000,23217.472222,25577.525863,14293.806469,20221.556153,26660.400827,-2000.145853,-9933.651678,17485.277949,24482.312737,21360.936327,4124.477997,-6605.432225,21977.732715,20175.444505,-687.092625,5185.470603,0.008000,-0.020000,1.008000,192.000000,0.000000,0.000000,0.000000,0.000000,0.000000,0.000000,0.000000,0.000000,0.000000,1764345639.724953,0.000000
160.000000,23213.515963,25572.228500,14281.490658,20211.162592,26683.445476,-2018.563690,-9959.110315,17473.655042,24551.290220,21360.466940,4112.229241,-6627.403990,21980.817256,20165.252109,-691.898250,5224.899080,0.008000,-0.020000,1.008000,192.000000,0.000000,0.000000,0.000000,0.000000,0.000000,0.000000,0.000000,0.000000,0.000000,1764345639.731913,0.000000
162.000000,23225.831774,25584.298442,14300.824916,20227.322904,26666.569908,-1980.185745,-9928.957811,17488.898932,24564.835377,21371.016964,4119.359448,-6617.569222,21993.915378,20175.690374,-692.032360,5210.728074,0.008000,-0.020000,1.008000,192.000000,0.000000,0.000000,0.000000,0.000000,0.000000,0.000000,0.000000,0.000000,0.000000,1764345639.740952,0.000000
164.000000,23216.086413,25575.491855,14285.670434,20216.012921,26672.180196,-2008.259536,-9950.594300,17476.270196,24485.330222,21363.618536,4125.684992,-6607.287420,21983.566521,20179.087839,-693.753444,5202.234412,0.008000,-0.020000,1.008000,192.000000,0.000000,0.000000,0.000000,0.000000,0.000000,0.000000,0.000000,0.000000,0.000000,1764345639.749056,0.000000
166.000000,23223.730710,25581.727991,14295.907533,20218.493964,26681.456170,-2000.347018,-9941.206567,17483.959196,24602.743936,21368.781789,4112.363352,-6631.360248,21990.830838,20166.615566,-700.660133,5237.438409,0.007000,-0.020000,1.005000,192.000000,0.000000,24.000000,127.500000,48.000000,15.500000,40.000000,0.000000,0.000000,0.000000,1764345639.756016,0.000000
168.000000,23224.602428,25584.209035,14300.623751,20220.751491,26665.429969,-1990.042864,-9931.349448,17487.468420,24491.588711,21369.631156,4131.362335,-6603.755844,21988.975643,20183.714650,-692.255878,5185.403548,0.007000,-0.020000,1.005000,192.000000,0.000000,0.000000,0.000000,0.000000,0.000000,0.000000,0.000000,0.000000,0.000000,1764345639.766089,0.000000
170.000000,23218.321588,25577.615270,14288.553809,20208.770956,26689.301633,-2010.762931,-9957.612748,17474.035022,24555.425293,21365.853711,4117.236032,-6626.420513,21985.712288,20167.576691,-693.596982,5225.949612,0.007000,-0.020000,1.005000,192.000000,0.000000,0.000000,0.000000,0.000000,0.000000,0.000000,0.000000,0.000000,0.000000,1764345639.773111,0.000000
172.000000,23235.353617,25595.116686,14307.843364,20223.187831,26672.068438,-1983.449099,-9928.041390,17489.971815,24570.803293,21378.773019,4124.321535,-6615.334048,21998.676300,20180.607758,-691.764139,5206.190670,0.007000,-0.020000,1.005000,192.000000,0.000000,0.000000,0.000000,0.000000,0.000000,0.000000,0.000000,0.000000,0.000000,1764345639.781082,0.000000
174.000000,23216.980483,25576.050648,14287.369166,20207.340444,26673.700115,-2012.260498,-9955.221111,17467.329498,24487.744211,21366.345449,4125.684992,-6611.109568,21983.588872,20176.651499,-686.377369,5195.662999,0.007000,-0.020000,1.005000,192.000000,0.000000,0.000000,0.000000,0.000000,0.000000,0.000000,0.000000,0.000000,0.000000,1764345639.788141,0.000000
176.000000,23220.780280,25580.878625,14294.901704,20214.068319,26679.332755,-2001.911640,-9944.246405,17475.912568,24599.927616,21366.613670,4107.289506,-6638.177531,21988.483904,20166.481455,-691.339456,5231.179921,0.004500,-0.020000,1.005500,192.000000,0.000000,8.000000,127.500000,48.000000,15.500000,56.000000,0.000000,0.000000,0.000000,1764345639.798164,0.000000
178.000000,23227.061120,25590.109895,14299.014425,20219.477441,26660.557289,-2002.515137,-9932.645849,17481.634615,24487.386583,21371.665164,4127.115503,-6607.510937,21984.438239,20178.685508,-687.494956,5177.222809,0.004500,-0.020000,1.005500,192.000000,0.000000,0.000000,0.000000,0.000000,0.000000,0.000000,0.000000,0.000000,0.000000,1764345639.806210,0.000000
180.000000,23219.461527,25577.905843,14285.692785,20208.547438,26684.339545,-2020.865920,-9958.395059,17470.190522,24559.828587,21366.479560,4115.582003,-6628.231004,21989.132105,20163.978060,-694.580459,5218.864109,0.004500,-0.020000,1.005500,192.000000,0.000000,0.000000,0.000000,0.000000,0.000000,0.000000,0.000000,0.000000,0.000000,1764345639.813219,0.000000
182.000000,23226.703492,25584.320794,14299.886143,20221.734967,26666.122874,-1985.080777,-9930.500082,17481.321690,24561.594374,21366.054877,4115.649058,-6624.967650,21991.322576,20171.018859,-693.462872,5208.224679,0.004500,-0.020000,1.005500,192.000000,0.000000,0.000000,0.000000,0.000000,0.000000,0.000000,0.000000,0.000000,0.000000,1764345639.820237,0.000000
184.000000,23220.199134,25577.011773,14282.742355,20211.274351,26671.867272,-2004.057408,-9954.170579,17466.100152,24490.404068,21363.283260,4125.617936,-6614.551737,21990.048527,20177.031479,-700.056636,5200.088644,0.004500,-0.020000,1.005500,192.000000,0.000000,0.000000,0.000000,0.000000,0.000000,0.000000,0.000000,0.000000,0.000000,1764345639.828272,0.000000
186.000000,23217.740442,25575.491855,14289.157306,20214.314188,26669.877967,-2009.600640,-9945.878082,17469.855245,24602.520418,21361.405714,4103.959096,-6642.983156,21990.875541,20160.066504,-700.838947,5236.767857,0.003250,-0.023000,1.007750,192.000000,0.000000,8.000000,127.500000,24.000000,15.500000,72.000000,0.000000,0.000000,0.000000,1764345639.836295,0.000000
188.000000,23219.886210,25580.856273,14292.666530,20218.091633,26647.369760,-1993.730902,-9933.204643,17477.052507,24490.649937,21361.428065,4123.271003,-6613.143577,21985.488771,20178.461990,-698.022628,5190.969132,0.003250,-0.023000,1.007750,192.000000,0.000000,0.000000,0.000000,0.000000,0.000000,0.000000,0.000000,0.000000,0.000000,1764345639.844319,0.000000
190.000000,23211.213733,25574.418971,14282.742355,20206.602836,26671.911975,-2016.820254,-9957.433934,17466.927167,24553.100711,21356.488330,4110.016419,-6633.349554,21982.717154,20161.072333,-701.017761,5230.554072,0.003250,-0.023000,1.007750,192.000000,0.000000,0.000000,0.000000,0.000000,0.000000,0.000000,0.000000,0.000000,0.000000,1764345639.852340,0.000000
192.000000,23225.004759,25587.070058,14302.233076,20219.723310,26656.824548,-1987.539469,-9930.522434,17480.852304,24562.600203,21365.674897,4116.364314,-6624.587670,21994.742393,20170.817694,-695.385122,5208.112920,0.003250,-0.023000,1.007750,192.000000,0.000000,0.000000,0.000000,0.000000,0.000000,0.000000,0.000000,0.000000,0.000000,1764345639.861458,0.000000
194.000000,23212.085451,25573.882529,14286.922131,20208.458031,26669.095656,-2016.574385,-9955.064649,17464.937862,24487.967728,21362.679763,4124.232128,-6614.015295,21987.791000,20175.824484,-690.914773,5197.026455,0.003250,-0.023000,1.007750,192.000000,0.000000,0.000000,0.000000,0.000000,0.000000,0.000000,0.000000,0.000000,0.000000,1764345639.869472,0.000000
196.000000,23221.294370,25583.694945,14296.399271,20214.828278,26680.606804,-2003.565669,-9946.593338,17474.549112,24605.761421,21368.267699,4107.490672,-6638.088124,21994.429468,20167.241414,-693.485223,5233.348040,0.004625,-0.023500,1.009875,192.000000,0.000000,24.000000,127.500000,32.000000,15.500000,80.000000,0.000000,0.000000,0.000000,1764345639.877460,0.000000
198.000000,23220.914390,25586.041878,14298.679149,20218.404558,26662.032504,-1990.556954,-9935.037486,17480.248807,24495.075583,21372.045144,4128.903643,-6605.946315,21994.921207,20186.463915,-682.711683,5180.150888,0.004625,-0.023500,1.009875,192.000000,0.000000,0.000000,0.000000,0.000000,0.000000,0.000000,0.000000,0.000000,0.000000,1764345639.884493,0.000000
200.000000,23209.671463,25576.162407,14284.664605,20206.647540,26684.518359,-2019.457760,-9960.339661,17468.849417,24556.632287,21366.032525,4112.653925,-6628.208653,21992.306053,20166.816731,-689.908944,5222.798016,0.004625,-0.023500,1.009875,192.000000,0.000000,0.000000,0.000000,0.000000,0.000000,0.000000,0.000000,0.000000,0.000000,1764345639.892516,0.000000
202.000000,23222.590771,25586.533616,14301.160193,20220.036235,26665.474673,-1984.298466,-9932.802312,17481.075821,24563.471921,21372.760400,4115.760817,-6620.832577,21997.603416,20176.025650,-688.098453,5205.497766,0.004625,-0.023500,1.009875,192.000000,0.000000,0.000000,0.000000,0.000000,0.000000,0.000000,0.000000,0.000000,0.000000,1764345639.900536,0.000000
204.000000,23211.772527,25578.308174,14285.133992,20211.497868,26674.527129,-1997.284829,-9956.271643,17467.217739,24489.554702,21371.441647,4123.226300,-6611.064865,21990.808486,20183.491133,-686.667941,5197.898173,0.004625,-0.023500,1.009875,192.000000,0.000000,0.000000,0.000000,0.000000,0.000000,0.000000,0.000000,0.000000,0.000000,1764345639.908555,0.000000
206.000000,23221.786108,25589.551102,14291.973626,20219.633903,26681.009135,-1988.679408,-9947.554463,17476.963100,24607.057823,21378.102467,4107.110692,-6632.410780,22000.307977,20174.013993,-693.887555,5236.521988,0.006313,-0.021750,1.010938,192.000000,0.000000,32.000000,127.500000,48.000000,15.500000,80.000000,0.000000,0.000000,0.000000,1764345639.916689,0.000000
208.000000,23232.224373,25596.591901,14298.925018,20226.495889,26664.915879,-1976.676521,-9934.545748,17486.797868,24502.496362,21382.215188,4133.239881,-6599.151385,22009.136916,20200.769031,-690.311276,5190.097414,0.006313,-0.021750,1.010938,192.000000,0.000000,0.000000,0.000000,0.000000,0.000000,0.000000,0.000000,0.000000,0.000000,1764345639.923625,0.000000
210.000000,23228.938666,25590.534579,14286.095117,20214.269485,26680.316231,-2009.757103,-9958.328004,17476.985452,24573.172578,21379.108295,4124.276832,-6618.262126,21993.513047,20179.423115,-696.189785,5230.576423,0.006313,-0.021750,1.010938,192.000000,0.000000,0.000000,0.000000,0.000000,0.000000,0.000000,0.000000,0.000000,0.000000,1764345639.932642,0.000000
212.000000,23228.089300,25591.585111,14302.657760,20221.377340,26657.517452,-1996.100187,-9929.717771,17490.172981,24573.619613,21379.041240,4126.668468,-6612.204803,21996.508181,20178.461990,-697.128558,5208.783473,0.006313,-0.021750,1.010938,192.000000,0.000000,0.000000,0.000000,0.000000,0.000000,0.000000,0.000000,0.000000,0.000000,1764345639.940697,0.000000
214.000000,23216.935780,25580.453942,14288.933788,20209.821488,26667.508682,-2013.847472,-9953.254158,17475.174961,24491.611062,21364.132627,4131.116465,-6608.248545,21984.371183,20174.572787,-693.284058,5194.388949,0.006313,-0.021750,1.010938,192.000000,0.000000,0.000000,0.000000,0.000000,0.000000,0.000000,0.000000,0.000000,0.000000,1764345639.947833,0.000000
216.000000,23227.128175,25590.422820,14298.813259,20215.901162,26675.242385,-1995.295524,-9945.743972,17479.265330,24613.673939,21369.206473,4113.100959,-6633.282499,21997.849285,20164.514502,-697.530889,5231.738714,0.006156,-0.019875,1.007469,192.000000,0.000000,24.000000,127.500000,56.000000,15.500000,48.000000,0.000000,0.000000,0.000000,1764345639.957793,0.000000
218.000000,23227.999893,25590.936910,14302.300132,20220.639732,26661.808987,-1990.221678,-9935.283355,17483.847437,24501.356423,21371.553406,4130.714134,-6603.979362,21993.133067,20182.284138,-685.013912,5187.817536,0.006156,-0.019875,1.007469,192.000000,0.000000,0.000000,0.000000,0.000000,0.000000,0.000000,0.000000,0.000000,0.000000,1764345639.964770,0.000000
220.000000,23228.245762,25592.546236,14291.548943,20209.150935,26690.754496,-2012.126388,-9960.227902,17474.929091,24576.033601,21371.799275,4121.996954,-6622.933641,21998.966873,20170.147141,-686.198555,5227.424828,0.006156,-0.019875,1.007469,192.000000,0.000000,0.000000,0.000000,0.000000,0.000000,0.000000,0.000000,0.000000,0.000000,1764345639.974823,0.000000
222.000000,23236.001818,25600.615215,14308.268047,20219.946828,26671.621403,-1989.975809,-9930.857710,17490.396498,24576.860616,21376.984880,4127.473131,-6617.368056,22002.878428,20177.836141,-681.638799,5206.794167,0.006156,-0.019875,1.007469,192.000000,0.000000,0.000000,0.000000,0.000000,0.000000,0.000000,0.000000,0.000000,0.000000,1764345639.980817,0.000000
224.000000,23227.374044,25594.535541,14292.822992,20210.536743,26677.857539,-2011.344077,-9952.047163,17479.198275,24503.122211,21374.995574,4136.883216,-6603.062940,21998.698652,20181.501827,-680.051825,5190.544449,0.006156,-0.019875,1.007469,192.000000,0.000000,0.000000,0.000000,0.000000,0.000000,0.000000,0.000000,0.000000,0.000000,1764345639.987845,0.000000
226.000000,23229.475108,25596.256625,14300.199068,20214.872982,26683.087848,-2001.263440,-9945.051067,17480.248807,24616.937294,21375.017926,4117.414846,-6629.706219,21999.637425,20163.531025,-691.384159,5230.509368,0.006156,-0.019875,1.007469,192.000000,0.000000,0.000000,127.500000,48.000000,15.500000,48.000000,0.000000,0.000000,0.000000,1764345639.996851,0.000000
228.000000,23225.720015,25594.446134,14295.125222,20219.410386,26656.981010,-1995.049655,-9938.189082,17476.650176,24497.534275,21375.397906,4129.529492,-6605.476928,21989.445029,20180.339537,-682.823441,5181.849621,0.006156,-0.019875,1.007469,192.000000,0.000000,0.000000,0.000000,0.000000,0.000000,0.000000,0.000000,0.000000,0.000000,1764345640.003899,0.000000
230.000000,23224.378911,25590.400468,14282.764707,20211.341406,26685.010098,-2005.778492,-9961.926635,17468.827065,24561.102636,21369.854673,4112.542166,-6626.666382,21984.795867,20166.324993,-695.653343,5230.822293,0.006156,-0.019875,1.007469,192.000000,0.000000,0.000000,0.000000,0.000000,0.000000,0.000000,0.000000,0.000000,0.000000,1764345640.011966,0.000000
232.000000,23235.219507,25604.839695,14301.160193,20224.484232,26669.520339,-1989.215850,-9931.863538,17487.155496,24572.099694,21380.427048,4122.421637,-6614.149405,21994.317710,20179.244301,-693.976962,5207.911755,0.006156,-0.019875,1.007469,192.000000,0.000000,0.000000,0.000000,0.000000,0.000000,0.000000,0.000000,0.000000,0.000000,1764345640.020976,0.000000
234.000000,23224.065986,25596.390736,14283.994053,20209.553267,26675.823531,-2015.993239,-9954.751725,17474.616167,24495.455563,21371.776923,4130.021230,-6604.605210,21984.035907,20177.344403,-690.624200,5196.422958,0.006156,-0.019875,1.007469,192.000000,0.000000,0.000000,0.000000,0.000000,0.000000,0.000000,0.000000,0.000000,0.000000,1764345640.029000,0.000000
236.000000,23228.491632,25599.162352,14293.471193,20213.129546,26676.248214,-1995.004951,-9944.715791,17483.042775,24610.567046,21371.128723,4113.480939,-6629.035667,21987.902759,20162.167568,-699.989581,5236.119656,0.006156,-0.019875,1.007469,192.000000,0.000000,0.000000,0.000000,0.000000,0.000000,0.000000,0.000000,0.000000,0.000000,1764345640.035999,0.000000
238.000000,23230.279771,25601.956320,14300.467289,20217.756357,26659.819682,-1993.999123,-9933.182291,17486.864923,24499.210656,21374.146208,4134.871559,-6598.190260,21987.656890,20177.076182,-695.899212,5183.727167,0.006000,-0.020000,1.004000,192.000000,0.000000,24.000000,127.500000,48.000000,15.500000,48.000000,0.000000,0.000000,0.000000,1764345640.046045,0.000000
240.000000,23223.574248,25594.334375,14289.850210,20210.000302,26686.328851,-2011.925222,-9957.970376,17474.280891,24569.193967,21372.402772,4121.527567,-6619.647934,21992.350756,20162.435789,-697.776758,5221.166339,0.006000,-0.020000,1.004000,192.000000,0.000000,0.000000,0.000000,0.000000,0.000000,0.000000,0.000000,0.000000,0.000000,1764345640.053074,0.000000
242.000000,23229.028073,25599.095297,14304.937637,20221.958485,26665.541728,-1991.451024,-9931.818835,17484.830914,24573.731372,21373.185083,4123.829797,-6614.864661,21998.855114,20173.723420,-693.306410,5204.536641,0.006000,-0.020000,1.004000,192.000000,0.000000,0.000000,0.000000,0.000000,0.000000,0.000000,0.000000,0.000000,0.000000,1764345640.062105,0.000000
244.000000,23223.306027,25594.133209,14290.744280,20210.916723,26676.270566,-2007.790149,-9954.639966,17474.549112,24499.389470,21369.564100,4131.988183,-6604.292286,21991.322576,20175.578615,-685.662113,5190.790318,0.006000,-0.020000,1.004000,192.000000,0.000000,0.000000,0.000000,0.000000,0.000000,0.000000,0.000000,0.000000,0.000000,1764345640.068114,0.000000
246.000000,23231.151489,25601.263416,14297.405100,20212.838973,26685.211263,-2005.867899,-9946.526283,17482.059298,24618.837192,21373.363897,4117.839529,-6627.851025,21997.893989,20159.395952,-683.963380,5225.971964,0.006000,-0.020000,1.004000,192.000000,0.000000,0.000000,0.000000,0.000000,0.000000,0.000000,0.000000,0.000000,0.000000,1764345640.076126,0.000000
248.000000,23230.078605,25603.230369,14296.332216,20217.175212,26669.207414,-1996.211946,-9935.350410,17484.093307,24505.715013,21375.174388,4136.235015,-6597.743225,21989.646195,20181.099496,-678.084872,5175.233504,0.004000,-0.018000,1.004000,192.000000,0.000000,16.000000,127.500000,56.000000,15.500000,48.000000,0.000000,0.000000,0.000000,1764345640.085203,0.000000
250.000000,23222.188440,25596.904826,14281.624768,20207.720424,26690.352165,-2013.914527,-9962.306614,17469.296452,24569.685706,21378.080115,4118.666544,-6620.318487,21984.415887,20166.794380,-689.797186,5221.389857,0.004000,-0.018000,1.004000,192.000000,0.000000,0.000000,0.000000,0.000000,0.000000,0.000000,0.000000,0.000000,0.000000,1764345640.092237,0.000000
252.000000,23229.653922,25602.358651,14298.545039,20220.215049,26668.045124,-1984.901963,-9934.501044,17480.204103,24570.400962,21376.381383,4117.057218,-6618.910327,21988.483904,20169.633051,-687.696122,5204.044903,0.004000,-0.018000,1.004000,192.000000,0.000000,0.000000,0.000000,0.000000,0.000000,0.000000,0.000000,0.000000,0.000000,1764345640.100257,0.000000
254.000000,23212.756003,25592.792105,14276.349756,20211.028482,26669.274470,-2007.477225,-9959.780867,17462.993260,24491.141676,21366.188987,4120.968773,-6609.701408,21978.358564,20171.890577,-690.758311,5198.054635,0.004000,-0.018000,1.004000,192.000000,0.000000,0.000000,0.000000,0.000000,0.000000,0.000000,0.000000,0.000000,0.000000,1764345640.108276,0.000000
0.000000,23221.741405,25600.570512,14285.536323,20217.018749,26674.258909,-2005.376161,-9948.202663,17471.419867,24596.440744,21375.867292,4100.382817,-6633.528368,21974.134084,20161.832292,-700.302506,5235.583214,0.004000,-0.018000,1.004000,192.000000,0.000000,0.000000,0.000000,0.000000,0.000000,0.000000,0.000000,0.000000,0.000000,1764345640.116306,0.000000
2.000000,23215.415861,25591.719221,14286.944483,20218.538668,26649.023789,-2004.571498,-9936.758570,17473.610338,24488.861798,21361.361010,4122.332230,-6608.852042,21972.770628,20172.315260,-693.619334,5185.045920,0.004000,-0.016000,1.006000,192.000000,0.000000,16.000000,127.500000,64.000000,15.500000,56.000000,0.000000,0.000000,0.000000,1764345640.125319,0.000000
4.000000,23215.169992,25594.848465,14275.969777,20209.709729,26674.393019,-2020.888271,-9958.864446,17469.765838,24554.687685,21359.930499,4107.557727,-6629.840330,21969.484922,20155.752618,-704.370523,5228.810636,0.004000,-0.016000,1.006000,192.000000,0.000000,0.000000,0.000000,0.000000,0.000000,0.000000,0.000000,0.000000,0.000000,1764345640.134398,0.000000
6.000000,23230.391530,25610.002948,14298.299169,20222.874906,26661.160786,-1992.389797,-9928.778998,17486.842571,24565.327116,21371.955737,4119.135930,-6615.445806,21979.722021,20168.962499,-699.944878,5204.536641,0.004000,-0.016000,1.006000,192.000000,0.000000,0.000000,0.000000,0.000000,0.000000,0.000000,0.000000,0.000000,0.000000,1764345640.140352,0.000000
8.000000,23219.819155,25599.385869,14288.352643,20212.347235,26675.600013,-2002.023399,-9952.516550,17470.771667,24495.835542,21370.301708,4128.613070,-6604.247582,21978.202102,20175.064525,-696.033322,5194.523060,0.004000,-0.016000,1.006000,192.000000,0.000000,0.000000,0.000000,0.000000,0.000000,0.000000,0.000000,0.000000,0.000000,1764345640.148393,0.000000
10.000000,23221.272018,25597.597730,14295.974588,20214.761223,26680.539749,-1997.933030,-9946.593338,17472.805676,24608.510686,21368.379458,4108.742369,-6633.170740,21982.963024,20160.021801,-697.150910,5235.829083,0.004000,-0.016000,1.006000,192.000000,0.000000,0.000000,0.000000,0.000000,0.000000,0.000000,0.000000,0.000000,0.000000,1764345640.156404,0.000000
12.000000,23219.796803,25598.983538,14297.762727,20216.214087,26660.892565,-1993.619143,-9937.205605,17477.298376,24495.254397,21367.619499,4128.747181,-6605.968667,21978.291509,20178.283176,-686.064444,5183.548353,0.004000,-0.018000,1.014000,192.000000,0.000000,16.000000,127.500000,56.000000,15.500000,88.000000,0.000000,0.000000,0.000000,1764345640.164457,0.000000
14.000000,23210.833753,25588.388811,14282.451783,20204.747642,26682.730220,-2018.161359,-9962.619539,17465.139027,24557.012267,21359.639926,4112.318648,-6630.712048,21968.322631,20156.222004,-688.456081,5220.339325,0.004000,-0.018000,1.014000,192.000000,0.000000,0.000000,0.000000,0.000000,0.000000,0.000000,0.000000,0.000000,0.000000,1764345640.172457,0.000000
16.000000,23217.472222,25594.312023,14296.779251,20219.008055,26659.596164,-2001.375199,-9932.601146,17478.907702,24558.107502,21363.819702,4115.470244,-6623.090103,21971.496579,20164.536853,-684.879802,5199.239278,0.004000,-0.018000,1.014000,192.000000,0.000000,0.000000,0.000000,0.000000,0.000000,0.000000,0.000000,0.000000,0.000000,1764345640.180487,0.000000
18.000000,23202.764774,25580.006907,14276.640329,20206.424022,26665.251156,-2020.843568,-9958.104486,17462.300356,24483.251510,21355.393094,4118.666544,-6616.116359,21961.706515,20164.179225,-687.293790,5188.130461,0.004000,-0.018000,1.014000,192.000000,0.000000,0.000000,0.000000,0.000000,0.000000,0.000000,0.000000,0.000000,0.000000,1764345640.188525,0.000000
20.000000,23210.543181,25584.544311,14284.910474,20209.083880,26671.509644,-2011.209966,-9950.482541,17466.413077,24597.938311,21352.062685,4101.880384,-6641.619699,21967.965003,20149.360019,-695.519232,5229.347078,0.004000,-0.018000,1.014000,192.000000,0.000000,0.000000,0.000000,0.000000,0.000000,0.000000,0.000000,0.000000,0.000000,1764345640.195608,0.000000
22.000000,23217.405166,25593.708526,14292.733585,20216.459956,26656.578679,-1987.584172,-9939.239614,17471.553978,24488.235949,21357.583565,4121.594622,-6614.484681,21966.713305,20167.286118,-689.841889,5181.201420,0.008000,-0.024000,1.014000,192.000000,0.000000,32.000000,127.500000,32.000000,15.500000,88.000000,0.000000,0.000000,0.000000,1764345640.203595,0.000000
24.000000,23206.721032,25582.219730,14277.266178,20203.607703,26675.667068,-2019.346001,-9965.905245,17457.517082,24555.157072,21355.482501,4108.563555,-6635.696487,21966.243919,20153.629202,-700.749540,5225.256708,0.008000,-0.024000,1.014000,192.000000,0.000000,0.000000,0.000000,0.000000,0.000000,0.000000,0.000000,0.000000,0.000000,1764345640.213625,0.000000
26.000000,23221.808460,25600.279939,14295.773422,20219.566848,26659.573812,-1990.579306,-9934.590451,17478.103039,24557.682819,21356.376571,4113.950326,-6627.336934,21971.004840,20159.440656,-701.241279,5207.040037,0.008000,-0.024000,1.014000,192.000000,0.000000,0.000000,0.000000,0.000000,0.000000,0.000000,0.000000,0.000000,0.000000,1764345640.221672,0.000000
28.000000,23217.136945,25596.457791,14283.122335,20211.475517,26673.566004,-2005.733789,-9954.997594,17469.810542,24487.140714,21359.639926,4124.768570,-6610.304905,21964.209910,20167.599042,-699.050808,5193.673693,0.008000,-0.024000,1.014000,192.000000,0.000000,0.000000,0.000000,0.000000,0.000000,0.000000,0.000000,0.000000,0.000000,1764345640.228686,0.000000
30.000000,23224.110690,25598.469448,14292.353605,20212.526049,26671.286127,-2011.612297,-9947.599166,17475.331423,24606.253160,21362.903281,4109.345866,-6632.835464,21976.704535,20154.791493,-704.482282,5225.569633,0.008000,-0.024000,1.014000,192.000000,0.000000,0.000000,0.000000,0.000000,0.000000,0.000000,0.000000,0.000000,0.000000,1764345640.235823,0.000000
32.000000,23232.291428,25608.058346,14299.863791,20214.425947,26657.137472,-2012.729885,-9934.478692,17487.244903,24497.400164,21364.512606,4134.335117,-6603.755844,21976.257500,20170.124789,-693.596982,5177.401623,0.008000,-0.022000,1.016000,192.000000,0.000000,32.000000,127.500000,40.000000,15.500000,96.000000,0.000000,0.000000,0.000000,1764345640.244797,0.000000
34.000000,23218.500402,25593.328547,14289.514934,20198.936188,26678.595147,-2027.750257,-9958.775039,17471.442219,24571.071514,21362.322135,4126.556710,-6624.297097,21977.911529,20157.227833,-701.487148,5210.795130,0.008000,-0.022000,1.016000,192.000000,0.000000,0.000000,0.000000,0.000000,0.000000,0.000000,0.000000,0.000000,0.000000,1764345640.251788,0.000000
36.000000,23220.400300,25591.495704,14304.021216,20208.010996,26655.528147,-2007.633687,-9933.517567,17477.276024,24565.751799,21351.235670,4121.214643,-6627.806321,21975.765762,20144.576746,-693.619334,5187.504612,0.008000,-0.022000,1.016000,192.000000,0.000000,0.000000,0.000000,0.000000,0.000000,0.000000,0.000000,0.000000,0.000000,1764345640.259833,0.000000
38.000000,23206.385756,25582.443247,14286.117469,20200.098479,26665.720542,-2032.175902,-9957.210416,17463.507350,24487.207769,21343.680780,4123.181596,-6619.089141,21964.455779,20146.744865,-688.925468,5180.866144,0.008000,-0.022000,1.016000,192.000000,0.000000,0.000000,0.000000,0.000000,0.000000,0.000000,0.000000,0.000000,0.000000,1764345640.267790,0.000000
40.000000,23215.460565,25592.367422,14290.520762,20204.144145,26676.136455,-2023.101094,-9951.577777,17469.899949,24603.168619,21351.816815,4107.065988,-6641.507940,21972.077724,20138.094740,-691.764139,5220.071104,0.008000,-0.022000,1.016000,192.000000,0.000000,0.000000,0.000000,0.000000,0.000000,0.000000,0.000000,0.000000,0.000000,1764345640.276892,0.000000
42.000000,23213.337149,25589.171122,14290.274893,20205.552304,26661.674876,-2005.912603,-9942.570024,17471.397516,24486.581920,21349.849862,4122.689858,-6615.848138,21966.199215,20158.434827,-682.465813,5172.707757,0.006000,-0.020000,1.012000,192.000000,0.000000,24.000000,127.500000,48.000000,15.500000,80.000000,0.000000,0.000000,0.000000,1764345640.284886,0.000000
44.000000,23211.437251,25587.606500,14274.516913,20197.148049,26689.592205,-2022.408190,-9967.693385,17458.858187,24560.141511,21347.882908,4107.065988,-6639.116304,21969.149645,20145.940202,-689.238392,5220.764008,0.006000,-0.020000,1.012000,192.000000,0.000000,0.000000,0.000000,0.000000,0.000000,0.000000,0.000000,0.000000,0.000000,1764345640.291898,0.000000
46.000000,23213.337149,25591.428648,14289.671396,20215.118851,26672.426065,-1989.282905,-9937.473826,17473.208007,24554.531223,21354.163749,4106.730712,-6628.856853,21971.496579,20159.395952,-691.562973,5204.961324,0.006000,-0.020000,1.012000,192.000000,0.000000,0.000000,0.000000,0.000000,0.000000,0.000000,0.000000,0.000000,0.000000,1764345640.301914,0.000000
48.000000,23209.336187,25588.008832,14277.936730,20207.720424,26678.192816,-2011.344077,-9958.707983,17461.205120,24485.844312,21360.913975,4116.587832,-6614.663495,21966.668602,20169.454237,-693.328761,5194.590115,0.006000,-0.020000,1.012000,192.000000,0.000000,0.000000,0.000000,0.000000,0.000000,0.000000,0.000000,0.000000,0.000000,1764345640.307957,0.000000
50.000000,23213.426556,25593.082677,14291.750108,20212.101366,26676.628193,-2007.209004,-9947.867387,17470.369335,24602.565122,21361.517472,4102.103901,-6638.289289,21971.697744,20151.841063,-699.609601,5228.207139,0.006000,-0.020000,1.012000,192.000000,0.000000,0.000000,0.000000,0.000000,0.000000,0.000000,0.000000,0.000000,0.000000,1764345640.315916,0.000000
52.000000,23214.186515,25596.681308,14292.867695,20219.946828,26645.089882,-2000.279963,-9936.177425,17478.885350,24485.330222,21364.736124,4124.947384,-6602.995885,21961.728866,20171.979984,-699.833119,5179.770908,0.007000,-0.022000,1.011000,192.000000,0.000000,32.000000,127.500000,32.000000,15.500000,72.000000,0.000000,0.000000,0.000000,1764345640.323961,0.000000
54.000000,23221.294370,25600.838733,14283.077631,20214.001264,26670.906147,-2023.346963,-9959.177370,17475.778458,24554.017133,21366.971298,4114.151491,-6618.686809,21959.560747,20158.703048,-704.415227,5219.400551,0.007000,-0.022000,1.011000,192.000000,0.000000,0.000000,0.000000,0.000000,0.000000,0.000000,0.000000,0.000000,0.000000,1764345640.333051,0.000000
56.000000,23230.749158,25610.025300,14300.623751,20224.595991,26654.388208,-1999.475300,-9930.008343,17492.408155,24567.428180,21370.681688,4127.115503,-6606.125129,21972.055372,20166.570862,-701.107168,5195.059502,0.007000,-0.022000,1.011000,192.000000,0.000000,0.000000,0.000000,0.000000,0.000000,0.000000,0.000000,0.000000,0.000000,1764345640.340043,0.000000
58.000000,23217.092242,25597.083640,14281.289492,20205.798174,26663.798292,-2017.155530,-9957.478637,17472.470399,24494.896769,21364.177330,4133.396343,-6600.984228,21968.344983,20168.694278,-699.743712,5181.402586,0.007000,-0.022000,1.011000,192.000000,0.000000,0.000000,0.000000,0.000000,0.000000,0.000000,0.000000,0.000000,0.000000,1764345640.348087,0.000000
60.000000,23221.719053,25597.463619,14290.185486,20203.317130,26672.940156,-2016.552033,-9950.706059,17473.990318,24604.934407,21366.323098,4111.648096,-6632.679001,21972.658869,20151.058751,-694.803976,5216.628935,0.007000,-0.022000,1.011000,192.000000,0.000000,0.000000,0.000000,0.000000,0.000000,0.000000,0.000000,0.000000,0.000000,1764345640.356140,0.000000
62.000000,23212.890114,25590.512227,14289.358472,20201.461935,26653.360027,-2006.985486,-9944.156998,17470.078763,24489.107667,21360.154016,4126.109675,-6613.970591,21968.769666,20161.094685,-685.349188,5175.300559,0.008500,-0.025000,1.012500,192.000000,0.000000,40.000000,127.500000,16.000000,15.500000,88.000000,0.000000,0.000000,0.000000,1764345640.365171,0.000000
64.000000,23207.592751,25586.421858,14280.551884,20192.700051,26682.752571,-2034.120504,-9968.475696,17459.372277,24551.759607,21348.732275,4107.043637,-6640.256243,21966.646250,20143.325048,-689.417206,5217.701819,0.008500,-0.025000,1.012500,192.000000,0.000000,0.000000,0.000000,0.000000,0.000000,0.000000,0.000000,0.000000,0.000000,1764345640.372166,0.000000
66.000000,23219.819155,25596.882474,14296.041643,20209.955598,26668.089827,-1996.547222,-9939.552538,17475.689051,24560.834415,21362.366839,4114.531471,-6626.733437,21975.922224,20156.266708,-681.907020,5200.960362,0.008500,-0.025000,1.012500,192.000000,0.000000,0.000000,0.000000,0.000000,0.000000,0.000000,0.000000,0.000000,0.000000,1764345640.381196,0.000000
68.000000,23217.829849,25604.951454,14278.696689,20206.781650,26674.437722,-2003.252745,-9961.479600,17469.654080,24489.621757,21355.214281,4122.421637,-6610.863699,21966.355677,20165.632089,-682.331703,5198.881650,0.008500,-0.025000,1.012500,192.000000,0.000000,0.000000,0.000000,0.000000,0.000000,0.000000,0.000000,0.000000,0.000000,1764345640.388227,0.000000
70.000000,23234.995989,25619.949474,14289.939617,20219.499793,26684.898339,-1986.332475,-9947.956794,17485.903798,24614.545657,21380.203531,4115.693762,-6619.759693,21981.756029,20168.537816,-693.708741,5238.690107,0.008500,-0.025000,1.012500,192.000000,0.000000,0.000000,0.000000,0.000000,0.000000,0.000000,0.000000,0.000000,0.000000,1764345640.395223,0.000000
72.000000,23227.463451,25613.176896,14288.822030,20219.589200,26658.500929,-1979.179916,-9938.971393,17483.154533,24498.517752,21380.963490,4134.983317,-6590.389501,21973.575291,20183.088801,-690.668904,5194.210135,0.008250,-0.023500,1.011250,192.000000,0.000000,32.000000,127.500000,40.000000,15.500000,72.000000,0.000000,0.000000,0.000000,1764345640.404326,0.000000
74.000000,23220.914390,25605.644358,14278.026137,20211.050834,26679.958603,-2009.801806,-9958.395059,17473.900911,24562.175520,21373.185083,4118.465378,-6615.289344,21966.556843,20165.542682,-699.967229,5229.749409,0.008250,-0.023500,1.011250,192.000000,0.000000,0.000000,0.000000,0.000000,0.000000,0.000000,0.000000,0.000000,0.000000,1764345640.412337,0.000000
76.000000,23219.126251,25602.783335,14293.985283,20219.365683,26655.237574,-1994.088530,-9932.198814,17480.092344,24557.861633,21369.206473,4118.465378,-6612.316562,21969.797846,20166.839083,-696.234488,5206.391836,0.008250,-0.023500,1.011250,192.000000,0.000000,0.000000,0.000000,0.000000,0.000000,0.000000,0.000000,0.000000,0.000000,1764345640.420348,0.000000
78.000000,23209.470297,25593.909692,14280.753050,20208.815659,26663.731237,-2009.265364,-9955.779905,17466.882463,24482.491551,21361.182196,4120.633497,-6609.991981,21960.432465,20165.274461,-695.496880,5192.913734,0.008250,-0.023500,1.011250,192.000000,0.000000,0.000000,0.000000,0.000000,0.000000,0.000000,0.000000,0.000000,0.000000,1764345640.427405,0.000000
80.000000,23220.869687,25603.677404,14295.326387,20212.928380,26668.715676,-2003.588021,-9946.436876,17480.002937,24603.883875,21366.658374,4110.754026,-6631.226138,21971.206006,20153.092760,-700.280154,5225.212005,0.008250,-0.023500,1.011250,192.000000,0.000000,0.000000,0.000000,0.000000,0.000000,0.000000,0.000000,0.000000,0.000000,1764345640.436374,0.000000
82.000000,23231.106786,25614.428593,14303.082443,20214.135374,26651.884812,-2005.376161,-9935.685687,17490.172981,24501.088202,21370.189949,4140.414791,-6597.273838,21971.474227,20174.036345,-692.546450,5172.260722,0.008125,-0.021750,1.011625,192.000000,0.000000,32.000000,127.500000,48.000000,15.500000,80.000000,0.000000,0.000000,0.000000,1764345640.444439,0.000000
84.000000,23225.496498,25609.041823,14289.403175,20201.908970,26671.822568,-2017.043771,-9961.121972,17480.204103,24576.033601,21369.653507,4131.898777,-6616.429283,21971.138951,20160.312374,-698.424959,5212.695028,0.008125,-0.021750,1.011625,192.000000,0.000000,0.000000,0.000000,0.000000,0.000000,0.000000,0.000000,0.000000,0.000000,1764345640.451429,0.000000
86.000000,23234.325437,25617.691948,14306.837536,20215.275313,26651.303667,-1995.273172,-9931.818835,17495.068013,24574.536034,21374.816760,4135.385649,-6608.047379,21976.346907,20165.877958,-698.067331,5191.505574,0.008125,-0.021750,1.011625,192.000000,0.000000,0.000000,0.000000,0.000000,0.000000,0.000000,0.000000,0.000000,0.000000,1764345640.460456,0.000000
88.000000,23225.541201,25608.505381,14290.900742,20205.105270,26662.367780,-2012.640478,-9954.438800,17482.618091,24501.736403,21369.318231,4144.125181,-6597.899687,21970.110770,20168.806037,-693.194651,5182.922504,0.008125,-0.021750,1.011625,192.000000,0.000000,0.000000,0.000000,0.000000,0.000000,0.000000,0.000000,0.000000,0.000000,1764345640.468488,0.000000
90.000000,23232.626704,25610.897018,14302.478946,20210.536743,26676.494083,-1997.463643,-9943.329983,17489.815353,24618.457212,21371.911034,4127.137855,-6624.475911,21977.531550,20155.417342,-696.279192,5225.167301,0.008125,-0.021750,1.011625,192.000000,0.000000,0.000000,0.000000,0.000000,0.000000,0.000000,0.000000,0.000000,0.000000,1764345640.477516,0.000000
92.000000,23233.409015,25610.427631,14303.529478,20212.771918,26663.127740,-1995.966076,-9936.400942,17487.356661,24509.470106,21365.764304,4145.801562,-6595.865678,21978.537378,20173.477551,-683.829270,5174.562952,0.008063,-0.018875,1.009813,192.000000,0.000000,32.000000,127.500000,64.000000,15.500000,64.000000,0.000000,0.000000,0.000000,1764345640.483523,0.000000
94.000000,23215.348806,25593.641471,14288.754974,20200.210238,26688.944005,-2006.359638,-9964.161809,17467.776533,24570.646831,21361.226900,4121.684029,-6624.788836,21972.189483,20156.289060,-684.723340,5229.794112,0.008063,-0.018875,1.009813,192.000000,0.000000,0.000000,0.000000,0.000000,0.000000,0.000000,0.000000,0.000000,0.000000,1764345640.492529,0.000000
96.000000,23219.394472,25597.933006,14301.629579,20215.118851,26669.006249,-1978.017626,-9936.646812,17478.170094,24563.851901,21358.701153,4117.794826,-6623.648897,21975.609300,20161.631127,-681.102357,5218.238261,0.008063,-0.018875,1.009813,192.000000,0.000000,0.000000,0.000000,0.000000,0.000000,0.000000,0.000000,0.000000,0.000000,1764345640.500609,0.000000
98.000000,23211.973692,25595.854294,14286.720966,20208.234514,26681.657336,-1997.396588,-9957.724507,17466.904815,24495.969653,21354.275507,4125.617936,-6613.344742,21973.932919,20167.375525,-682.085834,5208.917583,0.008063,-0.018875,1.009813,192.000000,0.000000,0.000000,0.000000,0.000000,0.000000,0.000000,0.000000,0.000000,0.000000,1764345640.507623,0.000000
100.000000,23227.441100,25602.448058,14296.265161,20215.901162,26685.680650,-1989.707588,-9945.520454,17475.957272,24616.624369,21369.429990,4113.659753,-6629.192129,21983.208893,20161.072333,-690.043055,5243.898063,0.008063,-0.018875,1.009813,192.000000,0.000000,0.000000,0.000000,0.000000,0.000000,0.000000,0.000000,0.000000,0.000000,1764345640.515673,0.000000
102.000000,23223.417786,25601.419878,14297.025120,20217.935171,26663.418312,-1988.969980,-9936.400942,17478.080687,24494.807362,21364.199682,4126.914338,-6602.526498,21974.603471,20175.422153,-684.589229,5189.851545,0.007031,-0.019437,1.009906,192.000000,0.000000,24.000000,127.500000,48.000000,15.500000,72.000000,0.000000,0.000000,0.000000,1764345640.524694,0.000000
104.000000,23222.166088,25602.202189,14288.151477,20210.447336,26688.251101,-1995.161414,-9958.283300,17472.224530,24567.986973,21364.378496,4112.810387,-6622.620716,21972.301241,20159.664173,-691.920601,5227.625993,0.007031,-0.019437,1.009906,192.000000,0.000000,0.000000,0.000000,0.000000,0.000000,0.000000,0.000000,0.000000,0.000000,1764345640.532796,0.000000
106.000000,23226.256457,25617.557838,14304.088271,20223.299590,26663.954754,-1988.008855,-9929.069570,17487.043737,24574.759552,21377.096638,4121.773436,-6608.472062,21982.985375,20172.158798,-695.139253,5198.211098,0.007031,-0.019437,1.009906,192.000000,0.000000,0.000000,0.000000,0.000000,0.000000,0.000000,0.000000,0.000000,0.000000,1764345640.540793,0.000000
108.000000,23208.866800,25598.000061,14286.318634,20212.816621,26670.347353,-2013.422789,-9953.075344,17473.163304,24498.607158,21364.557310,4128.948346,-6602.861774,21970.334288,20170.415362,-694.915735,5189.382158,0.007031,-0.019437,1.009906,192.000000,0.000000,0.000000,0.000000,0.000000,0.000000,0.000000,0.000000,0.000000,0.000000,1764345640.547773,0.000000
110.000000,23219.685044,25605.465544,14296.175754,20213.800098,26673.767170,-2009.690047,-9945.185178,17477.767763,24611.550523,21371.307537,4113.793864,-6625.884071,21974.268195,20158.859510,-701.263631,5224.340287,0.007031,-0.019437,1.009906,192.000000,0.000000,0.000000,0.000000,0.000000,0.000000,0.000000,0.000000,0.000000,0.000000,1764345640.556812,0.000000
112.000000,23222.546068,25607.924236,14301.227248,20214.135374,26659.506757,-1997.933030,-9936.199777,17480.338213,24500.998795,21372.067496,4133.441047,-6600.716007,21972.100076,20175.288042,-690.087758,5174.630007,0.004516,-0.019719,1.010953,192.000000,0.000000,8.000000,127.500000,48.000000,15.500000,80.000000,0.000000,0.000000,0.000000,1764345640.563815,0.000000
114.000000,23211.616065,25599.251759,14287.257408,20201.394880,26683.512531,-2012.752236,-9962.507780,17467.240091,24567.852863,21362.657411,4115.157320,-6625.794664,21967.495616,20156.020839,-689.864241,5225.010839,0.004516,-0.019719,1.010953,192.000000,0.000000,0.000000,0.000000,0.000000,0.000000,0.000000,0.000000,0.000000,0.000000,1764345640.571872,0.000000
116.000000,23232.179669,25616.529657,14307.083405,20219.075110,26674.772999,-1975.424823,-9930.701248,17488.295435,24568.389305,21373.118028,4122.533396,-6613.747074,21972.994146,20167.666098,-682.555220,5206.570650,0.004516,-0.019719,1.010953,192.000000,0.000000,0.000000,0.000000,0.000000,0.000000,0.000000,0.000000,0.000000,0.000000,1764345640.579913,0.000000
118.000000,23220.623818,25605.063213,14287.033890,20207.809831,26679.891548,-1998.670637,-9956.562216,17473.520931,24503.725708,21372.447475,4133.798675,-6599.978399,21970.669564,20176.025650,-679.113052,5197.540545,0.004516,-0.019719,1.010953,192.000000,0.000000,0.000000,0.000000,0.000000,0.000000,0.000000,0.000000,0.000000,0.000000,1764345640.587919,0.000000
120.000000,23232.112614,25616.417899,14297.986245,20214.761223,26689.391040,-1986.846565,-9945.766323,17483.959196,24617.049052,21373.989746,4116.677239,-6624.520615,21975.005803,20161.117036,-689.618372,5245.082706,0.004516,-0.019719,1.010953,192.000000,0.000000,0.000000,0.000000,0.000000,0.000000,0.000000,0.000000,0.000000,0.000000,1764345640.595991,0.000000
122.000000,23227.016416,25613.579227,14294.879352,20216.974046,26665.877004,-1981.348035,-9938.770227,17482.618091,24504.843295,21373.810932,4136.145608,-6595.418643,21969.328459,20178.283176,-680.834136,5189.806842,0.004516,-0.019719,1.010953,192.000000,0.000000,0.000000,0.000000,0.000000,0.000000,0.000000,0.000000,0.000000,0.000000,1764345640.604018,0.000000
124.000000,23230.637399,25607.611311,14284.932826,20212.123717,26688.251101,-2006.247879,-9959.602053,17476.337251,24574.737200,21370.413467,4119.694724,-6617.993905,21970.267233,20164.983888,-695.966267,5232.029287,0.008000,-0.020000,1.014000,192.000000,0.000000,32.000000,127.500000,48.000000,15.500000,88.000000,0.000000,0.000000,0.000000,1764345640.613006,0.000000
126.000000,23236.582963,25619.524791,14303.060091,20224.931267,26668.715676,-1986.801861,-9929.538957,17489.480077,24577.151189,21378.504798,4126.623765,-6606.661571,21975.586948,20174.818656,-699.117863,5210.012819,0.008000,-0.020000,1.014000,192.000000,0.000000,0.000000,0.000000,0.000000,0.000000,0.000000,0.000000,0.000000,0.000000,1764345640.621048,0.000000
128.000000,23217.628684,25612.081660,14285.670434,20213.129546,26673.007211,-2004.392684,-9954.438800,17475.331423,24504.195095,21373.989746,4132.166997,-6596.111547,21966.020401,20175.936243,-687.718473,5194.388949,0.008000,-0.020000,1.014000,192.000000,0.000000,0.000000,0.000000,0.000000,0.000000,0.000000,0.000000,0.000000,0.000000,1764345640.629061,0.000000
130.000000,23233.699588,25616.820230,14292.465364,20216.638770,26672.224900,-2004.951478,-9946.861559,17478.952405,24618.904247,21374.213263,4114.106788,-6620.586708,21969.797846,20157.831330,-692.501747,5226.709572,0.008000,-0.020000,1.014000,192.000000,0.000000,0.000000,0.000000,0.000000,0.000000,0.000000,0.000000,0.000000,0.000000,1764345640.638072,0.000000
132.000000,23231.442062,25619.636550,14295.326387,20221.399691,26653.136510,-1993.440329,-9937.272660,17483.378051,24504.776240,21374.168560,4132.144646,-6593.317579,21965.528663,20178.350231,-691.987657,5187.102281,0.008000,-0.020000,1.014000,192.000000,0.000000,0.000000,0.000000,0.000000,0.000000,0.000000,0.000000,0.000000,0.000000,1764345640.644101,0.000000
134.000000,23228.938666,25616.842582,14284.955178,20211.430813,26680.696211,-2003.073931,-9960.697289,17473.230359,24579.878101,21375.308499,4120.342925,-6614.663495,21967.182692,20167.867263,-695.407473,5228.207139,0.004000,-0.020000,1.008000,192.000000,0.000000,16.000000,127.500000,48.000000,15.500000,64.000000,0.000000,0.000000,0.000000,1764345640.652153,0.000000
136.000000,23239.689856,25626.163259,14304.580010,20223.165479,26664.602955,-1990.534602,-9931.304745,17486.194371,24579.587529,21379.711792,4124.388590,-6607.153309,21976.838646,20173.946938,-692.300581,5207.554127,0.004000,-0.020000,1.008000,192.000000,0.000000,0.000000,0.000000,0.000000,0.000000,0.000000,0.000000,0.000000,0.000000,1764345640.660161,0.000000
138.000000,23226.703492,25615.724995,14286.586855,20210.603799,26671.509644,-2002.470434,-9957.456286,17467.441257,24508.754850,21376.515493,4128.456608,-6599.956048,21968.166169,20176.562092,-683.941029,5199.440443,0.004000,-0.020000,1.008000,192.000000,0.000000,0.000000,0.000000,0.000000,0.000000,0.000000,0.000000,0.000000,0.000000,1764345640.668208,0.000000
140.000000,23235.532431,25623.637512,14297.539210,20215.409424,26682.819627,-1984.521983,-9948.403829,17475.890216,24620.379462,21376.113162,4108.675314,-6625.191167,21974.312898,20164.872130,-690.065407,5238.511293,0.004000,-0.020000,1.008000,192.000000,0.000000,0.000000,0.000000,0.000000,0.000000,0.000000,0.000000,0.000000,0.000000,1764345640.675234,0.000000
142.000000,23242.394417,25629.136041,14299.237943,20218.359854,26669.788560,-1985.214887,-9941.117160,17480.606434,24515.505077,21380.985842,4136.302070,-6591.507088,21978.202102,20186.799191,-680.923543,5188.890420,0.004000,-0.020000,1.008000,192.000000,0.000000,0.000000,0.000000,0.000000,0.000000,0.000000,0.000000,0.000000,0.000000,1764345640.684243,0.000000
144.000000,23237.186460,25623.101070,14287.168001,20206.178153,26693.526112,-1999.631762,-9965.480562,17469.497617,24581.509779,21371.955737,4118.443026,-6620.184376,21971.049544,20164.603909,-685.550354,5238.287775,0.006000,-0.026000,1.018000,192.000000,0.000000,24.000000,127.500000,24.000000,15.500000,104.000000,0.000000,0.000000,0.000000,1764345640.692330,0.000000
146.000000,23247.378856,25633.807556,14304.177678,20222.293761,26674.683592,-1978.487012,-9933.919899,17486.663757,24582.605014,21382.863388,4128.031925,-6607.041551,21980.347869,20175.176284,-683.672808,5215.287830,0.006000,-0.026000,1.018000,192.000000,0.000000,0.000000,0.000000,0.000000,0.000000,0.000000,0.000000,0.000000,0.000000,1764345640.701293,0.000000
148.000000,23236.113576,25625.827983,14284.910474,20213.665988,26679.399810,-1999.587059,-9958.059783,17473.699745,24512.532295,21378.102467,4134.446875,-6596.156251,21972.636518,20181.099496,-688.992523,5207.375313,0.006000,-0.026000,1.018000,192.000000,0.000000,0.000000,0.000000,0.000000,0.000000,0.000000,0.000000,0.000000,0.000000,1764345640.707336,0.000000
150.000000,23243.668466,25630.007759,14297.583914,20219.790366,26684.518359,-1995.854318,-9946.481579,17484.205065,24625.386253,21378.124819,4118.018343,-6620.854929,21977.866826,20162.927528,-692.948782,5241.998165,0.006000,-0.026000,1.018000,192.000000,0.000000,0.000000,0.000000,0.000000,0.000000,0.000000,0.000000,0.000000,0.000000,1764345640.716366,0.000000
152.000000,23245.255440,25630.790070,14301.942504,20224.283066,26663.060685,-1997.553050,-9934.925727,17490.061222,24515.169801,21380.918787,4143.566387,-6587.461422,21976.972756,20180.674813,-685.952686,5189.203344,0.006000,-0.026000,1.018000,192.000000,0.000000,0.000000,0.000000,0.000000,0.000000,0.000000,0.000000,0.000000,0.000000,1764345640.725390,0.000000
154.000000,23241.925030,25627.660826,14292.085384,20215.320017,26683.758400,-2005.845547,-9955.757553,17484.361527,24588.751744,21378.929481,4131.161169,-6607.533289,21979.386744,20164.358039,-694.379293,5225.212005,0.006000,-0.026000,1.014000,192.000000,0.000000,24.000000,127.500000,24.000000,15.500000,88.000000,0.000000,0.000000,0.000000,1764345640.731436,0.000000
156.000000,23248.183518,25634.522812,14306.882239,20226.026502,26660.087903,-1986.019550,-9928.533128,17497.571408,24587.120067,21384.204493,4136.212663,-6597.184431,21980.996070,20172.181150,-692.121767,5204.335475,0.006000,-0.026000,1.014000,192.000000,0.000000,0.000000,0.000000,0.000000,0.000000,0.000000,0.000000,0.000000,0.000000,1764345640.740488,0.000000
158.000000,23242.193251,25629.627780,14292.018329,20214.895334,26672.336659,-2006.806672,-9951.264852,17486.194371,24515.683891,21378.236577,4142.471152,-6587.439071,21970.267233,20174.461028,-689.886593,5194.970095,0.006000,-0.026000,1.014000,192.000000,0.000000,0.000000,0.000000,0.000000,0.000000,0.000000,0.000000,0.000000,0.000000,1764345640.748487,0.000000
160.000000,23249.457568,25638.724940,14302.993036,20218.650427,26685.054801,-1998.514175,-9941.318326,17494.308054,24634.259896,21387.110220,4129.730657,-6609.276725,21981.510160,20165.296813,-693.909907,5230.844644,0.006000,-0.026000,1.014000,192.000000,0.000000,0.000000,0.000000,0.000000,0.000000,0.000000,0.000000,0.000000,0.000000,1764345640.755494,0.000000
162.000000,23249.882251,25638.121443,14304.267085,20216.996398,26667.598089,-1988.768815,-9934.948079,17493.436336,24520.243647,21382.461057,4149.511951,-6583.683978,21980.347869,20181.434772,-686.019741,5180.575571,0.006000,-0.026000,1.014000,192.000000,0.000000,0.000000,0.000000,0.000000,0.000000,0.000000,0.000000,0.000000,0.000000,1764345640.763527,0.000000
164.000000,23241.232126,25629.292504,14291.079556,20204.792345,26693.123781,-2010.405303,-9959.736164,17478.326556,24590.852808,21380.024717,4131.854073,-6607.421530,21979.766724,20163.240452,-690.467738,5222.261575,0.006000,-0.022000,1.012000,192.000000,0.000000,24.000000,127.500000,40.000000,15.500000,80.000000,0.000000,0.000000,0.000000,1764345640.772530,0.000000
166.000000,23246.641248,25635.148661,14306.211687,20216.281142,26675.912938,-1987.517117,-9931.729428,17489.435373,24580.615709,21382.371650,4130.647079,-6602.593553,21979.990242,20168.582519,-684.052787,5202.122653,0.006000,-0.022000,1.012000,192.000000,0.000000,0.000000,0.000000,0.000000,0.000000,0.000000,0.000000,0.000000,0.000000,1764345640.780943,0.000000
168.000000,23241.500347,25625.537410,14289.358472,20204.054738,26681.970260,-2007.700742,-9956.986899,17473.744449,24509.894789,21374.928519,4134.044544,-6597.676170,21972.100076,20170.437714,-683.538697,5196.467661,0.006000,-0.022000,1.012000,192.000000,0.000000,0.000000,0.000000,0.000000,0.000000,0.000000,0.000000,0.000000,0.000000,1764345640.787611,0.000000
170.000000,23245.680123,25632.600562,14296.555733,20208.748604,26689.279281,-1996.927201,-9946.705097,17481.075821,24624.112204,21377.521321,4120.231166,-6620.966687,21976.793942,20159.373600,-689.931296,5226.955441,0.006000,-0.022000,1.012000,192.000000,0.000000,0.000000,0.000000,0.000000,0.000000,0.000000,0.000000,0.000000,0.000000,1764345640.797637,0.000000
172.000000,23245.344847,25629.739538,14292.711233,20211.184944,26661.406655,-1994.088530,-9941.541844,17480.069993,24504.060984,21371.262833,4133.083419,-6597.229135,21966.109808,20166.749676,-688.858412,5190.700911,0.006000,-0.022000,1.012000,192.000000,0.000000,0.000000,0.000000,0.000000,0.000000,0.000000,0.000000,0.000000,0.000000,1764345640.804675,0.000000
174.000000,23245.456606,25630.901829,14283.658777,20205.597008,26690.106295,-2001.464606,-9962.284262,17474.951443,24580.995689,21374.012098,4120.700553,-6616.429283,21971.295413,20158.501882,-689.908944,5233.772723,0.010000,-0.018000,1.010000,192.000000,0.000000,40.000000,127.500000,56.000000,15.500000,72.000000,0.000000,0.000000,0.000000,1764345640.811692,0.000000
176.000000,23256.051332,25641.563611,14301.227248,20219.052758,26669.945022,-1973.033187,-9931.818835,17492.363452,24580.772171,21382.751630,4129.529492,-6604.716969,21977.062163,20172.605833,-689.104282,5211.420978,0.010000,-0.018000,1.010000,192.000000,0.000000,0.000000,0.000000,0.000000,0.000000,0.000000,0.000000,0.000000,0.000000,1764345640.819849,0.000000
178.000000,23246.484786,25634.388701,14287.011538,20209.888543,26680.472693,-2004.929126,-9954.528207,17480.874655,24514.163973,21380.494103,4138.403134,-6594.345760,21970.803675,20177.009127,-692.032360,5203.173185,0.010000,-0.018000,1.010000,192.000000,0.000000,0.000000,0.000000,0.000000,0.000000,0.000000,0.000000,0.000000,0.000000,1764345640.827811,0.000000
180.000000,23256.923051,25646.212774,14300.534344,20217.398729,26691.313290,-1995.675504,-9941.452437,17494.755089,24631.309465,21388.853656,4125.863806,-6611.936583,21980.660794,20169.275423,-692.837023,5230.889348,0.010000,-0.018000,1.010000,192.000000,0.000000,0.000000,0.000000,0.000000,0.000000,0.000000,0.000000,0.000000,0.000000,1764345640.836820,0.000000
182.000000,23248.988181,25639.082568,14296.555733,20214.403595,26662.747760,-2000.145853,-9936.289184,17490.865885,24517.606141,21389.524208,4147.232073,-6583.125184,21974.938747,20182.373545,-683.158718,5175.904057,0.010000,-0.018000,1.010000,192.000000,0.000000,0.000000,0.000000,0.000000,0.000000,0.000000,0.000000,0.000000,0.000000,1764345640.843828,0.000000
184.000000,23236.784129,25627.973751,14284.977530,20201.864267,26688.765191,-2012.327553,-9961.256082,17476.314899,24584.370802,21377.633080,4127.339021,-6613.858833,21969.373163,20159.641821,-692.591154,5222.663906,0.014000,-0.018000,1.012000,192.000000,0.000000,56.000000,127.500000,56.000000,15.500000,80.000000,0.000000,0.000000,0.000000,1764345640.851852,0.000000
186.000000,23247.691780,25637.763815,14302.277780,20213.934209,26674.080095,-1987.830041,-9932.332925,17488.943635,24579.676936,21378.169522,4130.490617,-6605.521632,21974.804637,20168.537816,-689.260744,5203.597868,0.014000,-0.018000,1.012000,192.000000,0.000000,0.000000,0.000000,0.000000,0.000000,0.000000,0.000000,0.000000,0.000000,1764345640.859837,0.000000
188.000000,23244.473129,25635.729806,14287.659739,20203.920627,26688.407563,-2001.218736,-9956.293995,17478.415963,24515.102746,21377.141342,4137.844341,-6595.061015,21972.100076,20174.438676,-683.941029,5192.310237,0.014000,-0.018000,1.012000,192.000000,0.000000,0.000000,0.000000,0.000000,0.000000,0.000000,0.000000,0.000000,0.000000,1764345640.867903,0.000000
190.000000,23252.318591,25644.379931,14296.891009,20206.982816,26692.989670,-1993.239164,-9946.906262,17484.585045,24632.628218,21383.422182,4123.315707,-6616.429283,21980.929015,20162.391086,-693.284058,5231.112865,0.014000,-0.018000,1.012000,192.000000,0.000000,0.000000,0.000000,0.000000,0.000000,0.000000,0.000000,0.000000,0.000000,1764345640.875915,0.000000
192.000000,23250.843376,25643.441158,14300.824916,20208.256866,26676.024696,-1978.397605,-9939.284317,17484.875618,24516.063871,21385.769115,4141.599434,-6587.751995,21975.609300,20179.579577,-681.616447,5180.575571,0.014000,-0.018000,1.012000,192.000000,0.000000,0.000000,0.000000,0.000000,0.000000,0.000000,0.000000,0.000000,0.000000,1764345640.885934,0.000000
194.000000,23236.538260,25631.795899,14284.508143,20198.399746,26697.012984,-2008.371295,-9964.720603,17470.771667,24580.906282,21373.095676,4120.968773,-6615.512862,21968.836721,20158.524234,-685.036264,5228.788284,0.012000,-0.015000,1.009000,192.000000,0.000000,40.000000,127.500000,80.000000,15.500000,56.000000,0.000000,0.000000,0.000000,1764345640.892966,0.000000
196.000000,23248.317629,25639.663713,14300.243771,20212.816621,26677.186987,-1985.192536,-9935.484521,17484.875618,24577.642927,21377.633080,4126.512006,-6606.683923,21975.519893,20168.604871,-689.126633,5214.572574,0.012000,-0.015000,1.009000,192.000000,0.000000,0.000000,0.000000,0.000000,0.000000,0.000000,0.000000,0.000000,0.000000,1764345640.898991,0.000000
198.000000,23244.182556,25636.288600,14282.764707,20205.306435,26692.363822,-1997.418940,-9959.378536,17474.280891,24503.748060,21371.084019,4132.904605,-6599.486661,21967.719134,20172.516426,-680.700026,5202.770853,0.012000,-0.015000,1.009000,192.000000,0.000000,0.000000,0.000000,0.000000,0.000000,0.000000,0.000000,0.000000,0.000000,1764345640.907978,0.000000
200.000000,23260.074646,25647.889155,14294.387614,20209.575618,26699.561083,-1991.361617,-9947.643870,17484.763859,24626.883820,21384.495066,4122.131064,-6616.496338,21980.280814,20165.185054,-690.780662,5236.678450,0.012000,-0.015000,1.009000,192.000000,0.000000,0.000000,0.000000,0.000000,0.000000,0.000000,0.000000,0.000000,0.000000,1764345640.916040,0.000000
202.000000,23253.145606,25644.290524,14294.611132,20210.804964,26673.543653,-1991.875707,-9939.485483,17485.389708,24511.906446,21380.963490,4141.353564,-6590.590667,21975.408134,20176.070354,-686.690293,5183.838926,0.012000,-0.015000,1.009000,192.000000,0.000000,0.000000,0.000000,0.000000,0.000000,0.000000,0.000000,0.000000,0.000000,1764345640.924068,0.000000
204.000000,23243.914335,25635.595695,14284.217570,20199.673796,26696.320080,-2010.002972,-9962.574835,17475.621995,24574.759552,21370.011135,4123.226300,-6615.155234,21967.182692,20157.071371,-688.657247,5219.959345,0.011000,-0.016500,1.009500,192.000000,0.000000,40.000000,127.500000,56.000000,15.500000,72.000000,0.000000,0.000000,0.000000,1764345640.932106,0.000000
206.000000,23252.586812,25645.631629,14302.076614,20212.302531,26673.275432,-1995.384931,-9931.908242,17490.128278,24573.396095,21378.795371,4131.965832,-6602.772367,21973.687050,20167.621394,-686.399720,5191.550278,0.011000,-0.016500,1.009500,192.000000,0.000000,0.000000,0.000000,0.000000,0.000000,0.000000,0.000000,0.000000,0.000000,1764345640.940141,0.000000
208.000000,23234.727768,25630.320684,14282.496486,20198.511505,26678.505740,-2023.905757,-9958.260948,17472.559806,24498.026013,21369.988784,4132.524625,-6596.536231,21960.678334,20163.374563,-686.600886,5188.152812,0.011000,-0.016500,1.009500,192.000000,0.000000,0.000000,0.000000,0.000000,0.000000,0.000000,0.000000,0.000000,0.000000,1764345640.947156,0.000000
210.000000,23238.885193,25632.734672,14293.135916,20205.082918,26685.904167,-2007.343114,-9946.883911,17480.897007,24609.829439,21369.072362,4114.866747,-6622.486606,21967.339154,20149.315315,-690.780662,5226.709572,0.011000,-0.016500,1.009500,192.000000,0.000000,0.000000,0.000000,0.000000,0.000000,0.000000,0.000000,0.000000,0.000000,1764345640.957208,0.000000
212.000000,23237.611143,25631.728844,14294.320559,20208.860363,26673.320135,-1983.292637,-9939.463131,17480.919359,24497.221350,21370.972260,4136.257367,-6593.362283,21966.288622,20172.695240,-682.264648,5178.094527,0.011000,-0.016500,1.009500,192.000000,0.000000,0.000000,0.000000,0.000000,0.000000,0.000000,0.000000,0.000000,0.000000,1764345640.965227,0.000000
214.000000,23230.570344,25623.190477,14283.412908,20199.494982,26699.292862,-2012.752236,-9963.558312,17469.519969,24568.121084,21365.138455,4118.979468,-6619.335010,21965.998049,20154.813845,-687.316142,5227.715400,0.009500,-0.015250,1.010750,192.000000,0.000000,32.000000,127.500000,72.000000,15.500000,80.000000,0.000000,0.000000,0.000000,1764345640.973220,0.000000
216.000000,23240.874498,25632.309989,14301.160193,20211.609627,26678.326926,-1986.846565,-9935.015134,17483.892141,24562.980183,21372.000441,4124.410942,-6611.176623,21971.384820,20163.754542,-683.203421,5207.062388,0.009500,-0.015250,1.010750,192.000000,0.000000,0.000000,0.000000,0.000000,0.000000,0.000000,0.000000,0.000000,0.000000,1764345640.985183,0.000000
218.000000,23235.375969,25630.655960,14285.268102,20202.177191,26687.021755,-2004.303277,-9958.328004,17473.252710,24497.690737,21366.412504,4131.787018,-6603.666437,21963.762875,20164.894481,-683.784566,5200.133348,0.009500,-0.015250,1.010750,192.000000,0.000000,0.000000,0.000000,0.000000,0.000000,0.000000,0.000000,0.000000,0.000000,1764345640.987285,0.000000
220.000000,23242.707341,25637.674408,14294.320559,20210.760261,26691.179179,-1992.613315,-9946.034544,17482.908664,24613.875105,21380.069420,4119.895890,-6619.625583,21973.485884,20160.446484,-690.445386,5233.683316,0.009500,-0.015250,1.010750,192.000000,0.000000,0.000000,0.000000,0.000000,0.000000,0.000000,0.000000,0.000000,0.000000,1764345640.996306,0.000000
222.000000,23241.522699,25633.874611,14294.208800,20212.302531,26671.800217,-1990.802823,-9937.563233,17484.316824,24497.355461,21377.431915,4139.073686,-6590.590667,21966.154512,20174.013993,-685.416244,5189.873897,0.009500,-0.015250,1.010750,192.000000,0.000000,0.000000,0.000000,0.000000,0.000000,0.000000,0.000000,0.000000,0.000000,1764345641.003354,0.000000
224.000000,23235.688893,25628.845469,14282.943521,20204.568828,26696.230673,-2013.914527,-9960.943158,17473.297414,24571.742066,21365.943118,4123.829797,-6615.222289,21968.881425,20159.060676,-693.619334,5227.827159,0.008750,-0.017625,1.012375,192.000000,0.000000,32.000000,127.500000,48.000000,15.500000,88.000000,0.000000,0.000000,0.000000,1764345641.011384,0.000000
226.000000,23240.114539,25631.460623,14299.617922,20216.906991,26673.588356,-1991.652190,-9933.338753,17485.389708,24565.327116,21371.061667,4127.294317,-6608.293248,21973.418829,20166.704973,-688.545488,5209.565784,0.008750,-0.017625,1.012375,192.000000,0.000000,0.000000,0.000000,0.000000,0.000000,0.000000,0.000000,0.000000,0.000000,1764345641.019357,0.000000
228.000000,23231.486765,25628.890172,14285.670434,20208.167459,26682.260833,-2010.606469,-9956.651623,17474.884388,24500.484705,21368.222996,4135.206835,-6599.129033,21967.361506,20167.822560,-688.053750,5197.495842,0.008750,-0.017625,1.012375,192.000000,0.000000,0.000000,0.000000,0.000000,0.000000,0.000000,0.000000,0.000000,0.000000,1764345641.028433,0.000000
230.000000,23245.121329,25642.055350,14297.852134,20217.041101,26688.787542,-1997.240126,-9944.313460,17486.686109,24613.293959,21379.085944,4121.236994,-6616.608097,21975.251672,20161.876996,-696.458005,5226.731923,0.008750,-0.017625,1.012375,192.000000,0.000000,0.000000,0.000000,0.000000,0.000000,0.000000,0.000000,0.000000,0.000000,1764345641.035398,0.000000
232.000000,23237.119405,25633.002893,14297.628617,20214.828278,26665.519376,-1996.614277,-9938.412599,17484.138010,24500.954092,21377.677784,4142.046469,-6586.969684,21968.948480,20177.724383,-690.467738,5180.910847,0.008750,-0.017625,1.012375,192.000000,0.000000,0.000000,0.000000,0.000000,0.000000,0.000000,0.000000,0.000000,0.000000,1764345641.044466,0.000000
234.000000,23230.860916,25628.241972,14287.257408,20205.842877,26687.938176,-2005.063236,-9961.814876,17475.063202,24571.563252,21372.089848,4123.762742,-6610.774292,21965.685125,20158.948917,-687.159680,5220.920470,0.006375,-0.018813,1.010188,192.000000,0.000000,16.000000,127.500000,48.000000,15.500000,64.000000,0.000000,0.000000,0.000000,1764345641.052479,0.000000
236.000000,23234.258382,25631.102995,14300.221419,20218.091633,26666.324039,-1995.697855,-9934.478692,17485.456763,24558.375723,21375.196740,4125.394419,-6602.124167,21963.584061,20165.497978,-682.666979,5204.760159,0.006375,-0.018813,1.010188,192.000000,0.000000,0.000000,0.000000,0.000000,0.000000,0.000000,0.000000,0.000000,0.000000,1764345641.059520,0.000000
238.000000,23219.930913,25620.329454,14278.361413,20204.188848,26672.850749,-2016.350867,-9961.501951,17467.217739,24490.605234,21367.977127,4129.350678,-6598.346722,21955.693895,20166.772028,-680.431805,5199.306333,0.006375,-0.018813,1.010188,192.000000,0.000000,0.000000,0.000000,0.000000,0.000000,0.000000,0.000000,0.000000,0.000000,1764345641.067769,0.000000
240.000000,23228.558687,25627.660826,14285.849248,20212.414290,26679.265699,-1998.827100,-9950.147265,17478.930054,24599.122953,21368.088885,4109.748198,-6622.710123,21957.079703,20154.925603,-691.853546,5244.769781,0.006375,-0.018813,1.010188,192.000000,0.000000,0.000000,0.000000,0.000000,0.000000,0.000000,0.000000,0.000000,0.000000,1764345641.075977,0.000000
242.000000,23236.962943,25636.310951,14289.179658,20214.358892,26665.385266,-1993.306219,-9941.251271,17484.719155,24485.509036,21373.095676,4133.239881,-6587.707292,21955.135102,20176.293871,-681.571744,5191.863202,0.006375,-0.018813,1.010188,192.000000,0.000000,0.000000,0.000000,0.000000,0.000000,0.000000,0.000000,0.000000,0.000000,1764345641.084297,0.000000
244.000000,23231.889097,25628.644303,14281.356547,20202.087784,26688.832246,-2017.535510,-9964.050050,17474.459705,24567.338773,21371.106371,4121.840492,-6613.948240,21958.085532,20157.160778,-690.177165,5236.231415,0.004188,-0.021406,1.005094,192.000000,0.000000,8.000000,127.500000,32.000000,15.500000,32.000000,0.000000,0.000000,0.000000,1764345641.091625,0.000000
246.000000,23243.735521,25638.188498,14303.551829,20215.521182,26670.883795,-1988.299428,-9932.489387,17492.318749,24565.796502,21374.146208,4130.982355,-6603.465271,21966.780361,20165.453275,-689.663075,5210.549260,0.004188,-0.021406,1.005094,192.000000,0.000000,0.000000,0.000000,0.000000,0.000000,0.000000,0.000000,0.000000,0.000000,1764345641.100776,0.000000
248.000000,23228.446928,25625.023320,14285.290454,20205.127621,26679.153941,-2005.465568,-9957.523341,17476.471362,24501.848161,21365.674897,4138.693707,-6594.278704,21961.103017,20167.688449,-685.528002,5198.725188,0.004188,-0.021406,1.005094,192.000000,0.000000,0.000000,0.000000,0.000000,0.000000,0.000000,0.000000,0.000000,0.000000,1764345641.107699,0.000000
250.000000,23233.900754,25628.532544,14292.554771,20213.151898,26682.573757,-1996.547222,-9946.570986,17483.668623,24610.924674,21370.368763,4118.420675,-6618.932679,21964.433427,20159.015972,-692.211174,5238.108961,0.004188,-0.021406,1.005094,192.000000,0.000000,0.000000,0.000000,0.000000,0.000000,0.000000,0.000000,0.000000,0.000000,1764345641.117344,0.000000
252.000000,23230.391530,25622.564628,14292.867695,20215.431776,26662.233670,-1993.730902,-9937.742047,17486.931978,24497.064888,21368.021830,4139.051335,-6589.987170,21960.767741,20175.332746,-684.969209,5180.933199,0.004188,-0.021406,1.005094,192.000000,0.000000,0.000000,0.000000,0.000000,0.000000,0.000000,0.000000,0.000000,0.000000,1764345641.124687,0.000000
254.000000,23220.377948,25617.490782,14276.640329,20205.127621,26678.751609,-2018.898966,-9962.038393,17475.063202,24567.472883,21355.728371,4120.633497,-6618.262126,21956.252689,20152.288097,-694.245183,5228.251842,0.003094,-0.022703,1.004547,192.000000,0.000000,8.000000,127.500000,32.000000,15.500000,48.000000,0.000000,0.000000,0.000000,1764345641.133833,0.000000
0.000000,23226.614085,25620.083585,14297.807431,20215.252962,26659.260888,-1992.233335,-9933.092884,17487.423716,24560.633249,21365.719600,4127.473131,-6607.734455,21961.818273,20169.387182,-693.909907,5207.084740,0.003094,-0.022703,1.004547,192.000000,0.000000,0.000000,0.000000,0.000000,0.000000,0.000000,0.000000,0.000000,0.000000,1764345641.140840,0.000000
2.000000,23216.444041,25610.070003,14286.653910,20201.484287,26672.448417,-2015.590908,-9958.685632,17468.827065,24490.538179,21354.163749,4132.681088,-6605.499280,21953.592831,20161.944051,-683.426938,5196.981752,0.003094,-0.022703,1.004547,192.000000,0.000000,0.000000,0.000000,0.000000,0.000000,0.000000,0.000000,0.000000,0.000000,1764345641.146801,0.000000
4.000000,23216.488745,25609.533561,14295.594608,20205.619360,26685.725353,-2003.543318,-9950.147265,17470.928129,24604.934407,21358.298821,4114.620878,-6629.728571,21964.746352,20150.589365,-690.043055,5230.934051,0.003094,-0.022703,1.004547,192.000000,0.000000,0.000000,0.000000,0.000000,0.000000,0.000000,0.000000,0.000000,0.000000,1764345641.155784,0.000000
6.000000,23213.538315,25609.198285,14292.040681,20208.078052,26666.927536,-2005.465568,-9946.213358,17468.737658,24481.329260,21354.521376,4126.221433,-6603.822899,21960.253651,20164.738019,-676.319084,5185.180030,0.003094,-0.022703,1.004547,192.000000,0.000000,0.000000,0.000000,0.000000,0.000000,0.000000,0.000000,0.000000,0.000000,1764345641.163822,0.000000
8.000000,23208.978559,25605.443192,14277.601454,20199.964368,26693.146133,-2020.128312,-9970.174428,17457.025344,24554.017133,21356.935365,4108.720018,-6626.755789,21956.744427,20150.790531,-677.839002,5231.112865,0.003094,-0.022703,1.004547,192.000000,0.000000,0.000000,0.000000,0.000000,0.000000,0.000000,0.000000,0.000000,0.000000,1764345641.171816,0.000000
10.000000,23226.323512,25622.251704,14295.438146,20216.683473,26676.069400,-1981.213925,-9937.295012,17477.477190,24552.787787,21362.545653,4116.811349,-6614.104702,21963.315840,20163.665135,-675.357959,5210.459853,0.004000,-0.026000,1.006000,192.000000,0.000000,16.000000,127.500000,24.000000,15.500000,56.000000,0.000000,0.000000,0.000000,1764345641.179868,0.000000
12.000000,23219.416823,25616.082623,14279.881332,20206.334616,26687.580548,-2002.537489,-9959.266777,17469.587024,24489.778219,21357.605917,4127.070800,-6602.951181,21958.264346,20168.738981,-678.777776,5202.592039,0.004000,-0.026000,1.006000,192.000000,0.000000,0.000000,0.000000,0.000000,0.000000,0.000000,0.000000,0.000000,0.000000,1764345641.187881,0.000000
14.000000,23233.654885,25628.443137,14290.990149,20213.107194,26688.742839,-1998.715341,-9947.867387,17482.372222,24606.431974,21363.395019,4117.504253,-6621.301963,21968.210872,20157.853682,-684.656284,5237.818389,0.004000,-0.026000,1.006000,192.000000,0.000000,0.000000,0.000000,0.000000,0.000000,0.000000,0.000000,0.000000,0.000000,1764345641.195938,0.000000
16.000000,23236.605315,25630.432442,14298.902666,20215.409424,26672.448417,-1994.513213,-9940.692477,17484.920321,24487.677155,21362.791522,4139.252500,-6591.328274,21963.114674,20176.360926,-680.565915,5188.465737,0.004000,-0.026000,1.006000,192.000000,0.000000,0.000000,0.000000,0.000000,0.000000,0.000000,0.000000,0.000000,0.000000,1764345641.203959,0.000000
18.000000,23231.173841,25627.169088,14288.486754,20206.736947,26689.055763,-2013.579251,-9962.619539,17472.693917,24568.121084,21365.183159,4127.942518,-6612.383617,21966.489788,20163.396914,-689.551316,5231.045810,0.004000,-0.026000,1.006000,192.000000,0.000000,0.000000,0.000000,0.000000,0.000000,0.000000,0.000000,0.000000,0.000000,1764345641.212999,0.000000
20.000000,23231.844393,25630.924181,14302.098966,20219.410386,26665.228804,-2000.011742,-9933.852844,17484.294472,24555.939383,21364.534958,4130.311803,-6604.225231,21968.188520,20166.704973,-692.412340,5205.117787,0.006000,-0.022000,1.012000,192.000000,0.000000,24.000000,127.500000,40.000000,15.500000,80.000000,0.000000,0.000000,0.000000,1764345641.219977,0.000000
22.000000,23224.021283,25624.308064,14284.217570,20209.866191,26675.711772,-2021.268251,-9958.730335,17469.184693,24491.745173,21358.254118,4132.077590,-6600.358379,21957.482035,20164.559205,-690.870069,5192.869031,0.006000,-0.022000,1.012000,192.000000,0.000000,0.000000,0.000000,0.000000,0.000000,0.000000,0.000000,0.000000,0.000000,1764345641.227019,0.000000
24.000000,23226.457623,25624.688044,14291.951274,20213.911857,26679.377458,-2000.883460,-9948.761457,17473.565635,24612.399890,21364.534958,4119.650021,-6621.659591,21967.540320,20158.233661,-697.106206,5225.234357,0.006000,-0.022000,1.012000,192.000000,0.000000,0.000000,0.000000,0.000000,0.000000,0.000000,0.000000,0.000000,0.000000,1764345641.235098,0.000000
26.000000,23215.371158,25615.680291,14288.844381,20211.699034,26662.524243,-1999.184728,-9944.984012,17468.760010,24484.033821,21352.800292,4129.440085,-6602.638257,21952.654058,20168.403705,-687.897287,5186.699949,0.006000,-0.022000,1.012000,192.000000,0.000000,0.000000,0.000000,0.000000,0.000000,0.000000,0.000000,0.000000,0.000000,1764345641.244084,0.000000
28.000000,23211.213733,25612.796916,14278.026137,20202.378357,26683.892510,-2018.586042,-9967.603978,17461.898024,24560.677953,21351.973278,4114.665582,-6626.085237,21954.464549,20153.204519,-696.234488,5231.761066,0.006000,-0.022000,1.012000,192.000000,0.000000,0.000000,0.000000,0.000000,0.000000,0.000000,0.000000,0.000000,0.000000,1764345641.252125,0.000000
30.000000,23220.377948,25619.368329,14293.068861,20213.040139,26661.294897,-1997.441292,-9939.194910,17476.493713,24548.876232,21354.364914,4120.275869,-6614.842309,21955.604488,20159.373600,-684.455119,5207.621182,0.006000,-0.022000,1.012000,192.000000,0.000000,0.000000,127.500000,40.000000,15.500000,96.000000,0.000000,0.000000,0.000000,1764345641.259215,0.000000
32.000000,23216.131117,25618.384852,14280.194256,20204.255903,26677.477560,-2010.986449,-9961.658414,17467.821237,24481.753943,21351.235670,4124.165073,-6605.476928,21946.149700,20161.675830,-681.527040,5198.680484,0.006000,-0.022000,1.012000,192.000000,0.000000,0.000000,0.000000,0.000000,0.000000,0.000000,0.000000,0.000000,0.000000,1764345641.267235,0.000000
34.000000,23227.575210,25628.286675,14293.158268,20210.246171,26686.150037,-1991.652190,-9949.677879,17478.438315,24599.860561,21359.215243,4114.509119,-6624.274745,21957.996125,20152.668077,-688.321971,5227.983621,0.006000,-0.022000,1.012000,192.000000,0.000000,0.000000,0.000000,0.000000,0.000000,0.000000,0.000000,0.000000,0.000000,1764345641.276210,0.000000
36.000000,23232.403187,25635.863916,14295.259332,20218.471613,26669.162711,-1991.495727,-9940.737181,17483.310995,24488.258301,21362.947984,4138.447838,-6591.775309,21959.404285,20172.181150,-682.599924,5184.420071,0.006000,-0.022000,1.012000,192.000000,0.000000,0.000000,0.000000,0.000000,0.000000,0.000000,0.000000,0.000000,0.000000,1764345641.283220,0.000000
38.000000,23230.391530,25636.668579,14283.256445,20211.922552,26692.855560,-2005.264402,-9962.217207,17475.823161,24570.847997,21371.709868,4126.735524,-6609.500242,21965.506311,20162.547548,-688.925468,5231.850473,0.006000,-0.022000,1.012000,192.000000,0.000000,0.000000,0.000000,0.000000,0.000000,0.000000,0.000000,0.000000,0.000000,1764345641.291323,0.000000
40.000000,23231.598524,25635.059254,14298.366225,20222.785499,26668.782731,-1990.333437,-9933.539919,17487.826048,24562.801369,21370.882853,4131.518797,-6600.201917,21970.781323,20173.164627,-690.847718,5208.783473,0.004000,-0.022000,1.012000,192.000000,0.000000,16.000000,127.500000,40.000000,15.500000,80.000000,0.000000,0.000000,0.000000,1764345641.300309,0.000000
42.000000,23223.596600,25626.967922,14283.502315,20210.067357,26678.438685,-2010.360600,-9958.953853,17474.347946,24497.780144,21363.015039,4136.659698,-6597.005617,21962.712343,20169.945976,-694.245183,5199.932182,0.004000,-0.022000,1.012000,192.000000,0.000000,0.000000,0.000000,0.000000,0.000000,0.000000,0.000000,0.000000,0.000000,1764345641.308381,0.000000
44.000000,23231.375007,25627.616123,14296.153402,20212.838973,26678.952775,-2006.806672,-9947.219187,17482.394574,24613.942160,21363.819702,4123.941555,-6621.681943,21974.290547,20157.406647,-701.263631,5228.520063,0.004000,-0.022000,1.012000,192.000000,0.000000,0.000000,0.000000,0.000000,0.000000,0.000000,0.000000,0.000000,0.000000,1764345641.315404,0.000000
46.000000,23230.302123,25623.615160,14296.376919,20210.179116,26655.416388,-2010.941745,-9942.234748,17479.332385,24499.389470,21356.085999,4143.633442,-6597.363245,21969.619032,20169.029554,-701.084817,5176.954589,0.004000,-0.022000,1.012000,192.000000,0.000000,0.000000,0.000000,0.000000,0.000000,0.000000,0.000000,0.000000,0.000000,1764345641.323805,0.000000
48.000000,23217.785146,25611.321701,14285.715137,20197.930360,26684.250138,-2027.102056,-9965.301748,17465.474303,24571.786770,21346.519452,4123.740390,-6628.275708,21965.171035,20145.046132,-696.547412,5223.513272,0.004000,-0.022000,1.012000,192.000000,0.000000,0.000000,0.000000,0.000000,0.000000,0.000000,0.000000,0.000000,0.000000,1764345641.331389,0.000000
50.000000,23229.340998,25621.447041,14305.272914,20214.113023,26673.096618,-1990.333437,-9936.467998,17480.740545,24551.849014,21343.189042,4125.595585,-6621.391370,21963.561709,20153.092760,-685.148023,5203.441406,0.008000,-0.018000,1.014000,192.000000,0.000000,32.000000,127.500000,56.000000,15.500000,88.000000,0.000000,0.000000,0.000000,1764345641.339436,0.000000
52.000000,23228.715149,25628.152565,14286.430393,20206.915761,26695.694231,-2001.464606,-9962.284262,17470.346984,24500.305891,21354.588432,4137.799637,-6605.499280,21965.483959,20163.151045,-679.515383,5200.870955,0.008000,-0.018000,1.014000,192.000000,0.000000,0.000000,0.000000,0.000000,0.000000,0.000000,0.000000,0.000000,0.000000,1764345641.347494,0.000000
54.000000,23245.255440,25641.787129,14294.588780,20214.403595,26704.947854,-1985.594867,-9951.354259,17479.533551,24609.494163,21358.432932,4118.823006,-6627.269879,21973.217663,20155.573804,-680.990598,5243.875711,0.008000,-0.018000,1.014000,192.000000,0.000000,0.000000,0.000000,0.000000,0.000000,0.000000,0.000000,0.000000,0.000000,1764345641.355561,0.000000
56.000000,23247.848242,25647.218603,14293.024158,20217.666950,26688.206397,-1979.716358,-9944.492274,17484.450934,24506.474973,21369.295880,4144.795733,-6591.864716,21981.867788,20180.406592,-670.574685,5193.584286,0.008000,-0.018000,1.014000,192.000000,0.000000,0.000000,0.000000,0.000000,0.000000,0.000000,0.000000,0.000000,0.000000,1764345641.364608,0.000000
58.000000,23238.996951,25643.284696,14281.647120,20212.593104,26710.759307,-1992.322742,-9964.117105,17478.862998,24578.134665,21373.162731,4129.238919,-6612.294210,21977.620957,20167.330821,-679.068348,5238.533645,0.008000,-0.018000,1.014000,192.000000,0.000000,0.000000,0.000000,0.000000,0.000000,0.000000,0.000000,0.000000,0.000000,1764345641.371603,0.000000
60.000000,23245.389550,25653.186518,14302.613056,20229.200450,26692.900263,-1964.383061,-9933.361105,17493.749260,24568.054029,21380.248234,4135.229186,-6595.329236,21980.772553,20184.742830,-679.738901,5212.560917,0.006000,-0.016000,1.012000,192.000000,0.000000,24.000000,127.500000,64.000000,15.500000,80.000000,0.000000,0.000000,0.000000,1764345641.380645,0.000000
62.000000,23236.046521,25644.089358,14290.744280,20218.292799,26704.880798,-1990.154623,-9958.260948,17480.137048,24509.067775,21379.935310,4141.867655,-6586.902629,21977.643308,20193.661176,-675.022683,5209.811653,0.006000,-0.016000,1.012000,192.000000,0.000000,0.000000,0.000000,0.000000,0.000000,0.000000,0.000000,0.000000,0.000000,1764345641.389585,0.000000
64.000000,23241.835623,25646.682161,14303.417719,20223.679569,26708.211208,-1976.318893,-9946.347469,17486.104964,24629.051939,21384.249197,4130.289451,-6607.376827,21989.579140,20180.853627,-681.057654,5243.428677,0.006000,-0.016000,1.012000,192.000000,0.000000,0.000000,0.000000,0.000000,0.000000,0.000000,0.000000,0.000000,0.000000,1764345641.395644,0.000000
66.000000,23246.305972,25651.823062,14306.502260,20226.674703,26688.608728,-1974.039015,-9935.529224,17492.855190,24513.739289,21384.852694,4151.791829,-6578.297207,21983.655928,20197.885656,-678.643665,5197.607600,0.006000,-0.016000,1.012000,192.000000,0.000000,0.000000,0.000000,0.000000,0.000000,0.000000,0.000000,0.000000,0.000000,1764345641.403661,0.000000
68.000000,23238.929896,25641.608315,14295.751070,20217.041101,26704.031432,-1998.268306,-9957.702155,17484.562693,24590.517532,21381.656394,4141.040640,-6598.793757,21982.605396,20179.490170,-689.573668,5232.632784,0.006000,-0.016000,1.012000,192.000000,0.000000,0.000000,0.000000,0.000000,0.000000,0.000000,0.000000,0.000000,0.000000,1764345641.411738,0.000000
70.000000,23240.650981,25640.803652,14309.787966,20225.400654,26677.946946,-2000.972867,-9932.109407,17492.765783,24576.346526,21377.342508,4143.611091,-6594.546925,21982.158361,20178.841970,-689.596020,5202.949667,0.010000,-0.020000,1.008000,192.000000,0.000000,40.000000,127.500000,48.000000,15.500000,64.000000,0.000000,0.000000,0.000000,1764345641.419835,0.000000
72.000000,23233.744292,25635.461585,14292.085384,20213.576581,26693.526112,-2015.210928,-9959.132666,17478.952405,24509.313644,21364.713772,4144.505160,-6593.898725,21973.061201,20172.471723,-686.690293,5199.328685,0.010000,-0.020000,1.008000,192.000000,0.000000,0.000000,0.000000,0.000000,0.000000,0.000000,0.000000,0.000000,0.000000,1764345641.426876,0.000000
74.000000,23241.477995,25640.602486,14299.662626,20219.052758,26700.410450,-2001.978696,-9947.442704,17489.994167,24618.703081,21372.313365,4129.618899,-6613.054170,21982.091306,20165.676792,-690.691255,5232.901005,0.010000,-0.020000,1.008000,192.000000,0.000000,0.000000,0.000000,0.000000,0.000000,0.000000,0.000000,0.000000,0.000000,1764345641.435892,0.000000
76.000000,23243.355542,25642.815309,14299.126184,20222.226706,26684.250138,-1987.293600,-9939.954870,17494.039833,24497.578978,21366.904243,4148.997861,-6583.415757,21975.162265,20182.909987,-680.409453,5181.514344,0.010000,-0.020000,1.008000,192.000000,0.000000,0.000000,0.000000,0.000000,0.000000,0.000000,0.000000,0.000000,0.000000,1764345641.443795,0.000000
78.000000,23249.278754,25648.067969,14290.878390,20215.096499,26712.323929,-2006.650210,-9960.853751,17488.027214,24581.643889,21371.151074,4137.978451,-6602.571202,21981.510160,20170.817694,-687.740825,5230.978755,0.010000,-0.020000,1.008000,192.000000,0.000000,0.000000,0.000000,0.000000,0.000000,0.000000,0.000000,0.000000,0.000000,1764345641.451880,0.000000
80.000000,23261.683972,25661.657829,14306.368149,20229.133395,26690.530979,-1985.080777,-9930.768303,17503.561676,24577.240595,21380.315290,4147.008556,-6586.388539,21985.466419,20183.066450,-679.738901,5202.010894,0.008000,-0.018000,1.009000,192.000000,0.000000,24.000000,127.500000,64.000000,15.500000,72.000000,0.000000,0.000000,0.000000,1764345641.460933,0.000000
82.000000,23254.039675,25656.248707,14286.922131,20219.298627,26696.923577,-1999.944687,-9955.690498,17489.547132,24504.887999,21378.370688,4149.266082,-6578.051338,21969.216701,20185.011051,-684.231601,5199.149871,0.008000,-0.018000,1.009000,192.000000,0.000000,0.000000,0.000000,0.000000,0.000000,0.000000,0.000000,0.000000,0.000000,1764345641.468940,0.000000
84.000000,23251.201004,25656.382818,14296.980416,20220.237401,26701.975072,-1991.540431,-9943.553501,17494.531571,24620.848849,21378.415391,4136.235015,-6602.370036,21975.072858,20167.464932,-687.629066,5232.409267,0.008000,-0.018000,1.009000,192.000000,0.000000,0.000000,0.000000,0.000000,0.000000,0.000000,0.000000,0.000000,0.000000,1764345641.477943,0.000000
86.000000,23240.069835,25646.480995,14293.024158,20219.879773,26679.399810,-2000.391722,-9940.066628,17487.848400,24493.220388,21367.954775,4145.868617,-6584.510992,21963.069971,20177.344403,-680.252991,5188.130461,0.008000,-0.018000,1.009000,192.000000,0.000000,0.000000,0.000000,0.000000,0.000000,0.000000,0.000000,0.000000,0.000000,1764345641.483935,0.000000
88.000000,23228.826908,25630.566553,14281.110678,20208.346273,26701.036298,-2020.709457,-9964.072402,17473.520931,24570.915052,21358.678801,4127.830759,-6612.629487,21964.232262,20159.217138,-689.014875,5232.968060,0.008000,-0.018000,1.009000,192.000000,0.000000,0.000000,0.000000,0.000000,0.000000,0.000000,0.000000,0.000000,0.000000,1764345641.492020,0.000000
90.000000,23243.668466,25639.663713,14301.093137,20220.349159,26685.188912,-1995.049655,-9934.925727,17488.071917,24562.309630,21356.577737,4131.295279,-6607.577992,21968.210872,20165.252109,-688.254915,5205.251897,0.011000,-0.019000,1.012500,192.000000,0.000000,56.000000,127.500000,48.000000,15.500000,96.000000,0.000000,0.000000,0.000000,1764345641.500023,0.000000
92.000000,23235.487728,25630.499498,14283.770535,20208.458031,26692.721449,-2017.602565,-9960.652585,17473.431524,24505.491496,21358.656449,4140.414791,-6599.017274,21968.188520,20167.956670,-686.556183,5194.858336,0.011000,-0.019000,1.012500,192.000000,0.000000,0.000000,0.000000,0.000000,0.000000,0.000000,0.000000,0.000000,0.000000,1764345641.507044,0.000000
94.000000,23237.901716,25632.712320,14294.834649,20213.822450,26691.648566,-2015.926184,-9947.710925,17480.092344,24616.065576,21357.561214,4124.232128,-6623.850062,21973.530587,20152.444560,-697.754407,5227.603641,0.011000,-0.019000,1.012500,192.000000,0.000000,0.000000,0.000000,0.000000,0.000000,0.000000,0.000000,0.000000,0.000000,1764345641.515042,0.000000
96.000000,23232.291428,25631.214754,14294.477021,20215.699996,26671.107313,-2011.791111,-9941.854768,17478.639481,24495.008528,21354.700190,4142.269986,-6595.016312,21965.819236,20170.236548,-683.181069,5176.105222,0.011000,-0.019000,1.012500,192.000000,0.000000,0.000000,0.000000,0.000000,0.000000,0.000000,0.000000,0.000000,0.000000,1764345641.524068,0.000000
98.000000,23230.279771,25630.186573,14284.374033,20207.206334,26698.599958,-2023.391667,-9964.720603,17470.145818,24572.099694,21354.677839,4125.595585,-6618.999734,21963.829930,20155.663211,-692.278229,5228.296546,0.011000,-0.019000,1.012500,192.000000,0.000000,0.000000,0.000000,0.000000,0.000000,0.000000,0.000000,0.000000,0.000000,1764345641.532589,0.000000
100.000000,23242.550879,25642.077701,14302.546001,20220.639732,26679.913900,-1986.913620,-9935.439817,17486.864923,24565.729447,21362.344487,4135.139779,-6605.700446,21973.083552,20165.028592,-685.595058,5205.050731,0.010500,-0.020500,1.014250,192.000000,0.000000,40.000000,127.500000,40.000000,15.500000,96.000000,0.000000,0.000000,0.000000,1764345641.540260,0.000000
102.000000,23234.794824,25633.606390,14286.676262,20211.676682,26694.822513,-2004.482091,-9960.384364,17475.353774,24505.737365,21356.801254,4141.934710,-6598.503184,21974.022326,20169.789513,-682.264648,5200.379217,0.010500,-0.020500,1.014250,192.000000,0.000000,0.000000,0.000000,0.000000,0.000000,0.000000,0.000000,0.000000,0.000000,1764345641.547185,0.000000
104.000000,23238.259344,25638.255553,14294.678187,20218.829241,26698.465848,-1994.915544,-9948.962623,17480.897007,24617.361977,21364.333792,4126.869634,-6618.977382,21983.991204,20162.636955,-686.019741,5233.884482,0.010500,-0.020500,1.014250,192.000000,0.000000,0.000000,0.000000,0.000000,0.000000,0.000000,0.000000,0.000000,0.000000,1764345641.556187,0.000000
106.000000,23238.058178,25639.753120,14294.655835,20220.326808,26681.366763,-2001.755178,-9942.905300,17481.634615,24492.594539,21358.187063,4139.923053,-6591.529440,21973.888215,20175.444505,-678.822479,5189.292751,0.010500,-0.020500,1.014250,192.000000,0.000000,0.000000,0.000000,0.000000,0.000000,0.000000,0.000000,0.000000,0.000000,1764345641.563240,0.000000
108.000000,23236.202983,25640.848355,14284.932826,20212.101366,26708.814705,-2010.315896,-9964.832361,17473.140952,24573.954889,21361.495121,4125.103846,-6614.730551,21973.687050,20166.615566,-685.036264,5231.112865,0.010500,-0.020500,1.014250,192.000000,0.000000,0.000000,0.000000,0.000000,0.000000,0.000000,0.000000,0.000000,0.000000,1764345641.571250,0.000000
110.000000,23243.132024,25647.978562,14299.997902,20222.986665,26683.266662,-1989.796995,-9935.529224,17485.948501,24568.143435,21374.101505,4132.479922,-6600.805414,21978.827951,20175.243339,-683.561049,5209.185804,0.010250,-0.023250,1.014125,192.000000,0.000000,40.000000,127.500000,24.000000,15.500000,88.000000,0.000000,0.000000,0.000000,1764345641.579308,0.000000
112.000000,23224.937704,25634.612219,14283.144687,20210.961427,26690.039240,-2011.902870,-9959.467943,17473.029193,24501.334071,21360.578699,4134.849207,-6596.491527,21965.349849,20170.795342,-688.701950,5205.162490,0.010250,-0.023250,1.014125,192.000000,0.000000,0.000000,0.000000,0.000000,0.000000,0.000000,0.000000,0.000000,0.000000,1764345641.588367,0.000000
114.000000,23226.234105,25635.394530,14291.973626,20213.017787,26683.959566,-2013.735713,-9947.733277,17479.935882,24607.057823,21362.523301,4119.404151,-6619.044437,21969.239052,20156.244356,-693.217003,5227.536586,0.010250,-0.023250,1.014125,192.000000,0.000000,0.000000,0.000000,0.000000,0.000000,0.000000,0.000000,0.000000,0.000000,1764345641.595352,0.000000
116.000000,23223.328379,25632.265286,14291.839515,20215.878810,26662.300725,-2011.969925,-9940.625422,17481.098173,24485.598443,21366.680725,4139.431314,-6590.054225,21963.785227,20173.298737,-688.187860,5175.032339,0.010250,-0.023250,1.014125,192.000000,0.000000,0.000000,0.000000,0.000000,0.000000,0.000000,0.000000,0.000000,0.000000,1764345641.603334,0.000000
118.000000,23216.488745,25621.827021,14285.715137,20202.914799,26689.972185,-2026.811484,-9961.971338,17471.822199,24558.442778,21350.922746,4121.393457,-6620.139673,21959.717209,20148.108321,-692.099415,5220.428731,0.010250,-0.023250,1.014125,192.000000,0.000000,0.000000,0.000000,0.000000,0.000000,0.000000,0.000000,0.000000,0.000000,1764345641.611398,0.000000
120.000000,23226.681140,25628.420785,14299.416757,20211.877848,26669.162711,-2013.288678,-9935.886852,17481.589911,24556.162900,21352.576775,4130.200044,-6610.371960,21968.568500,20156.758446,-688.836061,5192.578458,0.009125,-0.024625,1.011062,192.000000,0.000000,32.000000,127.500000,24.000000,15.500000,64.000000,0.000000,0.000000,0.000000,1764345641.619434,0.000000
122.000000,23219.036844,25619.278922,14281.781230,20204.769993,26679.869196,-2023.235205,-9961.099620,17466.368373,24493.309795,21340.484481,4130.110637,-6609.299077,21962.466474,20156.356115,-687.338494,5191.863202,0.009125,-0.024625,1.011062,192.000000,0.000000,0.000000,0.000000,0.000000,0.000000,0.000000,0.000000,0.000000,0.000000,1764345641.627483,0.000000
124.000000,23232.984332,25631.751195,14292.018329,20213.129546,26692.430877,-2003.163338,-9949.543768,17476.806638,24607.035471,21351.615650,4114.665582,-6627.649859,21972.234186,20154.009182,-690.177165,5231.179921,0.009125,-0.024625,1.011062,192.000000,0.000000,0.000000,0.000000,0.000000,0.000000,0.000000,0.000000,0.000000,0.000000,1764345641.637612,0.000000
126.000000,23235.800652,25637.607352,14292.465364,20216.415252,26678.505740,-1994.736730,-9943.352335,17479.533551,24497.042536,21359.304650,4136.659698,-6594.278704,21972.033021,20177.523217,-678.777776,5184.241257,0.009125,-0.024625,1.011062,192.000000,0.000000,0.000000,0.000000,0.000000,0.000000,0.000000,0.000000,0.000000,0.000000,1764345641.645525,0.000000
128.000000,23227.463451,25632.019416,14280.238960,20206.669892,26700.566912,-2025.068048,-9966.419335,17467.798885,24577.084133,21352.889699,4121.885195,-6618.999734,21970.446047,20159.507711,-683.158718,5231.068162,0.009125,-0.024625,1.011062,192.000000,0.000000,0.000000,0.000000,0.000000,0.000000,0.000000,0.000000,0.000000,0.000000,1764345641.651538,0.000000
130.000000,23237.544088,25642.681198,14298.165059,20220.684435,26683.266662,-1986.667751,-9935.640983,17485.389708,24562.734313,21358.835263,4126.802579,-6608.650876,21974.245843,20171.443542,-677.369616,5206.481243,0.008563,-0.024313,1.006531,192.000000,0.000000,32.000000,127.500000,32.000000,15.500000,40.000000,0.000000,0.000000,0.000000,1764345641.659580,0.000000
132.000000,23225.384739,25634.433405,14279.501352,20210.715557,26693.816685,-2007.097245,-9961.859579,17470.682260,24499.367118,21359.706981,4133.128122,-6597.922039,21968.546148,20178.573749,-677.682540,5204.044903,0.008563,-0.024313,1.006531,192.000000,0.000000,0.000000,0.000000,0.000000,0.000000,0.000000,0.000000,0.000000,0.000000,1764345641.667611,0.000000
134.000000,23227.217582,25638.859050,14289.112602,20218.203392,26698.778772,-1991.383969,-9949.566120,17477.700708,24611.125840,21364.423199,4116.498425,-6620.162025,21976.570425,20169.141313,-686.824404,5240.344136,0.008563,-0.024313,1.006531,192.000000,0.000000,0.000000,0.000000,0.000000,0.000000,0.000000,0.000000,0.000000,0.000000,1764345641.675671,0.000000
