Sample_index,EXG Channel 0,EXG Channel 1,EXG Channel 2,EXG Channel 3,EXG Channel 4,EXG Channel 5,EXG Channel 6,EXG Channel 7,EXG Channel 8,EXG Channel 9,EXG Channel 10,EXG Channel 11,EXG Channel 12,EXG Channel 13,EXG Channel 14,EXG Channel 15,Accel Channel 0,Accel Channel 1,Accel Channel 2,Not Used,Digital Channel 0 (D11),Digital Channel 1 (D12),Digital Channel 2 (D13),Digital Channel 3 (D17),Not Used.1,Digital Channel 4 (D18),Analog Channel 0,Analog Channel 1,Analog Channel 2,Timestamp,Marker Channel
90.0,14954.769904,8114.197327,4205.033684,5412.139644,4422.717324,4106.864823,-18508.563162,-20537.47571,-11338.659983,-1307.934679,3249.921292,19372.234568,7821.277716,15491.614102,8956.746335,-4522.406104,0.004,-0.012,1.01,192.0,0.0,0.0,0.0,0.0,0.0,0.0,0.0,0.0,0.0,1771320315.278511,101.0
92.0,15171.827694,8329.265813,4421.867957,5629.286841,4639.842169,4324.839035,-18292.555904,-20323.971847,-11707.150842,-1683.734558,2875.8872,18997.753441,7452.809209,15117.021217,8507.096291,-4899.502385,0.004,-0.012,1.01,192.0,0.0,0.0,0.0,0.0,0.0,0.0,0.0,0.0,0.0,1771320315.278569,0.0
94.0,15281.015966,8441.09159,4527.971688,5735.949366,4748.739868,4424.147835,-18184.351109,-20212.302531,-11187.986873,-1160.99431,3395.788776,19518.45968,7970.475611,15633.480624,8973.152515,-4384.987579,0.004,-0.01,1.01,192.0,0.0,16.0,127.5,96.0,15.5,72.0,0.0,0.0,0.0,1771320315.278614,0.0
96.0,14896.431851,8056.194551,4144.192236,5348.973614,4363.284035,4038.870816,-18568.667003,-20595.232617,-11616.15689,-1584.626923,2970.56919,19095.274102,7540.316289,15217.648771,8708.641971,-4813.559927,0.004,-0.01,1.01,192.0,0.0,0.0,0.0,0.0,0.0,0.0,0.0,0.0,0.0,1771320315.278655,0.0
98.0,15419.127395,8578.57717,4667.826553,5872.674986,4884.593771,4566.595503,-18045.233851,-20072.559425,-11408.598591,-1380.533145,3177.032253,19300.753689,7746.287614,15416.825165,8689.330064,-4600.793672,0.004,-0.01,1.01,192.0,0.0,0.0,0.0,0.0,0.0,0.0,0.0,0.0,0.0,1771320315.278696,0.0
100.0,14991.560875,8153.022308,4238.091914,5444.102638,4458.524818,4134.312765,-18474.07442,-20499.902427,-11292.861258,-1261.845381,3291.584944,19419.106176,7863.902493,15537.345771,8997.001826,-4486.017464,0.004,-0.01,1.01,192.0,0.0,0.0,0.0,0.0,0.0,0.0,0.0,0.0,0.0,1771320315.278725,0.0
102.0,15201.533163,8359.306557,4452.981586,5655.550141,4664.227922,4345.939081,-18261.665793,-20287.382041,-11662.223835,-1636.259453,2921.417704,19050.280041,7490.963637,15165.815075,8543.931966,-4861.280902,0.004,-0.01,1.01,192.0,0.0,0.0,0.0,0.0,0.0,0.0,0.0,0.0,0.0,1771320315.278741,0.0
104.0,15297.198629,8458.548302,4545.830732,5752.959043,4767.694148,4442.498617,-18166.827341,-20191.78363,-11180.655501,-1152.746517,3407.411683,19534.754102,7976.130602,15643.650668,8981.534419,-4383.780585,0.004,-0.01,1.01,192.0,0.0,0.0,127.5,96.0,15.5,88.0,0.0,0.0,0.0,1771320315.278757,0.0
106.0,14910.289933,8069.292673,4156.776268,5364.709242,4381.210134,4059.255607,-18555.837101,-20580.391059,-11603.237582,-1569.204219,2981.186268,19112.93198,7557.88476,15221.672085,8719.057884,-4798.070168,0.004,-0.01,1.01,192.0,0.0,0.0,0.0,0.0,0.0,0.0,0.0,0.0,0.0,1771320315.278772,0.0
108.0,15398.228514,8557.275958,4645.497161,5853.228969,4871.719166,4551.95511,-18067.473837,-20091.71487,-11397.109794,-1372.575924,3183.469556,19311.594285,7762.962015,15433.477215,8701.265896,-4593.618762,0.004,-0.01,1.01,192.0,0.0,0.0,0.0,0.0,0.0,0.0,0.0,0.0,0.0,1771320315.278788,0.0
110.0,14989.929198,8152.128238,4244.037478,5449.735278,4468.270179,4139.833646,-18468.397077,-20494.94034,-11300.013816,-1266.248675,3286.086415,19420.737853,7864.327176,15526.974562,8990.631579,-4493.058263,0.004,-0.01,1.01,192.0,0.0,0.0,0.0,0.0,0.0,0.0,0.0,0.0,0.0,1771320315.278804,0.0
112.0,15179.270825,8339.435856,4432.976774,5633.131341,4652.001518,4327.811817,-18282.944653,-20309.487916,-11695.326769,-1667.10486,2892.941581,19024.687293,7466.846104,15129.962877,8535.572414,-4889.265286,0.004,-0.01,1.01,192.0,0.0,0.0,0.0,0.0,0.0,0.0,0.0,0.0,0.0,1771320315.27882,0.0
114.0,15277.394983,8440.152817,4524.037781,5731.724886,4749.65629,4421.197405,-18188.374423,-20213.44247,-11203.70015,-1172.036072,3382.668302,19511.977674,7955.34348,15627.199784,8974.068937,-4395.470547,0.003,-0.009,1.008,192.0,0.0,8.0,127.5,96.0,15.5,56.0,0.0,0.0,0.0,1771320315.278836,0.0
116.0,14897.303569,8062.095411,4144.50516,5356.461448,4373.588189,4055.969901,-18566.32007,-20593.109202,-11621.498957,-1583.397577,2960.399146,19094.648253,7535.734181,15211.345579,8710.340704,-4812.107064,0.003,-0.009,1.008,192.0,0.0,0.0,0.0,0.0,0.0,0.0,0.0,0.0,0.0,1771320315.278851,0.0
118.0,15400.687206,8563.243874,4654.191989,5862.102611,4884.347902,4562.147506,-18060.276575,-20088.630329,-11381.642387,-1353.95692,3195.159518,19331.040303,7775.724861,15446.664744,8715.503957,-4573.926875,0.003,-0.009,1.008,192.0,0.0,0.0,0.0,0.0,0.0,0.0,0.0,0.0,0.0,1771320315.278867,0.0
120.0,14947.483235,8108.810557,4201.502109,5411.022056,4433.110885,4112.229241,-18512.720586,-20540.962582,-11346.706611,-1316.294231,3232.196359,19372.949823,7817.120292,15492.910503,8962.110753,-4534.029011,0.003,-0.009,1.008,192.0,0.0,0.0,0.0,0.0,0.0,0.0,0.0,0.0,0.0,1771320315.278883,0.0
122.0,15217.157032,8377.456174,4470.930036,5675.420842,4698.91783,4371.084794,-18247.450083,-20276.832018,-11660.61451,-1632.482008,2915.673305,19051.911718,7496.663332,15160.987098,8543.864911,-4850.037974,0.003,-0.009,1.008,192.0,0.0,0.0,0.0,0.0,0.0,0.0,0.0,0.0,0.0,1771320315.278899,0.0
124.0,15300.685501,8456.626052,4556.000776,5760.536285,4782.893334,4460.424717,-18161.373515,-20191.716575,-11161.745925,-1137.189703,3414.519538,19545.818215,7997.431814,15654.468912,9007.417739,-4352.57755,0.0055,-0.0085,1.008,192.0,0.0,32.0,127.5,96.0,15.5,64.0,0.0,0.0,0.0,1771320315.278915,0.0
126.0,14895.64954,8055.345184,4155.055184,5360.574169,4380.450175,4064.55297,-18560.419209,-20593.511533,-11595.593285,-1570.500621,2983.399091,19112.909628,7563.495048,15231.104521,8733.877091,-4785.709654,0.0055,-0.0085,1.008,192.0,0.0,0.0,0.0,0.0,0.0,0.0,0.0,0.0,0.0,1771320315.278957,0.0
128.0,15388.840781,8549.072868,4651.621539,5858.995719,4875.317797,4553.162104,-18063.271709,-20098.420393,-11413.493623,-1384.534107,3167.063375,19301.178372,7746.62289,15422.636619,8696.661436,-4594.557535,0.0055,-0.0085,1.008,192.0,0.0,0.0,0.0,0.0,0.0,0.0,0.0,0.0,0.0,1771320315.278973,0.0
130.0,14985.749422,8145.2439,4244.350403,5457.737202,4474.30515,4153.132934,-18467.391249,-20502.070546,-11316.487052,-1287.214611,3264.137002,19400.554228,7848.144513,15514.569344,8985.088347,-4495.718121,0.0055,-0.0085,1.008,192.0,0.0,0.0,0.0,0.0,0.0,0.0,0.0,0.0,0.0,1771320315.278989,0.0
132.0,15181.260131,8340.799313,4438.788228,5650.632757,4663.93735,4353.002233,-18274.294528,-20308.213867,-11664.235492,-1634.471313,2912.499358,19048.648363,7494.964599,15165.993889,8557.767696,-4844.539445,0.0055,-0.0085,1.008,192.0,0.0,0.0,0.0,0.0,0.0,0.0,0.0,0.0,0.0,1771320315.279005,0.0
134.0,15289.733146,8451.887483,4548.200017,5760.201008,4778.288874,4452.333385,-18161.105294,-20195.315205,-11179.157934,-1143.962281,3402.896631,19537.883346,7979.706881,15650.98204,8996.219515,-4358.567817,0.00575,-0.01025,1.007,192.0,0.0,24.0,127.5,80.0,15.5,56.0,0.0,0.0,0.0,1771320315.279021,0.0
136.0,14878.304586,8041.129475,4138.760762,5345.531445,4363.529904,4039.004927,-18573.986718,-20606.609655,-11630.037323,-1586.593877,2957.292254,19096.414041,7532.336716,15203.857744,8720.890727,-4809.737779,0.00575,-0.01025,1.007,192.0,0.0,0.0,0.0,0.0,0.0,0.0,0.0,0.0,0.0,1771320315.279037,0.0
138.0,15366.623147,8521.691981,4635.438876,5836.46516,4854.798896,4536.174778,-18082.091878,-20118.827536,-11439.578109,-1410.752703,3145.516294,19278.580758,7722.103026,15390.763031,8687.161945,-4618.987992,0.00575,-0.01025,1.007,192.0,0.0,0.0,0.0,0.0,0.0,0.0,0.0,0.0,0.0,1771320315.279052,0.0
140.0,14967.197474,8125.50731,4230.000583,5431.987993,4455.59674,4132.099942,-18486.814915,-20517.649712,-11318.744578,-1290.969705,3266.059252,19397.693205,7843.204778,15508.869649,8988.396405,-4501.954258,0.00575,-0.01025,1.007,192.0,0.0,0.0,0.0,0.0,0.0,0.0,0.0,0.0,0.0,1771320315.279068,0.0
142.0,15153.007526,8312.300839,4413.217832,5615.674629,4638.05403,4325.241366,-18305.564619,-20336.31001,-11700.959408,-1670.368215,2880.826936,19012.170316,7461.459334,15136.690752,8529.582146,-4887.27598,0.00575,-0.01025,1.007,192.0,0.0,0.0,0.0,0.0,0.0,0.0,0.0,0.0,0.0,1771320315.279084,0.0
144.0,15307.100452,8465.94673,4564.717956,5771.086308,4792.281066,4476.696786,-18150.935251,-20184.184037,-11204.661275,-1172.192534,3378.086195,19508.893133,7955.052907,15624.383464,8969.24096,-4387.535678,0.007875,-0.008125,1.0015,192.0,0.0,40.0,127.5,104.0,15.5,16.0,0.0,0.0,0.0,1771320315.279099,0.0
146.0,14916.816642,8078.747461,4184.291266,5388.804422,4409.261573,4090.369235,-18530.333761,-20568.410524,-11572.012195,-1539.141123,3009.841205,19144.246774,7589.780699,15255.132646,8769.505771,-4753.903121,0.007875,-0.008125,1.0015,192.0,0.0,0.0,0.0,0.0,0.0,0.0,0.0,0.0,0.0,1771320315.279115,0.0
148.0,15438.349895,8597.553801,4710.384275,5906.023789,4931.21951,4603.788805,-18009.828688,-20048.128968,-11384.145782,-1351.833505,3198.936963,19332.850794,7780.396376,15449.637526,8742.415457,-4561.007567,0.007875,-0.008125,1.0015,192.0,0.0,0.0,0.0,0.0,0.0,0.0,0.0,0.0,0.0,1771320315.279131,0.0
150.0,15041.829949,8200.631523,4312.545575,5510.397912,4535.258357,4211.761559,-18405.65573,-20442.056113,-11246.101409,-1217.566576,3335.550825,19469.330546,7919.334819,15577.780077,9060.883112,-4434.228472,0.007875,-0.008125,1.0015,192.0,0.0,0.0,0.0,0.0,0.0,0.0,0.0,0.0,0.0,1771320315.279146,0.0
152.0,15225.695399,8389.123784,4490.331351,5693.838679,4709.713722,4398.264515,-18225.701836,-20256.961317,-11626.773969,-1594.349932,2956.73346,19092.882465,7533.700172,15208.93159,8608.774377,-4804.976857,0.007875,-0.008125,1.0015,192.0,0.0,0.0,0.0,0.0,0.0,0.0,0.0,0.0,0.0,1771320315.279162,0.0
154.0,15296.013987,8460.135276,4554.547912,5765.163096,4774.578485,4462.168153,-18156.165559,-20187.000357,-11146.256166,-1106.813682,3439.844065,19579.368184,8012.273373,15689.203523,9032.362286,-4321.218052,0.007938,-0.007063,1.00175,192.0,0.0,32.0,127.5,104.0,15.5,40.0,0.0,0.0,0.0,1771320315.279177,0.0
156.0,14877.723441,8039.587204,4141.711192,5342.826884,4357.696099,4044.771677,-18572.332689,-20606.989635,-11621.92364,-1584.761034,2962.924893,19102.963102,7535.130684,15211.300875,8721.918907,-4800.819433,0.007938,-0.007063,1.00175,192.0,0.0,0.0,0.0,0.0,0.0,0.0,0.0,0.0,0.0,1771320315.279193,0.0
158.0,15397.826183,8558.751173,4673.973283,5869.0093,4886.896001,4575.02211,-18045.792645,-20085.031698,-11425.876489,-1397.38636,3157.072146,19291.92475,7733.81534,15406.923343,8690.022968,-4602.090073,0.007938,-0.007063,1.00175,192.0,0.0,0.0,0.0,0.0,0.0,0.0,0.0,0.0,0.0,1771320315.279209,0.0
160.0,14986.375271,8149.378973,4259.840162,5454.339737,4479.356644,4158.810277,-18458.763475,-20495.387375,-11292.570685,-1259.811373,3294.22245,19433.724217,7876.397118,15540.922051,9014.21267,-4467.890199,0.007938,-0.007063,1.00175,192.0,0.0,0.0,0.0,0.0,0.0,0.0,0.0,0.0,0.0,1771320315.279224,0.0
162.0,15193.531238,8354.389173,4466.280874,5660.266359,4687.049054,4369.073137,-18254.513234,-20290.243064,-11688.218914,-1657.985348,2899.647105,19037.092511,7477.709052,15139.082389,8550.235158,-4861.124439,0.007938,-0.007063,1.00175,192.0,0.0,0.0,0.0,0.0,0.0,0.0,0.0,0.0,0.0,1771320315.27924,0.0
164.0,15268.029603,8432.128541,4534.27488,5736.798732,4765.235456,4441.962176,-18182.205341,-20217.041101,-11170.619568,-1140.721278,3411.971439,19547.896927,7993.363797,15658.067543,9012.625696,-4347.034317,0.007938,-0.007063,1.00175,192.0,0.0,0.0,0.0,0.0,0.0,0.0,0.0,0.0,0.0,1771320315.279256,0.0
166.0,14878.103421,8039.810722,4144.907492,5350.359422,4370.816573,4053.622967,-18567.974099,-20605.849696,-11624.315277,-1589.253734,2962.12023,19099.453878,7544.764286,15216.195907,8720.689561,-4791.990494,0.008,-0.012,1.006,192.0,0.0,32.0,127.5,80.0,15.5,56.0,0.0,0.0,0.0,1771320315.279272,0.0
168.0,15357.257766,8517.378094,4621.446684,5821.377733,4842.974823,4520.930889,-18092.686605,-20129.310504,-11457.370097,-1430.533997,3129.758314,19260.341735,7704.489852,15375.094458,8667.537113,-4629.515663,0.008,-0.012,1.006,192.0,0.0,0.0,0.0,0.0,0.0,0.0,0.0,0.0,0.0,1771320315.279287,0.0
170.0,15018.114748,8176.804564,4285.522316,5480.312464,4506.156386,4176.334044,-18432.321362,-20465.614851,-11302.092529,-1277.402196,3285.952304,19414.434661,7863.298996,15534.440045,8986.16123,-4483.581124,0.008,-0.012,1.006,192.0,0.0,0.0,0.0,0.0,0.0,0.0,0.0,0.0,0.0,1771320315.279303,0.0
172.0,15243.710905,8403.697122,4520.193281,5706.512118,4738.994508,4408.881594,-18205.786432,-20239.437549,-11628.740922,-1602.284801,2961.404975,19090.043794,7539.981012,15195.386433,8591.831755,-4810.385979,0.008,-0.012,1.006,192.0,0.0,0.0,0.0,0.0,0.0,0.0,0.0,0.0,0.0,1771320315.279319,0.0
174.0,15291.610693,8452.848608,4567.802497,5759.84338,4792.370473,4455.127353,-18154.64564,-20190.129601,-11142.322259,-1107.081903,3450.148219,19580.418716,8029.752437,15684.107326,9045.147484,-4321.285107,0.008,-0.012,1.006,192.0,0.0,0.0,0.0,0.0,0.0,0.0,0.0,0.0,0.0,1771320315.279335,0.0
176.0,14910.669912,8069.315025,4183.240734,5377.49444,4404.679466,4080.55682,-18534.178261,-20574.311384,-11612.401797,-1583.151708,2976.782975,19104.952407,7560.9693,15214.094843,8731.150178,-4791.319941,0.01,-0.01,1.008,192.0,0.0,40.0,127.5,88.0,15.5,64.0,0.0,0.0,0.0,1771320315.279351,0.0
178.0,15405.559886,8566.708394,4685.439728,5883.895562,4904.777396,4587.740253,-18030.459348,-20073.229977,-11389.689015,-1361.355348,3200.970972,19327.307561,7778.876457,15444.183701,8731.530158,-4555.15141,0.01,-0.01,1.008,192.0,0.0,0.0,0.0,0.0,0.0,0.0,0.0,0.0,0.0,1771320315.279366,0.0
180.0,14979.692099,8141.309993,4254.274577,5459.525342,4475.33333,4162.498315,-18458.294089,-20500.416517,-11298.717415,-1261.241884,3296.904659,19429.54444,7875.90538,15549.348658,9022.594574,-4455.864961,0.01,-0.01,1.008,192.0,0.0,0.0,0.0,0.0,0.0,0.0,0.0,0.0,0.0,1771320315.279381,0.0
182.0,15175.046346,8337.334792,4449.248844,5649.202245,4665.323158,4349.068326,-18268.639537,-20307.833887,-11701.071167,-1664.512058,2890.460538,19025.447252,7468.634244,15136.757807,8546.591824,-4865.170105,0.01,-0.01,1.008,192.0,0.0,0.0,0.0,0.0,0.0,0.0,0.0,0.0,0.0,1771320315.279397,0.0
184.0,15267.895492,8429.491035,4539.058154,5739.056258,4756.07124,4443.616205,-18180.886588,-20216.504659,-11191.78667,-1150.019604,3399.700332,19532.94361,7978.142259,15652.189034,8998.030007,-4358.500762,0.01,-0.01,1.008,192.0,0.0,0.0,0.0,0.0,0.0,0.0,0.0,0.0,0.0,1771320315.279413,0.0
186.0,14903.651464,8061.089583,4170.656701,5367.838486,4384.182916,4068.486877,-18550.025648,-20582.872103,-11610.278381,-1575.730929,2978.928742,19108.908666,7559.56114,15223.326114,8728.780893,-4785.01675,0.002,-0.014,1.01,192.0,0.0,8.0,127.5,72.0,15.5,72.0,0.0,0.0,0.0,1771320315.279429,0.0
188.0,15381.710575,8539.282803,4652.225036,5855.151219,4863.829,4555.307872,-18062.310584,-20097.548675,-11423.820129,-1395.620572,3165.476402,19291.812991,7741.347878,15411.326636,8692.794584,-4599.787843,0.002,-0.014,1.01,192.0,0.0,0.0,0.0,0.0,0.0,0.0,0.0,0.0,0.0,1771320315.279445,0.0
190.0,14963.352974,8127.586022,4227.340725,5433.820836,4444.71144,4129.50714,-18482.52338,-20515.325131,-11329.071084,-1286.074672,3266.081603,19400.151896,7841.662507,15515.262248,8978.785155,-4495.405197,0.002,-0.014,1.01,192.0,0.0,0.0,0.0,0.0,0.0,0.0,0.0,0.0,0.0,1771320315.27946,0.0
192.0,15152.761656,8312.546708,4421.242108,5622.089579,4642.613786,4318.535843,-18294.500505,-20329.425672,-11706.927324,-1667.171915,2884.134994,19018.607619,7462.286349,15133.963839,8526.318792,-4878.491745,0.002,-0.014,1.01,192.0,0.0,0.0,0.0,0.0,0.0,0.0,0.0,0.0,0.0,1771320315.279476,0.0
194.0,15255.937309,8422.249069,4531.413857,5731.881348,4756.8312,4424.684277,-18186.854504,-20222.91961,-11220.553365,-1181.647322,3367.849096,19505.786241,7951.789552,15624.227002,8965.865846,-4392.587172,0.002,-0.014,1.01,192.0,0.0,0.0,0.0,0.0,0.0,0.0,0.0,0.0,0.0,1771320315.279492,0.0
196.0,14885.099517,8048.326736,4163.839419,5360.216541,4389.882611,4051.879531,-18557.401724,-20595.433783,-11625.410512,-1582.369397,2965.584751,19103.477192,7549.279338,15224.846032,8726.098684,-4798.271334,-0.002,-0.01,1.002,192.0,127.5,120.0,127.5,88.0,15.5,40.0,0.0,0.0,0.0,1771320315.279507,0.0
198.0,15399.569619,8561.232217,4678.28717,5877.212391,4901.849318,4577.369044,-18043.870395,-20083.869408,-11415.281763,-1380.622552,3172.919532,19303.32414,7756.815285,15420.423796,8708.932544,-4585.169802,-0.002,-0.01,1.002,192.0,0.0,0.0,0.0,0.0,0.0,0.0,0.0,0.0,0.0,1771320315.279523,0.0
200.0,14978.619215,8141.3994,4263.550551,5464.330967,4488.297342,4162.922998,-18454.360182,-20496.192038,-11310.005046,-1271.680149,3283.918295,19414.54642,7868.082269,15539.200966,9009.787024,-4472.248789,-0.002,-0.01,1.002,192.0,0.0,0.0,0.0,0.0,0.0,0.0,0.0,0.0,0.0,1771320315.279539,0.0
202.0,15213.871326,8377.769098,4502.24483,5703.606391,4720.621374,4404.545355,-18215.576496,-20259.062381,-11668.862303,-1627.855197,2927.542082,19058.036096,7506.542803,15177.706203,8576.65492,-4828.84852,-0.002,-0.01,1.002,192.0,0.0,0.0,0.0,0.0,0.0,0.0,0.0,0.0,0.0,1771320315.279554,0.0
204.0,15316.219964,8478.3743,4603.252364,5803.988076,4827.552119,4503.630639,-18116.647675,-20159.597118,-11137.695448,-1094.073188,3457.859571,19589.426469,8039.631908,15707.576657,9055.630452,-4296.474671,-0.002,-0.01,1.002,192.0,0.0,0.0,0.0,0.0,0.0,0.0,0.0,0.0,0.0,1771320315.27957,0.0
206.0,14895.336615,8058.742649,4188.783966,5384.401129,4411.921431,4088.603448,-18534.513537,-20580.65928,-11582.025776,-1541.063373,3008.008362,19140.424626,7597.983789,15272.09762,8779.541705,-4748.38224,0.002,-0.008,1.008,192.0,0.0,8.0,127.5,96.0,15.5,64.0,0.0,0.0,0.0,1771320315.279586,0.0
208.0,15384.370432,8549.072868,4685.931466,5885.415481,4906.297315,4582.19702,-18034.594421,-20080.717812,-11422.635486,-1380.823717,3169.052681,19303.033567,7760.637434,15426.816395,8723.863509,-4579.090128,0.002,-0.008,1.008,192.0,0.0,0.0,0.0,0.0,0.0,0.0,0.0,0.0,0.0,1771320315.279602,0.0
210.0,14984.967111,8153.156418,4280.716691,5492.382406,4505.329371,4184.514783,-18429.303876,-20471.828636,-11296.057558,-1248.456687,3300.235069,19440.496795,7887.885915,15552.969641,9032.92108,-4448.980623,0.002,-0.008,1.008,192.0,0.0,0.0,0.0,0.0,0.0,0.0,0.0,0.0,0.0,1771320315.758863,0.0
212.0,15174.889883,8342.900377,4476.294455,5684.49565,4693.732225,4379.980788,-18237.995295,-20282.039974,-11661.285062,-1606.889261,2938.449733,19081.192503,7523.060742,15207.679893,8593.418729,-4807.144977,0.002,-0.008,1.008,192.0,0.0,0.0,0.0,0.0,0.0,0.0,0.0,0.0,0.0,1771320315.758921,0.0
214.0,15254.506797,8421.019724,4551.642186,5762.033851,4777.014825,4459.687109,-18163.340469,-20207.340444,-11210.450376,-1154.758174,3390.133785,19529.255572,7970.743831,15658.939261,8996.487736,-4360.221846,0.002,-0.008,1.008,192.0,0.0,0.0,0.0,0.0,0.0,0.0,0.0,0.0,0.0,1771320315.758959,0.0
216.0,14890.173363,8056.708641,4195.534193,5400.919068,4421.398571,4106.507195,-18520.96838,-20568.030544,-11607.372654,-1549.557036,2992.295085,19127.527669,7577.62135,15259.200663,8748.852759,-4758.999319,0.002,-0.01,1.002,192.0,0.0,8.0,127.5,88.0,15.5,40.0,0.0,0.0,0.0,1771320315.759006,0.0
218.0,15346.171301,8508.929134,4658.237655,5860.873265,4885.465489,4555.553741,-18061.729439,-20109.059824,-11414.968838,-1363.881095,3182.307265,19315.908172,7770.740422,15453.169102,8730.814902,-4570.127078,0.002,-0.01,1.002,192.0,0.0,0.0,0.0,0.0,0.0,0.0,0.0,0.0,0.0,1771320315.759065,0.0
220.0,14963.196512,8125.753179,4274.592313,5479.172525,4505.172909,4171.416661,-18443.631344,-20490.447639,-11336.96125,-1284.912382,3261.968882,19397.76026,7850.513798,15526.013437,8996.53244,-4486.196278,0.002,-0.01,1.002,192.0,0.0,0.0,0.0,0.0,0.0,0.0,0.0,0.0,0.0,1771320315.759105,0.0
222.0,15154.303927,8316.950001,4470.415946,5674.12444,4696.794414,4375.085756,-18248.858243,-20298.669672,-11669.890484,-1618.579223,2930.894843,19063.422866,7520.892623,15203.008378,8591.697644,-4816.599764,0.002,-0.01,1.002,192.0,0.0,0.0,0.0,0.0,0.0,0.0,0.0,0.0,0.0,1771320315.759125,0.0
224.0,15236.580698,8402.624238,4551.418668,5759.753973,4783.027444,4459.687109,-18165.597995,-20215.856459,-11222.40856,-1163.363595,3380.343721,19517.207982,7973.046061,15655.34063,8998.678207,-4360.087736,0.002,-0.01,1.002,192.0,0.0,0.0,0.0,0.0,0.0,0.0,0.0,0.0,0.0,1771320315.759136,0.0
226.0,14853.561205,8020.208242,4172.288379,5380.422518,4398.622143,4081.227372,-18544.303601,-20596.394908,-11628.763274,-1567.93017,2973.296103,19115.323617,7567.764231,15247.62246,8750.171512,-4763.402613,0.004,-0.006,1.004,192.0,0.0,16.0,127.5,104.0,15.5,48.0,0.0,0.0,0.0,1771320315.759148,0.0
228.0,15343.712609,8508.415044,4660.472829,5866.818829,4884.280847,4564.025052,-18056.856758,-20108.903361,-11438.818149,-1377.78388,3162.481268,19301.737166,7754.960091,15444.56368,8715.749826,-4575.759718,0.004,-0.006,1.004,192.0,0.0,0.0,0.0,0.0,0.0,0.0,0.0,0.0,0.0,1771320315.759159,0.0
230.0,14971.466657,8135.006801,4284.762357,5493.947028,4506.938697,4192.986094,-18428.946248,-20480.232892,-11331.462721,-1270.607265,3270.082566,19407.036234,7860.996766,15551.717943,9003.506184,-4477.300284,0.004,-0.006,1.004,192.0,0.0,0.0,0.0,0.0,0.0,0.0,0.0,0.0,0.0,1771320315.759171,0.0
232.0,15129.180566,8294.039463,4448.198312,5654.946644,4665.814896,4356.690271,-18267.343136,-20321.468451,-11680.105231,-1619.115665,2922.311774,19060.65125,7508.755625,15197.532201,8591.138851,-4818.633773,0.004,-0.006,1.004,192.0,0.0,0.0,0.0,0.0,0.0,0.0,0.0,0.0,0.0,1771320315.759182,0.0
234.0,15265.727373,8432.419113,4581.347654,5788.878296,4799.053645,4485.861002,-18133.277373,-20183.088801,-11200.235629,-1136.630909,3405.511785,19546.824044,7991.754471,15678.966424,9006.747187,-4336.43959,0.004,-0.006,1.004,192.0,0.0,0.0,0.0,0.0,0.0,0.0,0.0,0.0,0.0,1771320315.759194,0.0
236.0,14790.32812,7959.32209,4106.06016,5315.401294,4320.882776,4011.601688,-18606.150878,-20656.565804,-11670.73985,-1603.491795,2937.600367,19083.07005,7520.155015,15209.244515,8724.64582,-4806.653238,0.004,-0.006,1.004,192.0,0.0,0.0,127.5,112.0,15.5,40.0,0.0,0.0,0.0,1771320315.759205,0.0
238.0,15345.165473,8511.05255,4658.8188,5870.909199,4871.987387,4559.532351,-18051.894671,-20103.226018,-11474.335071,-1409.702171,3133.424,19275.898549,7714.481081,15405.962218,8668.051203,-4611.589564,0.004,-0.006,1.004,192.0,0.0,0.0,0.0,0.0,0.0,0.0,0.0,0.0,0.0,1771320315.759216,0.0
240.0,14935.055665,8100.182784,4242.204635,5455.569083,4463.28574,4144.236939,-18467.033621,-20515.772166,-11349.299413,-1279.816184,3259.018452,19402.767051,7841.349583,15532.026056,8990.206896,-4488.967894,0.004,-0.006,1.004,192.0,0.0,0.0,0.0,0.0,0.0,0.0,0.0,0.0,0.0,1771320315.759228,0.0
242.0,15141.451674,8304.991818,4451.640481,5658.724089,4673.906228,4353.136343,-18263.789208,-20310.650207,-11704.490984,-1642.428534,2899.244773,19040.512328,7483.609913,15166.440924,8551.442152,-4849.032146,0.004,-0.006,1.004,192.0,0.0,0.0,0.0,0.0,0.0,0.0,0.0,0.0,0.0,1771320315.759239,0.0
244.0,15234.6808,8400.322008,4553.452677,5757.205875,4782.133374,4458.480115,-18165.709754,-20214.448299,-11213.870193,-1147.963243,3393.061864,19534.262363,7981.137393,15667.276462,8998.745262,-4354.365689,0.004,-0.006,1.004,192.0,0.0,0.0,0.0,0.0,0.0,0.0,0.0,0.0,0.0,1771320315.75925,0.0
246.0,14880.048022,8045.9351,4190.527402,5395.398187,4422.314992,4093.073796,-18527.204517,-20576.077172,-11636.385219,-1571.104118,2966.992911,19108.171059,7558.421202,15241.051047,8742.147236,-4777.528915,0.004,-0.006,1.004,192.0,0.0,0.0,127.5,96.0,15.5,32.0,0.0,0.0,0.0,1771320315.759261,0.0
248.0,15386.449145,8553.297347,4694.246315,5903.140414,4925.96685,4604.74993,-18021.183374,-20069.273719,-11404.932905,-1343.272787,3196.657085,19334.795396,7786.252533,15469.463524,8742.683678,-4554.369098,0.004,-0.006,1.004,192.0,0.0,0.0,0.0,0.0,0.0,0.0,0.0,0.0,0.0,1771320315.759272,0.0
250.0,14963.218863,8127.787188,4270.32313,5483.128784,4506.446958,4187.666379,-18443.497234,-20492.906331,-11305.065311,-1237.236111,3299.542165,19439.513318,7889.562296,15569.264063,9031.557623,-4443.280929,0.004,-0.006,1.004,192.0,0.0,0.0,0.0,0.0,0.0,0.0,0.0,0.0,0.0,1771320315.759286,0.0
252.0,15156.628508,8316.726484,4470.281836,5674.236199,4697.12969,4379.600809,-18250.445217,-20301.46364,-11695.7291,-1630.58211,2908.185471,19044.37918,7497.311532,15181.461296,8573.123345,-4832.067172,0.004,-0.006,1.004,192.0,0.0,0.0,0.0,0.0,0.0,0.0,0.0,0.0,0.0,1771320315.759296,0.0
254.0,15268.811914,8433.693163,4580.095956,5785.190259,4806.876756,4481.927095,-18138.507681,-20186.754487,-11196.435833,-1131.802932,3408.685733,19543.158358,7998.415291,15676.485381,9016.201975,-4340.14998,0.004,-0.006,1.004,192.0,0.0,0.0,0.0,0.0,0.0,0.0,0.0,0.0,0.0,1771320315.759322,0.0
0.0,14881.210313,8044.795161,4179.977379,5386.21162,4399.203288,4080.959151,-18538.469796,-20582.179199,-11601.158869,-1537.755315,3001.504004,19137.474196,7588.50665,15264.587434,8766.488286,-4757.278235,0.001,-0.006,1.004,192.0,127.5,120.0,127.5,104.0,15.5,48.0,0.0,0.0,0.0,1771320315.759333,0.0
2.0,15383.789287,8551.330394,4689.373635,5900.793481,4899.971771,4591.227125,-18027.374807,-20074.436971,-11417.181661,-1355.633301,3182.955466,19321.831384,7765.443059,15448.475236,8718.968477,-4574.664482,0.001,-0.006,1.004,192.0,0.0,0.0,0.0,0.0,0.0,0.0,0.0,0.0,0.0,1771320315.759345,0.0
4.0,14971.868988,8141.824084,4273.27356,5487.085043,4488.543211,4180.580876,-18440.233879,-20486.133753,-11310.899116,-1235.984413,3292.076682,19438.395731,7879.705176,15573.801467,9017.520728,-4459.709461,0.001,-0.006,1.004,192.0,0.0,0.0,0.0,0.0,0.0,0.0,0.0,0.0,0.0,1771320315.759356,0.0
6.0,15134.321467,8300.677931,4438.05062,5641.401487,4649.140495,4337.758343,-18281.603549,-20325.491765,-11692.577504,-1622.826054,2909.459521,19050.101227,7492.125927,15184.858761,8568.898865,-4843.377154,0.001,-0.006,1.004,192.0,0.0,0.0,0.0,0.0,0.0,0.0,0.0,0.0,0.0,1771320315.759367,0.0
8.0,15254.529149,8421.667924,4558.727689,5763.307901,4774.176153,4464.425679,-18158.847768,-20202.110136,-11224.710789,-1160.770793,3381.058977,19516.135098,7964.44064,15641.102569,8975.834724,-4378.840849,0.001,-0.006,1.004,192.0,0.0,0.0,0.0,0.0,0.0,0.0,0.0,0.0,0.0,1771320315.759379,0.0
10.0,14832.818786,8000.292838,4137.509064,5343.095105,4360.467715,4044.570511,-18582.100401,-20627.262667,-11648.276347,-1580.625961,2957.605178,19098.090422,7545.680707,15215.100672,8728.35621,-4796.617305,-0.0005,-0.011,1.002,192.0,127.5,120.0,127.5,64.0,15.5,32.0,0.0,0.0,0.0,1771320315.75939,0.0
12.0,15370.557054,8537.31585,4675.47085,5882.263885,4904.464472,4585.39332,-18046.686714,-20093.838286,-11442.148559,-1379.080281,3154.56875,19294.4952,7750.556797,15421.384921,8688.972436,-4599.430215,-0.0005,-0.011,1.002,192.0,0.0,0.0,0.0,0.0,0.0,0.0,0.0,0.0,0.0,1771320315.759401,0.0
14.0,14961.63189,8129.2177,4265.763374,5474.411604,4499.853194,4180.983207,-18451.499158,-20498.78484,-11314.877726,-1251.943559,3282.264266,19425.498775,7884.220229,15556.523568,9012.737455,-4466.325577,-0.0005,-0.011,1.002,192.0,0.0,0.0,0.0,0.0,0.0,0.0,0.0,0.0,0.0,1771320315.759426,0.0
16.0,15185.462259,8349.6059,4491.404234,5690.061234,4714.787568,4392.43071,-18230.261592,-20275.535616,-11678.94294,-1618.132188,2919.249585,19060.628898,7513.695361,15184.858761,8572.43044,-4831.396619,-0.0005,-0.011,1.002,192.0,0.0,0.0,0.0,0.0,0.0,0.0,0.0,0.0,0.0,1771320315.759437,0.0
18.0,15313.716568,8482.509373,4617.42337,5821.377733,4848.071021,4519.075694,-18101.202619,-20145.716685,-11161.276539,-1098.498833,3441.408687,19582.072745,8030.579451,15703.12866,9040.2301,-4310.466863,-0.0005,-0.011,1.002,192.0,0.0,0.0,0.0,0.0,0.0,0.0,0.0,0.0,0.0,1771320315.759448,0.0
20.0,14883.199618,8052.506513,4180.200896,5387.709187,4408.83689,4082.590828,-18538.715665,-20579.541693,-11577.46602,-1508.854509,3025.15215,19170.308908,7618.480339,15297.936237,8795.187926,-4730.590252,-0.00125,-0.0155,1.003,192.0,127.5,120.0,127.5,48.0,15.5,48.0,0.0,0.0,0.0,1771320315.759459,0.0
22.0,15369.819447,8536.265318,4669.972321,5874.597236,4897.960114,4577.32434,-18053.705162,-20096.364033,-11430.74917,-1369.781955,3165.230532,19308.219172,7760.190399,15425.609401,8709.580744,-4588.947247,-0.00125,-0.0155,1.003,192.0,0.0,0.0,0.0,0.0,0.0,0.0,0.0,0.0,0.0,1771320315.759471,0.0
24.0,14933.468692,8099.780452,4234.336821,5437.128894,4461.005862,4140.101867,-18487.91015,-20532.088939,-11334.435503,-1274.831745,3261.052461,19403.191734,7862.695499,15528.181556,9000.242829,-4491.22542,-0.00125,-0.0155,1.003,192.0,0.0,0.0,0.0,0.0,0.0,0.0,0.0,0.0,0.0,1771320315.759482,0.0
26.0,15122.005656,8288.697396,4424.125484,5620.30144,4636.958794,4323.252061,-18300.870752,-20345.67539,-11720.919516,-1664.310892,2875.775442,19015.992465,7471.003529,15144.312697,8536.645298,-4879.654036,-0.00125,-0.0155,1.003,192.0,0.0,0.0,0.0,0.0,0.0,0.0,0.0,0.0,0.0,1771320315.759495,0.0
28.0,15279.160771,8452.49098,4575.02211,5780.429337,4786.55902,4475.959179,-18144.721466,-20187.04506,-11218.541708,-1157.663901,3378.197953,19517.766776,7968.463954,15643.270688,8967.922207,-4384.384082,-0.00125,-0.0155,1.003,192.0,0.0,0.0,0.0,0.0,0.0,0.0,0.0,0.0,0.0,1771320315.759506,0.0
30.0,14897.638845,8070.432612,4189.588629,5395.085263,4398.644495,4091.129195,-18530.467871,-20571.115085,-11599.638951,-1529.10519,2999.671161,19146.325486,7589.333664,15271.382364,8760.408611,-4757.233531,0.000375,-0.01375,1.0045,192.0,0.0,8.0,127.5,80.0,15.5,56.0,0.0,0.0,0.0,1771320315.759517,0.0
32.0,15359.783514,8526.67642,4656.561274,5854.972405,4866.980596,4550.949282,-18067.697354,-20110.0433,-11413.761844,-1354.001624,3180.407367,19321.205535,7773.91437,15440.003924,8721.136596,-4582.867573,0.000375,-0.01375,1.0045,192.0,0.0,0.0,0.0,0.0,0.0,0.0,0.0,0.0,0.0,1771320315.759529,0.0
34.0,14969.32089,8137.689011,4270.70311,5471.192953,4485.346912,4165.851076,-18451.00742,-20495.856761,-11328.624049,-1276.038739,3268.875571,19406.589199,7864.729508,15522.124233,8990.832745,-4495.405197,0.000375,-0.01375,1.0045,192.0,0.0,0.0,0.0,0.0,0.0,0.0,0.0,0.0,0.0,1771320315.759542,0.0
36.0,15175.672194,8347.102505,4474.372205,5678.795955,4687.026702,4373.610541,-18245.639592,-20291.3383,-11685.536705,-1627.318755,2913.795759,19055.01861,7503.234744,15175.515732,8566.082545,-4843.131285,0.000375,-0.01375,1.0045,192.0,0.0,0.0,0.0,0.0,0.0,0.0,0.0,0.0,0.0,1771320315.759555,0.0
38.0,15305.357016,8476.362643,4590.64598,5801.104701,4814.789273,4495.874583,-18128.672913,-20169.007202,-11160.158951,-1097.269487,3437.385373,19582.989166,8025.013867,15698.054814,9025.857928,-4315.920689,0.000375,-0.01375,1.0045,192.0,0.0,0.0,0.0,0.0,0.0,0.0,0.0,0.0,0.0,1771320315.759567,0.0
40.0,14924.237421,8094.460737,4208.118225,5416.609993,4440.978699,4123.986259,-18515.134575,-20552.116102,-11589.357148,-1523.025515,3003.336847,19149.521786,7599.101376,15273.997518,8764.163704,-4753.50079,0.002188,-0.010875,1.00825,192.0,0.0,16.0,127.5,96.0,15.5,80.0,0.0,0.0,0.0,1771320315.75958,0.0
42.0,15426.257602,8591.787051,4713.692333,5912.841071,4942.015403,4628.19691,-18012.265028,-20051.794654,-11378.535495,-1317.925908,3211.006905,19353.749675,7808.224298,15485.780297,8753.099591,-4545.473104,0.002188,-0.010875,1.00825,192.0,0.0,0.0,0.0,0.0,0.0,0.0,0.0,0.0,0.0,1771320315.759591,0.0
44.0,14981.927274,8152.061183,4275.776956,5478.658435,4505.642296,4183.218382,-18445.777112,-20488.681851,-11255.153865,-1200.087512,3335.126142,19476.550159,7933.885805,15607.776118,9059.251435,-4424.147835,0.002188,-0.010875,1.00825,192.0,0.0,0.0,0.0,0.0,0.0,0.0,0.0,0.0,0.0,1771320315.759602,0.0
46.0,15132.466272,8306.869365,4424.930146,5628.996268,4656.829495,4331.633965,-18299.596703,-20338.36637,-11727.37917,-1664.333244,2866.454764,19010.918619,7464.320357,15130.052284,8543.127303,-4887.857126,0.002188,-0.010875,1.00825,192.0,0.0,0.0,0.0,0.0,0.0,0.0,0.0,0.0,0.0,1771320315.759613,0.0
48.0,15306.921638,8481.70471,4590.623628,5798.757768,4828.356782,4502.021313,-18133.255021,-20168.068429,-11194.692396,-1129.567758,3396.459329,19543.538337,7998.638809,15672.842046,8991.860925,-4360.802991,0.002188,-0.010875,1.00825,192.0,0.0,0.0,0.0,0.0,0.0,0.0,0.0,0.0,0.0,1771320315.759624,0.0
50.0,14942.789369,8113.45972,4224.077371,5433.530263,4450.657004,4132.681088,-18496.426165,-20532.714788,-11556.32127,-1489.967285,3034.651641,19182.356499,7635.422961,15307.547487,8790.270542,-4721.537795,0.002188,-0.010875,1.00825,192.0,0.0,0.0,0.0,0.0,0.0,0.0,0.0,0.0,0.0,1771320315.759635,0.0
52.0,15413.785328,8578.867743,4701.264763,5908.21426,4911.058236,4602.581811,-18018.076482,-20059.126027,-11374.176904,-1317.165949,3220.03701,19362.936242,7809.163071,15479.745326,8753.166646,-4537.247662,0.004,-0.008,1.006,192.0,0.0,16.0,127.5,96.0,15.5,56.0,0.0,0.0,0.0,1771320315.759646,0.0
54.0,14997.349977,8168.333252,4288.763319,5497.702121,4495.226383,4190.482699,-18427.023998,-20469.593462,-11301.533735,-1241.102963,3301.330304,19445.30242,7884.644912,15560.725696,9021.924021,-4453.987414,0.004,-0.008,1.006,192.0,0.0,0.0,0.0,0.0,0.0,0.0,0.0,0.0,0.0,1771320315.759657,0.0
56.0,15187.831543,8358.479543,4474.662778,5684.048615,4677.258989,4383.98175,-18245.416074,-20286.644433,-11663.766106,-1595.825147,2937.868588,19085.037003,7520.914974,15208.238686,8581.080566,-4816.890337,0.004,-0.008,1.006,192.0,0.0,0.0,0.0,0.0,0.0,0.0,0.0,0.0,0.0,1771320315.759668,0.0
58.0,15290.783678,8459.822352,4571.982273,5783.044491,4787.408386,4482.12826,-18149.370629,-20186.15099,-11193.284237,-1133.456961,3401.957858,19547.315782,7988.178192,15667.656442,8995.191335,-4351.527018,0.004,-0.008,1.006,192.0,0.0,0.0,0.0,0.0,0.0,0.0,0.0,0.0,0.0,1771320315.759681,0.0
60.0,14906.713653,8077.115783,4189.409815,5396.538126,4410.133291,4095.063102,-18531.764273,-20568.0976,-11569.531151,-1506.462873,3028.013173,19173.438152,7614.635839,15296.930408,8778.222952,-4728.109208,0.004,-0.008,1.006,192.0,0.0,0.0,0.0,0.0,0.0,0.0,0.0,0.0,0.0,1771320315.759692,0.0
62.0,15373.485133,8540.422742,4655.890722,5857.676966,4876.189515,4551.709241,-18064.992793,-20099.91796,-11447.714144,-1389.138566,3152.892369,19294.204628,7734.687058,15408.130337,8694.985055,-4607.767416,0.004,-0.008,1.008,192.0,0.0,16.0,127.5,96.0,15.5,64.0,0.0,0.0,0.0,1771320315.759704,0.0
64.0,14998.713434,8168.467363,4273.362967,5479.932485,4499.204993,4178.502164,-18443.363123,-20476.455447,-11307.635761,-1242.73464,3296.390569,19440.832071,7876.084194,15555.00365,9003.215611,-4473.768708,0.004,-0.008,1.008,192.0,0.0,0.0,0.0,0.0,0.0,0.0,0.0,0.0,0.0,1771320315.759715,0.0
66.0,15169.570168,8338.0724,4439.771705,5648.531693,4666.127821,4360.065384,-18280.664775,-20312.281884,-11687.548362,-1623.004868,2909.370114,19056.650288,7490.606009,15175.336918,8556.873626,-4854.664785,0.004,-0.008,1.008,192.0,0.0,0.0,0.0,0.0,0.0,0.0,0.0,0.0,0.0,1771320315.759726,0.0
68.0,15287.430917,8459.509427,4561.722822,5770.438107,4791.141127,4476.406214,-18160.546501,-20190.442525,-11189.752661,-1128.360764,3405.355323,19552.54609,7990.770995,15672.37266,8985.691844,-4356.131477,0.004,-0.008,1.008,192.0,0.0,0.0,0.0,0.0,0.0,0.0,0.0,0.0,0.0,1771320315.759737,0.0
70.0,14880.852685,8049.421972,4155.01048,5359.747155,4377.387986,4054.047651,-18564.777799,-20598.607731,-11622.728303,-1556.620187,2975.330111,19124.644294,7558.711774,15240.805178,8734.078256,-4783.116851,0.004,-0.008,1.008,192.0,0.0,0.0,0.0,0.0,0.0,0.0,0.0,0.0,0.0,1771320315.759748,0.0
72.0,15458.175893,8625.448778,4736.33465,5942.479484,4946.128124,4636.735277,-17980.011461,-20017.39532,-11396.036911,-1339.182417,3203.094387,19345.09955,7781.335149,15455.247814,8713.916983,-4564.293273,0.002,-0.008,1.012,192.0,0.0,8.0,127.5,96.0,15.5,80.0,0.0,0.0,0.0,1771320315.75976,0.0
74.0,15063.041754,8233.175663,4336.216073,5546.026593,4549.943453,4239.880054,-18377.000794,-20409.623731,-11229.158786,-1160.770793,3376.946256,19524.271133,7951.700145,15638.55447,9074.227103,-4389.636742,0.002,-0.008,1.012,192.0,0.0,0.0,0.0,0.0,0.0,0.0,0.0,0.0,0.0,1771320316.239608,0.0
76.0,15182.243607,8349.672955,4452.579254,5659.014661,4663.758536,4356.466753,-18266.404362,-20295.719242,-11649.483341,-1590.930115,2949.647957,19094.000053,7527.329925,15209.915067,8592.92699,-4820.690134,0.002,-0.008,1.012,192.0,0.0,0.0,0.0,0.0,0.0,0.0,0.0,0.0,0.0,1771320316.239665,0.0
78.0,15303.390062,8472.987529,4571.669349,5783.223305,4782.491002,4472.762879,-18144.967335,-20174.125752,-11204.393054,-1145.839828,3394.335913,19541.101997,7972.174343,15655.251223,8970.827934,-4370.146021,0.002,-0.008,1.012,192.0,0.0,0.0,0.0,0.0,0.0,0.0,0.0,0.0,0.0,1771320316.239707,0.0
80.0,14928.864232,8097.522926,4198.015237,5407.043446,4403.58423,4092.850279,-18518.643799,-20549.925631,-11571.855732,-1508.675695,3029.89072,19176.276824,7607.952667,15289.353167,8761.727364,-4736.647575,0.002,-0.008,1.012,192.0,0.0,0.0,0.0,0.0,0.0,0.0,0.0,0.0,0.0,1771320316.239748,0.0
82.0,15421.049645,8587.67433,4694.782757,5897.932458,4895.076739,4585.818003,-18024.178508,-20056.2203,-11401.66955,-1343.339842,3198.825204,19340.986829,7773.959073,15449.793988,8713.089968,-4570.976445,-0.002,-0.014,1.008,192.0,127.5,120.0,127.5,72.0,15.5,64.0,0.0,0.0,0.0,1771320316.23979,0.0
84.0,15022.6298,8189.500354,4298.978066,5499.177337,4508.168043,4183.57601,-18421.301952,-20453.366095,-11274.018738,-1217.678334,3328.174749,19470.805761,7903.375674,15577.981243,9024.561527,-4444.286757,-0.002,-0.014,1.008,192.0,0.0,0.0,0.0,0.0,0.0,0.0,0.0,0.0,0.0,1771320316.239833,0.0
86.0,15222.499099,8386.687444,4499.383807,5696.789109,4708.417321,4383.512364,-18225.031284,-20256.424875,-11653.57371,-1601.077807,2945.445829,19088.523875,7525.005344,15193.464183,8580.298255,-4828.535596,-0.002,-0.014,1.008,192.0,0.0,0.0,0.0,0.0,0.0,0.0,0.0,0.0,0.0,1771320316.239862,0.0
88.0,15368.70186,8531.16912,4632.734315,5832.128922,4847.400468,4524.864796,-18090.585541,-20115.966513,-11133.783893,-1085.199545,3462.866361,19601.518762,8041.531806,15708.068396,9031.982306,-4314.289011,-0.002,-0.014,1.008,192.0,0.0,0.0,0.0,0.0,0.0,0.0,0.0,0.0,0.0,1771320316.239874,0.0
90.0,14939.123683,8104.541374,4206.084216,5405.67999,4421.107998,4095.17486,-18515.559258,-20542.795425,-11532.606069,-1480.66896,3064.424165,19204.037691,7638.954537,15324.333647,8801.155841,-4715.748693,-0.002,-0.014,1.008,192.0,0.0,0.0,0.0,0.0,0.0,0.0,0.0,0.0,0.0,1771320316.239895,0.0
92.0,15421.429625,8585.170935,4690.692388,5887.382434,4900.508213,4568.428346,-18032.247488,-20062.791713,-11405.156422,-1357.28733,3191.113852,19329.229811,7763.721974,15429.878584,8705.55743,-4593.305837,-0.002,-0.006,1.01,192.0,127.5,120.0,127.5,104.0,15.5,72.0,0.0,0.0,0.0,1771320316.239908,0.0
94.0,15018.517079,8185.20882,4286.461089,5487.375616,4499.897897,4173.003635,-18433.751873,-20465.033706,-11264.519246,-1212.090398,3331.326345,19475.052592,7908.96361,15574.22615,9026.148501,-4451.416964,-0.002,-0.006,1.01,192.0,0.0,0.0,0.0,0.0,0.0,0.0,0.0,0.0,0.0,1771320316.23992,0.0
96.0,15188.993834,8355.506761,4453.763897,5656.041879,4668.720623,4350.476486,-18268.460723,-20297.373271,-11682.183943,-1627.028182,2910.085369,19057.209081,7490.136622,15167.267939,8549.385792,-4860.87857,-0.002,-0.006,1.01,192.0,0.0,0.0,0.0,0.0,0.0,0.0,0.0,0.0,0.0,1771320316.239932,0.0
98.0,15350.194615,8518.22746,4601.66539,5815.074541,4823.998192,4506.715179,-18115.530087,-20136.82069,-11155.53214,-1097.224784,3437.005393,19584.240864,8013.614477,15694.858515,8998.924076,-4329.555253,-0.002,-0.006,1.01,192.0,0.0,0.0,0.0,0.0,0.0,0.0,0.0,0.0,0.0,1771320316.239945,0.0
100.0,14920.1247,8089.476298,4179.128013,5387.709187,4391.514288,4082.143793,-18539.475624,-20564.811893,-11560.076363,-1499.645591,3034.741048,19183.563493,7607.975019,15287.430917,8769.170495,-4732.62426,-0.002,-0.006,1.01,192.0,0.0,0.0,0.0,0.0,0.0,0.0,0.0,0.0,0.0,1771320316.239957,0.0
102.0,15407.929171,8579.98533,4672.609827,5876.94417,4875.965998,4564.673253,-18047.603136,-20077.812085,-11434.59367,-1375.146374,3162.436564,19308.152116,7732.518939,15413.025369,8680.255256,-4606.605125,-0.002,-0.008,1.016,192.0,127.5,120.0,127.5,96.0,15.5,96.0,0.0,0.0,0.0,1771320316.23997,0.0
104.0,15032.822196,8202.866698,4299.581563,5504.251183,4505.284668,4189.007484,-18417.613914,-20449.611002,-11262.418182,-1202.143872,3332.779209,19481.355784,7906.616677,15578.942368,9024.114492,-4440.241091,-0.002,-0.008,1.016,192.0,0.0,0.0,0.0,0.0,0.0,0.0,0.0,0.0,0.0,1771320316.239982,0.0
106.0,15193.330073,8356.289072,4466.482039,5666.770717,4676.789603,4363.574608,-18255.675525,-20286.152695,-11669.063469,-1618.243947,2928.480855,19074.129352,7501.357198,15178.935549,8570.329376,-4837.520997,-0.002,-0.008,1.016,192.0,0.0,0.0,0.0,0.0,0.0,0.0,0.0,0.0,0.0,1771320316.239994,0.0
108.0,15347.288888,8512.952448,4610.874308,5815.901556,4830.994288,4516.237022,-18111.551477,-20137.58065,-11160.673041,-1111.574604,3434.881977,19574.897835,8011.826338,15694.724404,9004.35555,-4333.422105,-0.002,-0.008,1.016,192.0,0.0,0.0,0.0,0.0,0.0,0.0,0.0,0.0,0.0,1771320316.240006,0.0
110.0,14953.920538,8117.43833,4223.250356,5422.957888,4437.313013,4110.821081,-18500.002444,-20531.105462,-11530.929688,-1480.534849,3060.534961,19200.751984,7635.512368,15314.051844,8795.36674,-4708.90906,-0.002,-0.008,1.016,192.0,0.0,0.0,0.0,0.0,0.0,0.0,0.0,0.0,0.0,1771320316.240018,0.0
112.0,15392.081784,8554.034955,4670.307597,5864.494248,4876.278922,4556.17959,-18053.347534,-20090.060841,-11405.692864,-1363.881095,3183.603666,19321.563163,7759.922178,15442.932003,8719.013181,-4588.477861,-0.002,-0.008,1.016,192.0,0.0,0.0,127.5,96.0,15.5,64.0,0.0,0.0,0.0,1771320316.24003,0.0
114.0,15052.625841,8214.534308,4331.499855,5526.245299,4540.265148,4223.272708,-18391.507076,-20427.303961,-11256.271452,-1215.376105,3332.868616,19473.756191,7912.852813,15581.490467,9025.790873,-4442.029231,-0.002,-0.008,1.016,192.0,0.0,0.0,0.0,0.0,0.0,0.0,0.0,0.0,0.0,1771320316.240043,0.0
116.0,15221.180346,8383.848773,4501.484871,5692.363464,4712.708856,4394.062387,-18228.026417,-20263.331564,-11621.901288,-1581.38592,2964.623626,19103.343082,7550.776905,15215.950038,8606.38274,-4804.351008,-0.002,-0.008,1.016,192.0,0.0,0.0,0.0,0.0,0.0,0.0,0.0,0.0,0.0,1771320316.240054,0.0
118.0,15306.273437,8473.747489,4576.094994,5777.121279,4797.556078,4486.062167,-18149.281222,-20179.803095,-11157.297928,-1113.429798,3428.824655,19568.013497,8017.816605,15687.482439,9013.206841,-4333.019773,-0.002,-0.008,1.016,192.0,0.0,0.0,0.0,0.0,0.0,0.0,0.0,0.0,0.0,1771320316.240067,0.0
120.0,14952.065343,8120.679333,4221.484568,5425.0366,4439.615242,4130.222396,-18499.287188,-20530.032579,-11564.926692,-1513.2131,3022.760513,19167.224368,7606.32099,15287.162696,8758.46401,-4738.547473,-0.002,-0.008,1.016,192.0,0.0,0.0,0.0,0.0,0.0,0.0,0.0,0.0,0.0,1771320316.240079,0.0
122.0,15457.326526,8626.789883,4731.819598,5931.080095,4943.490618,4627.883986,-17990.159153,-20024.57023,-11367.247864,-1315.690734,3223.076847,19365.506693,7802.815175,15480.237064,8739.845006,-4540.533369,0.001,-0.009,1.013,192.0,0.0,16.0,127.5,88.0,15.5,72.0,0.0,0.0,0.0,1771320316.240093,0.0
124.0,15040.265327,8206.465329,4316.032447,5514.287116,4531.45856,4210.174586,-18406.482745,-20442.570203,-11228.085903,-1174.897096,3364.786907,19505.65213,7943.586462,15624.897555,9065.934606,-4404.701818,0.001,-0.009,1.013,192.0,0.0,0.0,0.0,0.0,0.0,0.0,0.0,0.0,0.0,1771320316.240105,0.0
126.0,15176.610968,8340.88872,4458.658929,5657.159466,4672.453364,4361.853523,-18268.371316,-20304.972864,-11659.452219,-1614.086522,2931.900672,19069.010802,7509.895564,15188.926779,8579.650054,-4832.223634,0.001,-0.009,1.013,192.0,0.0,0.0,0.0,0.0,0.0,0.0,0.0,0.0,0.0,1771320316.240117,0.0
128.0,15321.651437,8490.667759,4599.810195,5804.189241,4823.484102,4505.686999,-18124.78371,-20158.077199,-11170.351347,-1123.085752,3420.196881,19559.944518,8009.054721,15684.487305,8999.751091,-4336.528997,0.001,-0.009,1.013,192.0,0.0,0.0,0.0,0.0,0.0,0.0,0.0,0.0,0.0,1771320316.240129,0.0
130.0,14929.490081,8100.763929,4212.119187,5417.884042,4435.435466,4117.571308,-18511.424185,-20544.181233,-11558.802314,-1503.579498,3030.673031,19178.40024,7621.743694,15302.674806,8782.626245,-4727.61747,0.001,-0.009,1.013,192.0,0.0,0.0,0.0,0.0,0.0,0.0,0.0,0.0,0.0,1771320316.24014,0.0
132.0,15453.392619,8624.465302,4742.302566,5944.915825,4962.668414,4639.193969,-17981.330214,-20017.14945,-11376.657948,-1318.216481,3215.186681,19359.248204,7801.362312,15486.562608,8738.816826,-4539.460485,-0.0005,-0.0075,1.0115,192.0,127.5,120.0,127.5,104.0,15.5,72.0,0.0,0.0,0.0,1771320316.240152,0.0
134.0,15021.266344,8187.488697,4316.524186,5518.064561,4534.14077,4214.980211,-18403.040576,-20446.459406,-11228.488234,-1174.003026,3365.435107,19502.455831,7952.571863,15635.134653,9078.138659,-4390.441405,-0.0005,-0.0075,1.0115,192.0,0.0,0.0,0.0,0.0,0.0,0.0,0.0,0.0,0.0,1771320316.240164,0.0
136.0,15165.636261,8328.662315,4472.606417,5666.189571,4682.310484,4359.998329,-18252.725095,-20298.446154,-11666.314204,-1621.48495,2926.379791,19059.62307,7517.025771,15193.732404,8589.037787,-4827.842692,-0.0005,-0.0075,1.0115,192.0,0.0,0.0,0.0,0.0,0.0,0.0,0.0,0.0,0.0,1771320316.240175,0.0
138.0,15331.441502,8493.394672,4639.46219,5830.139617,4855.603558,4524.507168,-18089.870285,-20132.640914,-11162.505884,-1120.872929,3429.27169,19561.866768,8026.399675,15686.789535,9019.442978,-4332.170407,-0.0005,-0.0075,1.0115,192.0,0.0,0.0,0.0,0.0,0.0,0.0,0.0,0.0,0.0,1771320316.240187,0.0
140.0,14942.252927,8102.797938,4241.511731,5434.156112,4464.895065,4146.2933,-18489.340662,-20524.802271,-11514.478804,-1474.544582,3073.990711,19206.362272,7674.516162,15340.158682,8829.631964,-4687.205516,-0.0005,-0.0075,1.0115,192.0,0.0,0.0,0.0,0.0,0.0,0.0,0.0,0.0,0.0,1771320316.240199,0.0
142.0,15412.310113,8575.067946,4706.897403,5905.420292,4928.492597,4615.746989,-18021.026912,-20056.019134,-11379.764841,-1340.791743,3208.682324,19337.812881,7808.134891,15473.665652,8744.874149,-4553.49738,0.00075,-0.00875,1.01175,192.0,0.0,8.0,127.5,88.0,15.5,80.0,0.0,0.0,0.0,1771320316.240211,0.0
144.0,15022.003951,8184.739433,4317.977049,5522.467854,4536.554758,4221.50692,-18403.912294,-20442.436092,-11244.603842,-1197.740578,3346.033793,19481.735764,7942.178302,15610.927714,9047.628528,-4411.161472,0.00075,-0.00875,1.01175,192.0,0.0,0.0,0.0,0.0,0.0,0.0,0.0,0.0,0.0,1771320316.240223,0.0
146.0,15167.200883,8330.159882,4470.706519,5671.17401,4685.372673,4372.649416,-18257.843644,-20300.43546,-11656.278271,-1612.454845,2933.420591,19069.010802,7525.497082,15207.746948,8583.539257,-4818.969049,0.00075,-0.00875,1.01175,192.0,0.0,0.0,0.0,0.0,0.0,0.0,0.0,0.0,0.0,1771320316.240236,0.0
148.0,15300.752556,8462.392803,4604.548765,5803.608096,4826.054552,4507.832767,-18125.990704,-20168.537816,-11168.406745,-1120.023563,3419.548681,19552.791959,8016.900184,15706.056739,9007.641257,-4330.091695,0.00075,-0.00875,1.01175,192.0,0.0,0.0,0.0,0.0,0.0,0.0,0.0,0.0,0.0,1771320316.240248,0.0
150.0,14890.821563,8054.384059,4194.483661,5390.391396,4417.911699,4098.751139,-18535.921697,-20575.250158,-11569.665261,-1521.773818,3019.251289,19153.120417,7620.737865,15285.687481,8783.006225,-4730.05381,0.00075,-0.00875,1.01175,192.0,0.0,0.0,0.0,0.0,0.0,0.0,0.0,0.0,0.0,1771320316.24026,0.0
152.0,15410.298456,8573.168048,4712.217118,5908.750702,4934.885196,4608.549727,-18015.908362,-20056.153245,-11410.722007,-1365.423365,3178.306303,19313.047148,7779.16703,15447.402352,8718.052056,-4568.048366,0.001375,-0.009375,1.006875,192.0,0.0,8.0,127.5,88.0,15.5,40.0,0.0,0.0,0.0,1771320316.240272,0.0
154.0,15050.837702,8212.947334,4348.017794,5549.871093,4575.044462,4245.915025,-18375.614986,-20416.061034,-11231.796292,-1188.397549,3358.997805,19494.63272,7957.39984,15618.259086,9067.655691,-4391.558992,0.001375,-0.009375,1.006875,192.0,0.0,0.0,0.0,0.0,0.0,0.0,0.0,0.0,0.0,1771320316.240286,0.0
156.0,15175.73925,8342.185121,4479.311941,5680.204115,4702.874089,4387.803899,-18248.522967,-20291.003024,-11636.675791,-1589.07492,2952.37487,19090.915512,7552.900321,15225.315419,8615.099921,-4793.35395,0.001375,-0.009375,1.006875,192.0,0.0,0.0,0.0,0.0,0.0,0.0,0.0,0.0,0.0,1771320316.240297,0.0
158.0,15340.158682,8506.761015,4636.444704,5837.470989,4860.275073,4549.407011,-18092.75366,-20133.534984,-11148.580748,-1093.112063,3439.39703,19581.156323,8041.285937,15721.524146,9026.64024,-4301.101482,0.001375,-0.009375,1.006875,192.0,0.0,0.0,0.0,0.0,0.0,0.0,0.0,0.0,0.0,1771320316.240309,0.0
160.0,14924.818566,8092.203211,4225.485531,5424.656621,4451.88635,4135.989146,-18502.148211,-20544.561213,-11533.209566,-1479.730186,3053.918845,19197.175705,7649.571615,15340.181034,8820.244231,-4688.725434,0.001375,-0.009375,1.006875,192.0,0.0,0.0,0.0,0.0,0.0,0.0,0.0,0.0,0.0,1771320316.240321,0.0
162.0,15426.23525,8593.30697,4729.852644,5922.765246,4955.337042,4626.565233,-17996.931731,-20042.205756,-11388.169096,-1339.025955,3199.562812,19339.556317,7801.563478,15466.736611,8748.405725,-4540.309851,0.002687,-0.010688,1.005437,192.0,0.0,16.0,127.5,80.0,15.5,48.0,0.0,0.0,0.0,1771320316.240333,0.0
164.0,14984.855352,8147.948462,4282.527182,5478.770194,4509.352685,4184.067748,-18440.837376,-20482.13279,-11255.667955,-1207.597698,3334.343831,19471.900996,7935.405724,15598.947179,9062.380679,-4419.878652,0.002687,-0.010688,1.005437,192.0,0.0,0.0,0.0,0.0,0.0,0.0,0.0,0.0,0.0,1771320316.240344,0.0
166.0,15171.626529,8335.725467,4467.219647,5665.02728,4688.9266,4377.231524,-18259.58708,-20294.869875,-11687.973045,-1647.681194,2900.675285,19036.131386,7496.305704,15172.051212,8559.846408,-4853.122515,0.002687,-0.010688,1.005437,192.0,0.0,0.0,0.0,0.0,0.0,0.0,0.0,0.0,0.0,1771320316.240356,0.0
168.0,15340.337496,8505.978704,4633.002535,5832.263032,4854.553027,4538.834636,-18094.564151,-20128.014103,-11141.718762,-1093.156766,3450.125867,19586.856018,8040.034239,15710.594143,9027.936641,-4309.617497,0.002687,-0.010688,1.005437,192.0,0.0,0.0,0.0,0.0,0.0,0.0,0.0,0.0,0.0,1771320316.240368,0.0
170.0,14943.817549,8112.476243,4241.176455,5443.074458,4454.546208,4145.287471,-18481.294034,-20522.477689,-11518.613877,-1467.034396,3072.090813,19212.956037,7663.407345,15345.120769,8823.082903,-4679.002426,0.002687,-0.010688,1.005437,192.0,0.0,0.0,0.0,0.0,0.0,0.0,0.0,0.0,0.0,1771320316.24038,0.0
172.0,15395.725119,8564.584978,4700.32599,5900.569964,4912.533452,4602.358294,-18022.010389,-20069.608995,-11398.830879,-1344.993871,3191.98557,19333.990733,7785.760794,15464.590843,8733.251242,-4553.832657,0.003344,-0.009344,1.001719,192.0,0.0,16.0,127.5,96.0,15.5,24.0,0.0,0.0,0.0,1771320316.240392,0.0
174.0,15024.55205,8193.769538,4327.811817,5531.877939,4545.763677,4235.72263,-18392.602312,-20438.524537,-11254.013926,-1198.075855,3339.037697,19484.060345,7933.930508,15614.749863,9051.338917,-4403.628934,0.003344,-0.009344,1.001719,192.0,0.0,0.0,0.0,0.0,0.0,0.0,0.0,0.0,0.0,1771320316.240404,0.0
176.0,15181.103668,8346.677821,4482.12826,5683.378063,4701.756501,4392.631876,-18242.465644,-20284.2975,-11661.240359,-1608.230365,2931.520692,19076.476285,7527.933422,15202.471936,8595.318627,-4811.794139,0.003344,-0.009344,1.001719,192.0,0.0,0.0,0.0,0.0,0.0,0.0,0.0,0.0,0.0,1771320316.240415,0.0
178.0,15363.628014,8531.392638,4658.595283,5862.326129,4885.644303,4575.78207,-18067.540892,-20106.57878,-11127.72657,-1072.928437,3465.079184,19607.866658,8064.062365,15737.08096,9046.37683,-4274.189982,0.003344,-0.009344,1.001719,192.0,0.0,0.0,0.0,0.0,0.0,0.0,0.0,0.0,0.0,1771320316.240428,0.0
180.0,14921.711674,8089.900981,4212.968554,5412.385513,4437.53653,4122.041657,-18514.508726,-20552.85371,-11543.848997,-1483.775852,3048.532075,19192.124211,7642.016726,15324.467757,8818.299629,-4694.268667,0.003344,-0.009344,1.001719,192.0,0.0,0.0,0.0,0.0,0.0,0.0,0.0,0.0,0.0,1771320316.24044,0.0
182.0,15427.308134,8592.994045,4720.755484,5916.998496,4947.580987,4625.380591,-18006.833554,-20048.240727,-11384.235189,-1333.885054,3204.971934,19346.217137,7800.334132,15477.376041,8740.78378,-4542.433267,0.003344,-0.009344,1.001719,192.0,0.0,0.0,0.0,0.0,0.0,0.0,0.0,0.0,0.0,1771320316.240459,0.0
184.0,15057.99026,8223.251489,4344.150942,5548.775858,4575.603256,4262.432964,-18376.844332,-20418.430319,-11237.965374,-1185.71534,3350.638253,19489.603578,7949.688488,15622.774139,9066.985138,-4395.112919,0.003344,-0.009344,1.001719,192.0,0.0,0.0,127.5,104.0,15.5,32.0,0.0,0.0,0.0,1771320316.240472,0.0
186.0,15174.554607,8340.307574,4468.314882,5668.849429,4693.195783,4388.161527,-18257.53072,-20300.748384,-11630.998448,-1577.273199,2957.672233,19098.515105,7553.928501,15238.637059,8621.671334,-4786.246095,0.003344,-0.009344,1.001719,192.0,0.0,0.0,0.0,0.0,0.0,0.0,0.0,0.0,0.0,1771320316.240486,0.0
188.0,15304.798222,8473.300454,4597.575021,5798.936581,4824.422875,4507.989229,-18127.801195,-20169.767162,-11184.209428,-1126.036182,3406.115282,19546.868747,8004.852594,15684.084974,8999.572277,-4339.501779,0.003344,-0.009344,1.001719,192.0,0.0,0.0,0.0,0.0,0.0,0.0,0.0,0.0,0.0,1771320316.240497,0.0
190.0,14866.122885,8036.949699,4164.465268,5365.268036,4389.815556,4075.930008,-18561.380334,-20607.861353,-11594.341587,-1533.016745,2999.492347,19140.22346,7599.637818,15272.030565,8771.91976,-4748.941034,0.003344,-0.009344,1.001719,192.0,0.0,0.0,0.0,0.0,0.0,0.0,0.0,0.0,0.0,1771320316.24051,0.0
192.0,15430.124453,8603.387607,4729.047981,5929.291955,4950.486714,4634.500102,-17998.608112,-20045.625573,-11428.536347,-1365.758641,3163.040061,19305.648721,7761.889131,15445.033067,8704.171622,-4576.474974,0.003344,-0.009344,1.001719,192.0,0.0,0.0,0.0,0.0,0.0,0.0,0.0,0.0,0.0,1771320316.240533,0.0
194.0,15054.212815,8226.805416,4347.637814,5547.367698,4573.256323,4251.972348,-18379.370079,-20420.799604,-11215.703036,-1148.075002,3378.242657,19523.354712,7977.471707,15655.474741,9097.76349,-4367.307349,-0.008,-0.012,1.006,192.0,127.5,96.0,127.5,80.0,15.5,56.0,0.0,0.0,0.0,1771320316.720646,0.0
196.0,15149.47595,8318.693437,4442.230397,5640.574472,4659.310539,4354.186875,-18285.85038,-20324.262419,-11672.125658,-1612.566604,2918.489625,19065.792151,7519.19389,15192.883038,8597.15147,-4830.390791,-0.008,-0.012,1.006,192.0,0.0,0.0,0.0,0.0,0.0,0.0,0.0,0.0,0.0,1771320316.72072,0.0
198.0,15368.388935,8536.086504,4658.125896,5858.436925,4877.418861,4569.210657,-18068.077334,-20104.857696,-11162.371774,-1107.908917,3429.450504,19573.757896,8024.499777,15697.294855,9002.835632,-4318.24527,-0.008,-0.012,1.006,192.0,0.0,0.0,0.0,0.0,0.0,0.0,0.0,0.0,0.0,1771320316.720761,0.0
200.0,14882.685528,8050.986594,4173.629483,5370.565399,4391.067253,4080.378006,-18552.529043,-20591.566931,-11534.707133,-1479.931352,3058.769173,19201.444888,7656.187732,15331.441502,8822.65822,-4689.887725,-0.008,-0.012,1.006,192.0,0.0,0.0,0.0,0.0,0.0,0.0,0.0,0.0,0.0,1771320316.720802,0.0
202.0,15413.94179,8581.594656,4700.929487,5896.859574,4919.261327,4609.622611,-18026.838365,-20064.155169,-11447.691792,-1394.972371,3142.65527,19285.509799,7738.643317,15412.01954,8678.690634,-4600.011361,-0.008,-0.012,1.006,192.0,0.0,0.0,0.0,0.0,0.0,0.0,0.0,0.0,0.0,1771320316.720844,0.0
204.0,15060.918338,8230.895785,4345.53675,5541.913872,4568.830677,4253.291101,-18382.745192,-20418.542077,-11227.370647,-1174.047729,3361.165924,19505.987406,7958.964462,15638.174491,9060.078449,-4389.368521,-0.008,-0.012,1.006,192.0,0.0,0.0,127.5,88.0,15.5,64.0,0.0,0.0,0.0,1771320316.720885,0.0
206.0,15162.864645,8328.818778,4451.841647,5648.911673,4676.49903,4357.830209,-18276.596758,-20316.84164,-11658.066411,-1605.615211,2928.4138,19070.865997,7526.122931,15198.403919,8599.72192,-4821.137169,-0.008,-0.012,1.006,192.0,0.0,0.0,0.0,0.0,0.0,0.0,0.0,0.0,0.0,1771320316.720903,0.0
208.0,15339.286964,8506.135166,4624.59828,5826.831559,4850.283843,4528.530482,-18100.755584,-20137.446539,-11178.532085,-1119.576528,3412.083198,19556.323535,8010.44053,15683.883808,9002.388597,-4333.712677,-0.008,-0.012,1.006,192.0,0.0,0.0,0.0,0.0,0.0,0.0,0.0,0.0,0.0,1771320316.720914,0.0
210.0,14941.13534,8105.569554,4224.770275,5423.203757,4447.080725,4133.977489,-18500.985921,-20538.593297,-11533.589546,-1480.691311,3057.361014,19197.063946,7653.617281,15323.976019,8813.002266,-4699.29781,-0.008,-0.012,1.006,192.0,0.0,0.0,0.0,0.0,0.0,0.0,0.0,0.0,0.0,1771320316.720926,0.0
212.0,15475.878474,8638.748066,4755.355985,5955.935235,4975.319502,4664.362033,-17970.13199,-20005.548895,-11367.851361,-1325.145522,3220.416989,19354.152006,7811.308838,15484.439192,8746.081143,-4541.069811,-0.008,-0.012,1.006,192.0,0.0,0.0,0.0,0.0,0.0,0.0,0.0,0.0,0.0,1771320316.720937,0.0
214.0,15075.849304,8240.618794,4353.315157,5556.10723,4574.865648,4261.918874,-18370.54114,-20405.51101,-11194.22301,-1147.695023,3393.285381,19532.496575,7989.452242,15658.559282,9098.52345,-4367.553218,0.002,-0.008,1.004,192.0,0.0,8.0,127.5,96.0,15.5,48.0,0.0,0.0,0.0,1771320316.720949,0.0
216.0,15203.343654,8368.381365,4487.783252,5683.668635,4705.511594,4392.140137,-18240.431635,-20276.586148,-11628.07037,-1582.592914,2959.03569,19098.58216,7555.984861,15230.299858,8617.469206,-4800.52886,0.002,-0.008,1.004,192.0,0.0,0.0,0.0,0.0,0.0,0.0,0.0,0.0,0.0,1771320316.72096,0.0
218.0,15395.054566,8558.572359,4678.644798,5872.674986,4900.195289,4575.580904,-18049.011296,-20083.578835,-11121.691599,-1076.661179,3467.515524,19604.424489,8062.117763,15729.928402,9039.939528,-4295.066511,0.002,-0.008,1.004,192.0,0.0,0.0,0.0,0.0,0.0,0.0,0.0,0.0,0.0,1771320316.720978,0.0
220.0,14900.030482,8063.414164,4188.806318,5381.294236,4405.238259,4081.830869,-18539.54268,-20575.630137,-11527.420464,-1482.859431,3066.368767,19200.103784,7655.830104,15328.289906,8835.957508,-4699.208403,0.002,-0.008,1.004,192.0,0.0,0.0,0.0,0.0,0.0,0.0,0.0,0.0,0.0,1771320316.72099,0.0
222.0,15412.868907,8578.554818,4698.761368,5896.233725,4910.365332,4595.026922,-18028.827671,-20063.886948,-11423.618963,-1377.850935,3171.041986,19306.363977,7759.475143,15425.072959,8702.785814,-4596.591544,0.002,-0.008,1.004,192.0,0.0,0.0,0.0,0.0,0.0,0.0,0.0,0.0,0.0,1771320316.721002,0.0
224.0,15031.369332,8199.31277,4315.764226,5518.288078,4528.396371,4216.880109,-18406.125117,-20445.09595,-11253.566891,-1196.131253,3344.603282,19485.513209,7928.007296,15609.85483,9047.226196,-4414.246012,0.002,-0.008,1.004,192.0,0.0,0.0,127.5,104.0,15.5,24.0,0.0,0.0,0.0,1771320316.721013,0.0
226.0,15178.667328,8348.980051,4466.705557,5663.708528,4675.560257,4370.570704,-18258.313031,-20302.625931,-11676.484248,-1615.271165,2919.204881,19060.494788,7507.66039,15194.58177,8581.147621,-4833.989422,0.002,-0.008,1.004,192.0,0.0,0.0,0.0,0.0,0.0,0.0,0.0,0.0,0.0,1771320316.721025,0.0
228.0,15345.925432,8511.05255,4631.661431,5832.173625,4846.931082,4539.01345,-18093.446564,-20135.099606,-11157.253225,-1094.631981,3435.217254,19575.926015,8027.964297,15706.749643,9014.056207,-4314.758398,0.002,-0.008,1.004,192.0,0.0,0.0,0.0,0.0,0.0,0.0,0.0,0.0,0.0,1771320316.721036,0.0
230.0,14954.769904,8117.505386,4230.559377,5434.379629,4446.656042,4135.497407,-18494.660377,-20527.99857,-11531.376723,-1478.210268,3061.741955,19198.337996,7649.191636,15337.364714,8811.39294,-4696.168565,0.002,-0.008,1.004,192.0,0.0,0.0,0.0,0.0,0.0,0.0,0.0,0.0,0.0,1771320316.721047,0.0
232.0,15430.526785,8595.586848,4703.544641,5906.001437,4914.679219,4608.415617,-18024.245563,-20052.800483,-11392.170059,-1338.109534,3200.903916,19333.946029,7781.290445,15475.274977,8727.372733,-4571.0435,0.002,-0.008,1.004,192.0,0.0,0.0,0.0,0.0,0.0,0.0,0.0,0.0,0.0,1771320316.721058,0.0
234.0,15075.044641,8241.222291,4342.340451,5546.741849,4553.586787,4246.138542,-18381.717012,-20409.914304,-11221.179214,-1159.295578,3376.231,19509.541334,7953.734154,15651.831407,9055.496342,-4405.350018,0.004,-0.008,0.994,192.0,0.0,16.0,127.5,96.0,15.5,8.0,0.0,0.0,0.0,1771320316.72107,0.0
236.0,15190.916084,8356.959624,4469.94656,5667.70949,4676.320216,4375.689253,-18260.101171,-20292.947625,-11650.176245,-1589.656066,2943.300062,19077.593872,7522.546652,15223.549631,8583.941589,-4835.062305,0.004,-0.008,0.994,192.0,0.0,0.0,0.0,0.0,0.0,0.0,0.0,0.0,0.0,1771320316.721081,0.0
238.0,15363.158627,8530.252699,4637.517588,5837.940376,4851.580244,4540.063982,-18089.490305,-20119.408681,-11141.875224,-1081.600914,3452.204579,19588.532399,8038.223748,15734.465806,9011.128129,-4318.62525,0.004,-0.008,0.994,192.0,0.0,0.0,0.0,0.0,0.0,0.0,0.0,0.0,0.0,1771320316.721092,0.0
240.0,14964.761134,8130.782322,4241.131752,5440.906339,4453.8086,4141.286509,-18484.512685,-20517.403843,-11515.238764,-1459.971244,3076.047072,19214.163031,7662.513275,15344.941955,8815.438606,-4693.28519,0.004,-0.008,0.994,192.0,0.0,0.0,0.0,0.0,0.0,0.0,0.0,0.0,0.0,1771320316.721103,0.0
242.0,15456.186587,8620.352581,4740.760295,5941.250138,4949.592644,4640.557425,-17983.453629,-20025.464299,-11362.799867,-1310.616888,3227.748362,19363.718553,7812.471129,15502.946437,8745.589405,-4537.784104,0.004,-0.008,0.994,192.0,0.0,0.0,0.0,0.0,0.0,0.0,0.0,0.0,0.0,1771320316.721115,0.0
244.0,15058.772571,8223.877337,4342.07223,5544.953709,4556.648976,4245.98208,-18379.213617,-20421.291342,-11222.989705,-1166.694005,3373.012349,19511.28477,7958.718593,15641.996639,9074.1824,-4384.384082,0.004,-0.014,1.0,192.0,0.0,16.0,127.5,72.0,15.5,32.0,0.0,0.0,0.0,1771320316.721126,0.0
246.0,15170.464238,8332.931499,4455.015594,5654.589016,4668.67592,4355.997366,-18269.086572,-20312.170126,-11645.996469,-1592.137109,2948.15039,19084.545265,7535.354201,15222.364989,8603.678179,-4808.307267,0.004,-0.014,1.0,192.0,0.0,0.0,0.0,0.0,0.0,0.0,0.0,0.0,0.0,1771320316.721137,0.0
248.0,15327.395836,8489.594876,4602.850032,5805.910326,4821.763017,4501.753092,-18121.743872,-20158.144254,-11188.545667,-1137.256758,3403.544832,19537.078683,7991.843878,15678.362927,8980.550942,-4356.019718,0.004,-0.014,1.0,192.0,0.0,0.0,0.0,0.0,0.0,0.0,0.0,0.0,0.0,1771320316.721148,0.0
250.0,14915.587296,8079.283903,4187.644027,5393.364178,4409.574498,4094.593715,-18535.295848,-20570.15396,-11548.989898,-1496.337533,3040.172522,19178.601405,7625.699952,15312.084891,8789.868211,-4724.778798,0.004,-0.014,1.0,192.0,0.0,0.0,0.0,0.0,0.0,0.0,0.0,0.0,0.0,1771320316.721161,0.0
252.0,15410.007883,8576.051423,4684.858583,5888.276504,4901.469338,4594.1105,-18040.271764,-20076.560387,-11418.254545,-1363.925798,3170.974931,19312.086023,7755.429477,15453.370268,8703.232849,-4585.035692,0.004,-0.014,1.0,192.0,0.0,0.0,0.0,0.0,0.0,0.0,0.0,0.0,0.0,1771320316.721172,0.0
254.0,15043.685143,8210.667456,4315.607764,5520.433846,4533.894901,4228.748885,-18406.214524,-20441.430264,-11263.245197,-1203.127349,3329.560558,19471.521017,7910.37177,15605.943275,9028.003696,-4434.384934,0.004,-0.012,1.001,192.0,0.0,16.0,127.5,88.0,15.5,40.0,0.0,0.0,0.0,1771320316.721183,0.0
0.0,15198.046291,8362.860484,4470.952388,5668.111821,4685.953818,4379.019663,-18256.346077,-20289.348994,-11638.173358,-1583.442281,2954.542989,19092.949521,7533.297841,15227.394131,8596.413862,-4810.788311,0.004,-0.012,1.001,192.0,0.0,0.0,0.0,0.0,0.0,0.0,0.0,0.0,0.0,1771320316.721195,0.0
2.0,15363.4492,8529.917423,4637.495236,5831.771294,4854.821247,4538.454656,-18092.708956,-20123.096719,-11159.37664,-1106.858385,3430.702201,19565.957137,8017.637791,15704.626227,8995.951294,-4344.463866,0.004,-0.012,1.001,192.0,0.0,0.0,0.0,0.0,0.0,0.0,0.0,0.0,0.0,1771320316.721213,0.0
4.0,14992.253779,8160.264273,4272.334787,5464.822705,4486.419795,4177.853963,-18457.332964,-20489.933549,-11493.959903,-1438.737087,3095.873069,19235.330133,7684.842668,15370.400592,8832.627098,-4670.531114,0.004,-0.012,1.001,192.0,0.0,0.0,0.0,0.0,0.0,0.0,0.0,0.0,0.0,1771320316.721224,0.0
6.0,15473.196265,8638.92688,4756.473572,5948.089772,4966.647025,4660.316367,-17973.864731,-20008.253456,-11352.406305,-1303.285516,3237.33726,19374.402687,7824.049333,15523.10771,8761.79442,-4525.110665,0.004,-0.012,1.001,192.0,0.0,0.0,0.0,0.0,0.0,0.0,0.0,0.0,0.0,1771320316.721236,0.0
8.0,15078.866789,8242.563396,4358.009023,5555.257863,4573.189267,4263.103516,-18368.462428,-20403.58876,-11195.944094,-1141.436534,3397.085178,19535.156433,7981.517372,15670.651575,9090.052139,-4366.457983,0.005,-0.011,1.0065,192.0,0.0,24.0,127.5,88.0,15.5,80.0,0.0,0.0,0.0,1771320316.721247,0.0
10.0,15210.384454,8370.951816,4488.856135,5684.942685,4705.869222,4395.425844,-18240.275173,-20277.144942,-11616.715684,-1569.628903,2971.262094,19107.567562,7557.951815,15245.230823,8613.512947,-4793.599819,0.005,-0.011,1.0065,192.0,0.0,0.0,0.0,0.0,0.0,0.0,0.0,0.0,0.0,1771320316.721259,0.0
12.0,15358.822389,8520.216765,4636.690573,5836.934547,4860.118611,4543.75202,-18088.238607,-20125.711873,-11148.111361,-1099.527013,3438.905291,19577.311823,8034.155731,15714.773919,9013.877393,-4319.586375,0.005,-0.011,1.0065,192.0,0.0,0.0,0.0,0.0,0.0,0.0,0.0,0.0,0.0,1771320316.72127,0.0
14.0,14933.423988,8097.120595,4216.477778,5417.772283,4437.782399,4129.529492,-18507.669092,-20546.729332,-11514.948191,-1463.279303,3074.840078,19216.84524,7666.089555,15353.569729,8825.22867,-4680.164716,0.005,-0.011,1.0065,192.0,0.0,0.0,0.0,0.0,0.0,0.0,0.0,0.0,0.0,1771320316.721282,0.0
16.0,15434.706561,8598.984313,4718.408551,5920.999458,4938.506179,4637.428181,-18008.308769,-20046.22907,-11411.549021,-1357.577903,3179.468594,19319.640913,7772.260341,15463.070925,8716.353323,-4570.574113,0.005,-0.011,1.0065,192.0,0.0,0.0,0.0,0.0,0.0,0.0,0.0,0.0,0.0,1771320316.721293,0.0
18.0,15060.873635,8226.358381,4337.266605,5541.422134,4560.605235,4250.295967,-18385.315643,-20420.330217,-11220.754531,-1161.866029,3374.040529,19515.151622,7965.960558,15656.972308,9074.249455,-4382.148907,0.0045,-0.0095,1.00825,192.0,0.0,16.0,127.5,96.0,15.5,72.0,0.0,0.0,0.0,1771320316.721304,0.0
20.0,15186.848067,8351.595205,4461.631711,5662.434478,4677.840135,4375.13046,-18262.246938,-20297.529733,-11654.132504,-1597.434473,2940.148466,19083.002994,7528.022829,15222.029712,8599.833679,-4818.164387,0.0045,-0.0095,1.00825,192.0,0.0,0.0,0.0,0.0,0.0,0.0,0.0,0.0,0.0,1771320316.721316,0.0
22.0,15362.465723,8528.241042,4640.669184,5843.751829,4864.477201,4552.84918,-18081.577788,-20119.207516,-11145.764428,-1092.463862,3448.002451,19590.968739,8033.440475,15726.352123,9016.961934,-4305.616534,0.0045,-0.0095,1.00825,192.0,0.0,0.0,0.0,0.0,0.0,0.0,0.0,0.0,0.0,1771320316.721327,0.0
24.0,14906.780709,8076.802859,4189.543925,5392.537164,4415.631821,4108.675314,-18534.29002,-20573.640832,-11541.144436,-1481.652436,3053.292996,19198.472106,7645.369487,15333.85549,8816.600897,-4697.532022,0.0045,-0.0095,1.00825,192.0,0.0,0.0,0.0,0.0,0.0,0.0,0.0,0.0,0.0,1771320316.721338,0.0
26.0,15434.907727,8602.672351,4719.123807,5920.574775,4938.953214,4640.356259,-18009.918095,-20048.464244,-11420.981457,-1363.277598,3169.857343,19314.85764,7765.197189,15461.886282,8706.83148,-4581.325302,0.0045,-0.0095,1.00825,192.0,0.0,0.0,0.0,0.0,0.0,0.0,0.0,0.0,0.0,1771320316.721351,0.0
28.0,15057.520873,8225.888994,4343.905073,5540.416305,4563.108631,4253.648729,-18386.746155,-20425.560525,-11221.916821,-1162.804802,3367.245599,19510.01072,7965.558227,15651.339668,9073.377737,-4386.753367,0.0045,-0.0095,1.00825,192.0,0.0,0.0,127.5,88.0,15.5,64.0,0.0,0.0,0.0,1771320316.721362,0.0
30.0,15163.691659,8330.852786,4447.706574,5643.860178,4660.271664,4354.432744,-18279.837761,-20319.814422,-11661.508579,-1603.447092,2930.693678,19070.865997,7522.770169,15221.090939,8595.676255,-4825.987497,0.0045,-0.0095,1.00825,192.0,0.0,0.0,0.0,0.0,0.0,0.0,0.0,0.0,0.0,1771320316.721374,0.0
32.0,15352.04981,8522.116664,4624.285355,5836.666326,4838.750343,4539.773409,-18092.172514,-20127.522365,-11171.29012,-1112.93806,3425.04721,19566.203006,8008.093596,15702.368701,8988.128184,-4337.646584,0.0045,-0.0095,1.00825,192.0,0.0,0.0,0.0,0.0,0.0,0.0,0.0,0.0,0.0,1771320316.721385,0.0
34.0,14911.653389,8081.720243,4184.626542,5401.567269,4402.645457,4106.663657,-18529.394988,-20564.76719,-11544.810122,-1485.429881,3052.398926,19201.780164,7627.286926,15326.54647,8795.836126,-4707.746769,0.0045,-0.0095,1.00825,192.0,0.0,0.0,0.0,0.0,0.0,0.0,0.0,0.0,0.0,1771320316.721405,0.0
36.0,15409.516145,8578.688929,4686.892591,5901.531089,4907.101978,4610.829605,-18032.515709,-20069.765457,-11424.535385,-1363.545819,3167.800983,19321.384349,7749.707431,15458.533521,8693.800413,-4581.727634,0.0045,-0.0095,1.00825,192.0,0.0,0.0,0.0,0.0,0.0,0.0,0.0,0.0,0.0,1771320316.72143,0.0
38.0,15050.189501,8220.613983,4324.839035,5533.68843,4547.998851,4244.730383,-18397.474992,-20432.310752,-11239.485292,-1173.310122,3352.068764,19507.663787,7943.407648,15635.916965,9046.51094,-4395.448195,0.00125,-0.01075,1.007125,192.0,127.5,120.0,127.5,80.0,15.5,56.0,0.0,0.0,0.0,1771320316.721455,0.0
40.0,15188.233875,8358.18897,4463.79983,5665.049632,4677.236638,4381.679521,-18260.391743,-20294.109916,-11665.10721,-1602.53067,2926.960936,19080.343137,7513.158919,15214.988913,8579.962978,-4822.701791,0.00125,-0.01075,1.007125,192.0,0.0,0.0,0.0,0.0,0.0,0.0,0.0,0.0,0.0,1771320316.72148,0.0
42.0,15410.253753,8580.231199,4681.304655,5885.460184,4894.897925,4588.120233,-18039.936488,-20070.32425,-11130.811111,-1067.899295,3463.603969,19612.739338,8039.609556,15746.669858,9015.106739,-4295.31238,0.00125,-0.01075,1.007125,192.0,0.0,0.0,0.0,0.0,0.0,0.0,0.0,0.0,0.0,1771320316.721505,0.0
44.0,14966.50457,8132.346944,4241.578787,5444.817894,4455.59674,4147.969681,-18480.958758,-20514.140488,-11488.461374,-1433.90911,3106.065465,19250.305802,7681.355796,15377.441392,8843.758266,-4661.322196,0.00125,-0.01075,1.007125,192.0,0.0,0.0,0.0,0.0,0.0,0.0,0.0,0.0,0.0,1771320316.72153,0.0
46.0,15491.591751,8658.01527,4760.563941,5962.864275,4981.935618,4677.460155,-17967.181559,-19998.999834,-11337.698858,-1289.874469,3249.675423,19392.462896,7827.804426,15532.562498,8755.826504,-4513.085426,0.00125,-0.01075,1.007125,192.0,0.0,0.0,0.0,0.0,0.0,0.0,0.0,0.0,0.0,1771320316.721555,0.0
48.0,15059.621937,8229.509977,4324.973145,5531.922642,4557.364232,4249.290138,-18399.397242,-20428.30979,-11199.98976,-1142.15179,3387.719797,19535.290543,7976.465878,15670.204541,9086.565266,-4370.637759,0.001625,-0.009375,1.004563,192.0,0.0,8.0,127.5,96.0,15.5,40.0,0.0,0.0,0.0,1771320316.721579,0.0
50.0,15190.066718,8356.6467,4455.440278,5663.037975,4678.600094,4375.64455,-18268.348964,-20299.519038,-11655.585367,-1597.680342,2930.917195,19077.705631,7515.528204,15207.814003,8582.779298,-4830.703715,0.001625,-0.009375,1.004563,192.0,0.0,0.0,0.0,0.0,0.0,0.0,0.0,0.0,0.0,1771320316.721604,0.0
52.0,15386.292682,8553.677327,4652.962643,5862.683757,4874.043748,4563.175686,-18067.272671,-20099.739146,-11130.788759,-1076.907048,3458.418364,19606.771422,8036.726181,15736.008076,9013.251545,-4305.1695,0.001625,-0.009375,1.004563,192.0,0.0,0.0,0.0,0.0,0.0,0.0,0.0,0.0,0.0,1771320316.721629,0.0
54.0,14932.41816,8101.300371,4198.328161,5406.954039,4420.079818,4114.822044,-18522.734168,-20553.211338,-11518.300953,-1458.093698,3073.923656,19222.634342,7646.375316,15348.831159,8818.232574,-4694.402777,0.001625,-0.009375,1.004563,192.0,0.0,0.0,0.0,0.0,0.0,0.0,0.0,0.0,0.0,1771320316.721654,0.0
56.0,15444.116645,8613.669409,4708.66319,5913.958658,4933.253519,4627.593413,-18017.02595,-20046.184366,-11412.107815,-1350.87238,3176.741681,19322.345474,7755.183608,15454.197282,8696.46027,-4585.572134,0.001625,-0.009375,1.004563,192.0,0.0,0.0,0.0,0.0,0.0,0.0,0.0,0.0,0.0,1771320316.721679,0.0
58.0,15089.550923,8257.136733,4354.857427,5560.488172,4587.136756,4275.0617,-18368.484779,-20397.665548,-11202.180231,-1144.230502,3387.675093,19532.965962,7968.352195,15669.310471,9076.886961,-4371.867105,0.002812,-0.007687,1.009281,192.0,0.0,16.0,127.5,104.0,15.5,88.0,0.0,0.0,0.0,1771320317.200926,0.0
60.0,15208.015169,8374.818668,4477.434394,5680.449984,4703.634048,4394.978809,-18247.092455,-20278.955433,-11630.529062,-1577.340254,2956.018204,19105.220628,7538.528149,15234.747855,8611.769511,-4799.411273,0.002812,-0.007687,1.009281,192.0,0.0,0.0,0.0,0.0,0.0,0.0,0.0,0.0,0.0,1771320317.20099,0.0
62.0,15380.324767,8545.965975,4650.503951,5847.48457,4869.059309,4553.251511,-18077.912101,-20109.864486,-11145.362096,-1090.139281,3443.777972,19590.007614,8025.840882,15725.994495,9010.144652,-4315.048971,0.002812,-0.007687,1.009281,192.0,0.0,0.0,0.0,0.0,0.0,0.0,0.0,0.0,0.0,1771320317.201031,0.0
64.0,14984.296558,8148.4402,4251.301795,5447.097772,4462.369318,4152.037698,-18477.963624,-20506.496192,-11476.726708,-1423.40379,3112.592174,19254.038543,7689.536534,15383.230493,8841.50074,-4655.063707,0.002812,-0.007687,1.009281,192.0,0.0,0.0,0.0,0.0,0.0,0.0,0.0,0.0,0.0,1771320317.201074,0.0
66.0,15469.776448,8628.578023,4734.479455,5931.080095,4944.652908,4642.457323,-17997.132897,-20021.597448,-11375.40625,-1330.308775,3214.829053,19347.602945,7786.297236,15474.872646,8723.081198,-4555.732555,0.002812,-0.007687,1.009281,192.0,0.0,0.0,0.0,0.0,0.0,0.0,0.0,0.0,0.0,1771320317.201116,0.0
68.0,15077.056298,8239.858835,4333.779732,5539.45518,4557.252474,4253.67108,-18390.836524,-20414.09408,-11187.472783,-1141.928272,3402.583707,19533.390645,7975.772974,15664.057811,9077.669272,-4369.654282,0.002812,-0.007687,1.009281,192.0,0.0,0.0,0.0,0.0,0.0,0.0,0.0,0.0,0.0,1771320317.201158,0.0
70.0,15164.876302,8329.243461,4423.857263,5626.626983,4643.999594,4332.036296,-18303.038872,-20328.732768,-11668.571731,-1620.72499,2915.941526,19053.61045,7495.836317,15189.664386,8563.57915,-4857.503457,-0.002,-0.012,1.008,192.0,127.5,120.0,127.5,80.0,15.5,64.0,0.0,0.0,0.0,1771320317.201199,0.0
72.0,15381.576464,8545.51894,4640.177445,5843.50596,4864.410146,4541.114514,-18086.517523,-20109.506859,-11141.271727,-1094.74374,3443.465047,19584.173809,8021.258774,15704.782689,8987.278818,-4330.583433,-0.002,-0.012,1.008,192.0,0.0,0.0,0.0,0.0,0.0,0.0,0.0,0.0,0.0,1771320317.201212,0.0
74.0,14997.394681,8158.900816,4252.978176,5452.082211,4478.373167,4158.027966,-18475.259063,-20496.192038,-11491.210638,-1443.542712,3094.442558,19237.319438,7671.945712,15367.897197,8823.261717,-4686.400853,-0.002,-0.012,1.008,192.0,0.0,0.0,0.0,0.0,0.0,0.0,0.0,0.0,0.0,1771320317.201224,0.0
76.0,15449.257547,8616.284563,4715.726342,5908.907164,4938.282661,4625.648812,-18016.377749,-20040.439968,-11363.73864,-1319.199958,3224.417952,19363.986774,7803.910411,15491.770565,8742.504864,-4551.016337,-0.002,-0.012,1.008,192.0,0.0,0.0,0.0,0.0,0.0,0.0,0.0,0.0,0.0,1771320317.201236,0.0
78.0,15105.152441,8271.486553,4375.666902,5569.69709,4601.128948,4279.017959,-18352.190358,-20378.97949,-11206.024731,-1155.09345,3383.651779,19525.880459,7966.854628,15656.2347,9066.024013,-4391.782509,-0.002,-0.012,1.008,192.0,0.0,0.0,0.0,0.0,0.0,0.0,0.0,0.0,0.0,1771320317.201249,0.0
80.0,15206.070567,8372.561142,4478.596685,5671.732804,4693.754577,4373.454079,-18249.238223,-20276.586148,-11614.905192,-1562.923379,2974.592504,19121.403291,7555.806047,15249.16473,8628.600374,-4795.2762,-0.006,-0.018,1.006,192.0,127.5,104.0,127.5,56.0,15.5,56.0,0.0,0.0,0.0,1771320317.201261,0.0
82.0,15378.782496,8545.675402,4645.586568,5843.863588,4861.862047,4541.31568,-18078.135619,-20103.203667,-11148.290175,-1093.916725,3443.107419,19590.879332,8020.655277,15702.368701,9006.210745,-4333.377401,-0.006,-0.018,1.006,192.0,0.0,0.0,0.0,0.0,0.0,0.0,0.0,0.0,0.0,1771320317.201274,0.0
84.0,14987.224637,8154.676337,4250.363022,5453.557426,4469.633635,4158.430297,-18471.280452,-20496.974349,-11471.004661,-1414.530148,3124.572709,19269.573005,7693.291628,15395.054566,8855.962319,-4653.029698,-0.006,-0.018,1.006,192.0,0.0,0.0,0.0,0.0,0.0,0.0,0.0,0.0,0.0,1771320317.201286,0.0
86.0,15442.596727,8607.679141,4706.785644,5908.817757,4928.693763,4620.083227,-18018.501165,-20047.033733,-11401.647198,-1352.437002,3189.348065,19329.229811,7762.157352,15465.529617,8725.115207,-4579.201887,-0.006,-0.018,1.006,192.0,0.0,0.0,0.0,0.0,0.0,0.0,0.0,0.0,0.0,1771320317.201298,0.0
88.0,15105.420662,8274.057004,4371.263608,5580.96237,4591.472994,4296.318209,-18349.217576,-20379.918263,-11191.049062,-1138.284938,3398.672151,19543.605392,7977.13643,15673.423192,9082.966636,-4360.311253,-0.006,-0.018,1.006,192.0,0.0,0.0,0.0,0.0,0.0,0.0,0.0,0.0,0.0,1771320317.20131,0.0
90.0,15197.353387,8362.838133,4464.962121,5669.452926,4672.945103,4375.465736,-18258.737714,-20290.421878,-11623.622373,-1571.528801,2969.16103,19114.116623,7541.635041,15237.318306,8623.303011,-4790.045892,-0.002,-0.012,1.01,192.0,127.5,120.0,127.5,80.0,15.5,72.0,0.0,0.0,0.0,1771320317.201331,0.0
92.0,15404.285837,8570.463487,4667.178353,5875.088975,4876.435384,4573.233971,-18055.202729,-20085.94812,-11127.972439,-1076.772937,3463.87219,19604.424489,8036.212091,15732.878832,9013.162138,-4306.085921,-0.002,-0.012,1.01,192.0,0.0,0.0,0.0,0.0,0.0,0.0,0.0,0.0,0.0,1771320317.201346,0.0
94.0,14931.837014,8095.801842,4196.629428,5399.063873,4404.34419,4087.508212,-18529.394988,-20557.704038,-11507.840336,-1458.473677,3083.154927,19224.131909,7652.745563,15347.646516,8827.307383,-4693.061673,-0.002,-0.012,1.01,192.0,0.0,0.0,0.0,0.0,0.0,0.0,0.0,0.0,0.0,1771320317.20136,0.0
96.0,15416.176965,8579.314778,4685.350321,5885.773109,4895.076739,4588.187288,-18041.076427,-20074.191102,-11421.964934,-1378.096804,3166.884561,19306.207515,7736.676364,15429.923288,8689.911209,-4611.455454,-0.002,-0.012,1.01,192.0,0.0,0.0,0.0,0.0,0.0,0.0,0.0,0.0,0.0,1771320317.201374,0.0
98.0,15081.593702,8242.965727,4353.404564,5552.977985,4568.204828,4259.594293,-18370.719954,-20407.075632,-11227.92944,-1183.279,3366.485639,19504.601598,7940.367811,15630.820767,9051.383621,-4402.488995,-0.002,-0.012,1.01,192.0,0.0,0.0,0.0,0.0,0.0,0.0,0.0,0.0,0.0,1771320317.201386,0.0
100.0,15234.658448,8396.991598,4507.162214,5704.09813,4721.895423,4415.520062,-18219.59981,-20255.396695,-11614.324047,-1569.941827,2978.034673,19115.345969,7551.089829,15251.221091,8622.65481,-4792.258715,-0.002,-0.012,1.01,192.0,0.0,0.0,127.5,88.0,15.5,96.0,0.0,0.0,0.0,1771320317.201399,0.0
102.0,15411.125471,8576.029071,4681.014083,5881.727443,4900.798786,4586.55561,-18044.004505,-20076.940367,-11091.919075,-1042.798286,3500.64081,19639.807301,8077.45106,15773.000213,9059.989042,-4266.99272,-0.002,-0.012,1.01,192.0,0.0,0.0,0.0,0.0,0.0,0.0,0.0,0.0,0.0,1771320317.201411,0.0
104.0,14937.916689,8105.323685,4205.391312,5407.959867,4424.147835,4113.927974,-18516.945066,-20549.545652,-11517.809214,-1467.883762,3075.51063,19218.409862,7650.800961,15342.840891,8831.330697,-4693.553411,-0.002,-0.012,1.01,192.0,0.0,0.0,0.0,0.0,0.0,0.0,0.0,0.0,0.0,1771320317.201423,0.0
106.0,15493.737518,8662.105639,4758.842857,5962.104316,4978.560505,4666.351338,-17964.544054,-19997.41286,-11373.595759,-1326.352516,3217.60067,19358.130617,7793.539201,15479.834733,8728.400913,-4551.95511,-0.002,-0.012,1.01,192.0,0.0,0.0,0.0,0.0,0.0,0.0,0.0,0.0,0.0,1771320317.201436,0.0
108.0,15120.485737,8291.04433,4384.406434,5590.215992,4612.841262,4293.39013,-18337.997,-20370.798751,-11162.461181,-1106.366647,3428.534082,19575.277814,8009.322942,15702.346349,9114.951982,-4339.322965,-0.002,-0.012,1.01,192.0,0.0,0.0,0.0,0.0,0.0,0.0,0.0,0.0,0.0,1771320317.201449,0.0
110.0,15211.077358,8377.679691,4474.975702,5680.986426,4700.258935,4387.267457,-18248.075932,-20281.436477,-11621.92364,-1568.95835,2964.176591,19113.44607,7546.86535,15244.113236,8627.102807,-4798.316037,0.002,-0.006,1.008,192.0,0.0,8.0,127.5,104.0,15.5,64.0,0.0,0.0,0.0,1771320317.201462,0.0
112.0,15410.901953,8575.470278,4673.68271,5882.085071,4893.959152,4589.506041,-18047.536081,-20080.494294,-11117.176547,-1064.479478,3472.58937,19618.550792,8053.668803,15750.737876,9032.675211,-4291.490232,0.002,-0.006,1.008,192.0,0.0,0.0,0.0,0.0,0.0,0.0,0.0,0.0,0.0,1771320317.201474,0.0
114.0,15012.370349,8178.927979,4273.362967,5481.675921,4486.553906,4190.035664,-18447.140568,-20477.863607,-11461.572225,-1406.729389,3129.288927,19275.518569,7712.53648,15407.01275,8865.9759,-4635.707097,0.002,-0.006,1.008,192.0,0.0,0.0,0.0,0.0,0.0,0.0,0.0,0.0,0.0,1771320317.201485,0.0
116.0,15455.784256,8623.280659,4714.496996,5924.978068,4920.378914,4637.986974,-18004.821897,-20035.388474,-11350.774628,-1294.523632,3238.320737,19384.259806,7815.779187,15503.393472,8756.005318,-4528.50813,0.002,-0.006,1.008,192.0,0.0,0.0,0.0,0.0,0.0,0.0,0.0,0.0,0.0,1771320317.201497,0.0
118.0,15038.544242,8202.64318,4298.598087,5502.999485,4513.063075,4211.739208,-18421.41371,-20454.014296,-11248.560101,-1199.126387,3340.669375,19485.513209,7918.999543,15607.753767,9032.205824,-4424.885443,0.002,-0.006,1.008,192.0,0.0,0.0,0.0,0.0,0.0,0.0,0.0,0.0,0.0,1771320317.201509,0.0
120.0,15207.366968,8370.080098,4476.920304,5675.554952,4693.441652,4386.932181,-18246.64542,-20283.939872,-11645.236509,-1607.64922,2942.830675,19080.477247,7525.251213,15214.161898,8581.460545,-4822.098294,0.004,-0.004,1.002,192.0,0.0,16.0,127.5,112.0,15.5,40.0,0.0,0.0,0.0,1771320317.201521,0.0
122.0,15391.344177,8552.269167,4660.428126,5865.388318,4888.058291,4578.173706,-18060.477741,-20100.320292,-11131.995753,-1087.792347,3455.624396,19597.38369,8042.314117,15721.255925,9018.884184,-4304.767168,0.004,-0.004,1.002,192.0,0.0,0.0,0.0,0.0,0.0,0.0,0.0,0.0,0.0,1771320317.201535,0.0
124.0,14966.705736,8128.301278,4241.332917,5438.335888,4470.505353,4157.513876,-18483.439801,-20525.361064,-11483.968673,-1447.253102,3103.964401,19245.075493,7690.207087,15368.120714,8854.129476,-4654.862542,0.004,-0.004,1.002,192.0,0.0,0.0,0.0,0.0,0.0,0.0,0.0,0.0,0.0,1771320317.201548,0.0
126.0,15460.18755,8621.716037,4734.837083,5931.750647,4965.931769,4645.921844,-17990.874409,-20031.991009,-11384.481059,-1348.458391,3200.747454,19339.601021,7794.54503,15464.277919,8741.364925,-4556.961901,0.004,-0.004,1.002,192.0,0.0,0.0,0.0,0.0,0.0,0.0,0.0,0.0,0.0,1771320317.20156,0.0
128.0,15105.934752,8269.27373,4375.152811,5578.369567,4613.623573,4289.456223,-18347.809416,-20386.020289,-11179.090879,-1138.68727,3405.221213,19548.433369,8001.835108,15670.58452,9106.704188,-4355.617387,0.004,-0.004,1.002,192.0,0.0,0.0,0.0,0.0,0.0,0.0,0.0,0.0,0.0,1771320317.201572,0.0
130.0,15194.939398,8358.747763,4461.542304,5665.40726,4692.793452,4382.238314,-18262.001069,-20299.250817,-11629.47853,-1586.906801,2957.24755,19103.991282,7548.474675,15229.182271,8626.655773,-4797.734892,0.002,-0.006,1.01,192.0,0.0,8.0,127.5,104.0,15.5,72.0,0.0,0.0,0.0,1771320317.201585,0.0
132.0,15418.725064,8579.806516,4677.840135,5884.677873,4912.846376,4596.904468,-18045.032685,-20080.360184,-11126.899556,-1086.518298,3457.501943,19602.681053,8047.879702,15730.017809,9021.253469,-4300.207412,0.002,-0.006,1.01,192.0,0.0,0.0,0.0,0.0,0.0,0.0,0.0,0.0,0.0,1771320317.201598,0.0
134.0,15001.328588,8164.041718,4259.638996,5469.471868,4494.846403,4176.892838,-18461.177464,-20495.119154,-11451.871568,-1409.165729,3129.355982,19278.647814,7718.146767,15408.487965,8872.882589,-4626.967564,0.002,-0.006,1.01,192.0,0.0,0.0,0.0,0.0,0.0,0.0,0.0,0.0,0.0,1771320317.20161,0.0
136.0,15457.415933,8620.620802,4713.424112,5922.742894,4944.496446,4632.443742,-18008.018197,-20039.702361,-11368.365451,-1328.475932,3210.761036,19359.918756,7797.964847,15476.012585,8743.510693,-4547.507113,0.002,-0.006,1.01,192.0,0.0,0.0,0.0,0.0,0.0,0.0,0.0,0.0,0.0,1771320317.201622,0.0
138.0,15106.381787,8269.586655,4363.462849,5572.044024,4588.321398,4276.380453,-18356.168968,-20389.171885,-11203.610743,-1160.211999,3380.0755,19528.562668,7962.227817,15651.943165,9071.120211,-4380.628989,0.002,-0.006,1.01,192.0,0.0,0.0,0.0,0.0,0.0,0.0,0.0,0.0,0.0,1771320317.201634,0.0
140.0,15237.452416,8398.332703,4496.813356,5701.259458,4707.277382,4419.185748,-18226.260629,-20261.811645,-11595.325064,-1558.6989,2985.522507,19129.941658,7566.490181,15254.864425,8633.070723,-4774.220857,0.002,-0.01,1.008,192.0,0.0,8.0,127.5,72.0,15.5,56.0,0.0,0.0,0.0,1771320317.201646,0.0
142.0,15394.160496,8553.900844,4647.195893,5853.49719,4859.112782,4568.026014,-18074.805209,-20108.009292,-11101.776195,-1069.799193,3482.290027,19620.540097,8059.144981,15753.129512,9035.35742,-4278.615627,0.002,-0.01,1.008,192.0,0.0,0.0,0.0,0.0,0.0,0.0,0.0,0.0,0.0,1771320317.201658,0.0
144.0,14961.743648,8122.065141,4212.834443,5422.309687,4426.673582,4132.658736,-18506.99854,-20539.01798,-11505.247534,-1470.543619,3079.310427,19220.332112,7653.974909,15341.92447,8810.007132,-4689.172469,0.002,-0.01,1.008,192.0,0.0,0.0,0.0,0.0,0.0,0.0,0.0,0.0,0.0,1771320317.20167,0.0
146.0,15442.753189,8602.091205,4694.358074,5901.955772,4911.147643,4610.673143,-18028.201822,-20060.511835,-11389.554905,-1354.918045,3193.840765,19333.230774,7769.712242,15454.443151,8708.552564,-4571.646997,0.002,-0.01,1.008,192.0,0.0,0.0,0.0,0.0,0.0,0.0,0.0,0.0,0.0,1771320317.201682,0.0
148.0,15122.519746,8283.534143,4373.767003,5580.783556,4603.699398,4290.149127,-18348.524672,-20381.147609,-11201.755548,-1163.274188,3381.573067,19522.371235,7962.160762,15653.910119,9057.038612,-4386.127518,0.002,-0.01,1.008,192.0,0.0,0.0,0.0,0.0,0.0,0.0,0.0,0.0,0.0,1771320317.201694,0.0
150.0,15221.22505,8384.631084,4478.328464,5679.24299,4702.672923,4387.982713,-18248.746484,-20282.75523,-11595.615637,-1559.3471,2987.400053,19129.382864,7568.703004,15245.811969,8633.473055,-4784.815584,-0.001,-0.011,1.007,192.0,127.5,112.0,127.5,80.0,15.5,56.0,0.0,0.0,0.0,1771320317.201707,0.0
152.0,15420.334389,8581.058214,4673.794469,5875.983045,4907.660771,4582.778166,-18052.766389,-20083.847056,-11115.299,-1076.392958,3469.25896,19612.292303,8052.394754,15733.169405,9020.739379,-4306.309439,-0.001,-0.011,1.007,192.0,0.0,0.0,0.0,0.0,0.0,0.0,0.0,0.0,0.0,1771320317.201719,0.0
154.0,14987.671672,8147.523778,4238.829522,5444.415563,4475.19922,4156.642158,-18484.758554,-20515.861573,-11461.706336,-1420.721581,3122.650459,19265.393229,7703.148747,15390.293645,8862.846656,-4651.398021,-0.001,-0.011,1.007,192.0,0.0,0.0,0.0,0.0,0.0,0.0,0.0,0.0,0.0,1771320317.201733,0.0
156.0,15504.689873,8661.569197,4761.390956,5966.976996,4992.642104,4680.544696,-17961.951251,-19997.770488,-11367.471381,-1328.274766,3217.243042,19359.270556,7797.137832,15485.981463,8734.972326,-4550.882226,-0.001,-0.011,1.007,192.0,0.0,0.0,0.0,0.0,0.0,0.0,0.0,0.0,0.0,1771320317.201746,0.0
158.0,15135.371999,8294.754719,4396.096396,5601.973009,4628.532187,4312.277354,-18325.904706,-20363.199158,-11134.476797,-1095.146071,3451.221103,19594.947349,8034.043972,15715.735044,9127.625421,-4309.081055,-0.001,-0.011,1.007,192.0,0.0,0.0,0.0,0.0,0.0,0.0,0.0,0.0,0.0,1771320317.201758,0.0
160.0,15183.137677,8341.603975,4444.622033,5646.83296,4671.335777,4365.250989,-18282.117639,-20316.908695,-11633.144216,-1596.674513,2951.056117,19094.625902,7536.024754,15224.667218,8615.412845,-4802.048779,-0.0025,-0.0125,1.0055,192.0,127.5,112.0,127.5,72.0,15.5,48.0,0.0,0.0,0.0,1771320317.20177,0.0
162.0,15415.439357,8574.665615,4673.392138,5878.933475,4906.87846,4596.54684,-18053.056962,-20085.411678,-11137.270765,-1099.10233,3447.331899,19589.560579,8032.680515,15716.4503,8998.365283,-4307.583488,-0.0025,-0.0125,1.0055,192.0,0.0,0.0,0.0,0.0,0.0,0.0,0.0,0.0,0.0,1771320317.201782,0.0
164.0,14992.074965,8149.0884,4247.591406,5453.08804,4475.19922,4168.667396,-18476.980147,-20507.971407,-11450.061077,-1417.100598,3132.418171,19270.91411,7718.81732,15398.206162,8867.696985,-4625.24648,-0.0025,-0.0125,1.0055,192.0,0.0,0.0,0.0,0.0,0.0,0.0,0.0,0.0,0.0,1771320317.201794,0.0
166.0,15508.646132,8663.983186,4762.955578,5964.115973,4983.142612,4675.940237,-17963.068838,-19990.10384,-11360.519989,-1332.208673,3221.556928,19356.431884,7799.842393,15498.029053,8736.335783,-4547.887093,-0.0025,-0.0125,1.0055,192.0,0.0,0.0,0.0,0.0,0.0,0.0,0.0,0.0,0.0,1771320317.201807,0.0
168.0,15124.173775,8282.818888,4378.170297,5576.514372,4598.402035,4282.102499,-18347.697657,-20372.899815,-11133.158044,-1103.103292,3450.863475,19589.158248,8031.004135,15698.323035,9123.020962,-4328.683535,-0.0025,-0.0125,1.0055,192.0,0.0,0.0,0.0,0.0,0.0,0.0,0.0,0.0,0.0,1771320317.201819,0.0
170.0,15186.177514,8342.229824,4445.002013,5635.590033,4657.120068,4348.397773,-18286.36447,-20314.204134,-11640.877919,-1607.939793,2945.423477,19082.265387,7529.498044,15196.481669,8597.754967,-4837.096314,-0.00025,-0.01325,1.00375,192.0,0.0,8.0,127.5,72.0,15.5,40.0,0.0,0.0,0.0,1771320317.201832,0.0
172.0,15384.281025,8537.785237,4644.670146,5837.985079,4857.972843,4543.930834,-18084.148238,-20113.8878,-11129.291192,-1106.120778,3452.964539,19582.966814,8035.027449,15700.044119,8993.71612,-4336.037259,-0.00025,-0.01325,1.00375,192.0,0.0,0.0,0.0,0.0,0.0,0.0,0.0,0.0,0.0,1771320317.201844,0.0
174.0,14997.193515,8152.374107,4263.438793,5457.334871,4477.680263,4163.191219,-18462.451513,-20494.56036,-11485.823868,-1456.551427,3103.763235,19236.425368,7681.042872,15349.792284,8827.799121,-4679.427109,-0.00025,-0.01325,1.00375,192.0,0.0,0.0,0.0,0.0,0.0,0.0,0.0,0.0,0.0,1771320317.201856,0.0
176.0,15501.873553,8653.924901,4759.960444,5954.839999,4976.124165,4659.422297,-17966.309841,-19997.256398,-11340.984564,-1314.327277,3248.513132,19378.448353,7829.279641,15498.811364,8760.654481,-4532.978479,-0.00025,-0.01325,1.00375,192.0,0.0,0.0,0.0,0.0,0.0,0.0,0.0,0.0,0.0,1771320317.201868,0.0
178.0,15158.05902,8314.468958,4421.733847,5621.016696,4639.46219,4324.90609,-18301.809526,-20334.231297,-11144.870358,-1111.373438,3443.487399,19579.904625,8025.393847,15689.784669,9112.694456,-4334.986727,-0.00025,-0.01325,1.00375,192.0,0.0,0.0,0.0,0.0,0.0,0.0,0.0,0.0,0.0,1771320317.6819,0.0
180.0,15234.457282,8391.224848,4499.495566,5702.68997,4716.754522,4409.462739,-18225.590077,-20260.805817,-11573.308596,-1533.597891,3019.295993,19160.429437,7597.424996,15272.924635,8663.40204,-4745.901197,0.001875,-0.013625,1.004875,192.0,0.0,16.0,127.5,72.0,15.5,56.0,0.0,0.0,0.0,1771320317.681964,0.0
182.0,15411.304284,8567.088374,4667.111298,5876.363024,4890.181707,4588.20964,-18057.102627,-20088.697384,-11117.288305,-1074.940094,3470.778879,19615.756824,8049.287862,15731.135396,9026.103798,-4285.343502,0.001875,-0.013625,1.004875,192.0,0.0,0.0,0.0,0.0,0.0,0.0,0.0,0.0,0.0,1771320317.68201,0.0
184.0,14951.215977,8107.514156,4209.325219,5414.821853,4434.183769,4127.786056,-18513.011159,-20546.505814,-11489.936589,-1446.515494,3098.331761,19244.404941,7679.969988,15371.182903,8842.841845,-4660.361071,0.001875,-0.013625,1.004875,192.0,0.0,0.0,0.0,0.0,0.0,0.0,0.0,0.0,0.0,1771320317.682052,0.0
186.0,15443.870776,8601.666522,4702.404702,5906.761397,4922.927013,4612.438931,-18021.339836,-20054.007477,-11409.492661,-1366.987987,3179.982684,19321.093776,7758.02228,15443.803721,8702.718759,-4578.777203,0.001875,-0.013625,1.004875,192.0,0.0,0.0,0.0,0.0,0.0,0.0,0.0,0.0,0.0,1771320317.682108,0.0
188.0,15092.903685,8251.593501,4342.698078,5551.189846,4566.103764,4253.939301,-18379.459486,-20408.148516,-11197.195792,-1150.86897,3391.050207,19533.547107,7968.620416,15650.825578,9067.722746,-4372.850582,0.001875,-0.013625,1.004875,192.0,0.0,0.0,0.0,0.0,0.0,0.0,0.0,0.0,0.0,1771320317.682156,0.0
190.0,15160.048325,8318.201699,4414.916565,5618.200376,4633.091942,4328.392962,-18310.414947,-20340.713303,-11666.671832,-1625.396505,2918.668439,19060.65125,7494.159936,15174.84518,8572.385737,-4850.037974,0.002938,-0.013813,1.010438,192.0,0.0,16.0,127.5,72.0,15.5,96.0,0.0,0.0,0.0,1771320317.682198,0.0
192.0,15411.214878,8574.106821,4668.921789,5873.323187,4887.611257,4585.259209,-18056.029744,-20088.00448,-11142.635184,-1094.609629,3445.789629,19589.873503,8024.991515,15709.431852,8987.94937,-4321.95566,0.002938,-0.013813,1.010438,192.0,0.0,0.0,0.0,0.0,0.0,0.0,0.0,0.0,0.0,1771320317.68221,0.0
194.0,14977.099297,8139.85713,4231.609909,5437.419467,4451.193446,4148.439067,-18493.095755,-20523.975256,-11485.756813,-1431.830398,3104.277325,19246.796578,7686.049662,15373.552188,8845.054668,-4663.311501,0.002938,-0.013813,1.010438,192.0,0.0,0.0,0.0,0.0,0.0,0.0,0.0,0.0,0.0,1771320317.682222,0.0
196.0,15525.812271,8687.765442,4780.322883,5986.646531,4997.827708,4695.676827,-17946.30503,-19975.37404,-11361.391707,-1309.87928,3229.000059,19367.093666,7808.738388,15493.648111,8739.062695,-4540.511017,0.002938,-0.013813,1.010438,192.0,0.0,0.0,0.0,0.0,0.0,0.0,0.0,0.0,0.0,1771320317.682234,0.0
198.0,15139.015334,8297.883963,4395.336437,5602.934134,4616.439893,4303.336656,-18327.625791,-20359.064085,-11127.994791,-1077.823469,3462.776955,19603.597475,8042.515283,15726.866213,9140.142398,-4307.851709,0.002938,-0.013813,1.010438,192.0,0.0,0.0,0.0,0.0,0.0,0.0,0.0,0.0,0.0,1771320317.682245,0.0
200.0,15176.275692,8333.780865,4436.977737,5639.52394,4651.330966,4338.898282,-18288.331424,-20322.697797,-11637.055771,-1590.036045,2951.279634,19093.217742,7531.979088,15212.262,8615.591659,-4818.052628,0.002938,-0.013813,1.010438,192.0,0.0,0.0,127.5,64.0,15.5,72.0,0.0,0.0,0.0,1771320317.682257,0.0
202.0,15404.554058,8560.807533,4661.702175,5866.818829,4879.922256,4574.731538,-18062.176473,-20095.022928,-11160.248358,-1111.90988,3431.529216,19572.327384,8011.46871,15689.784669,8983.859001,-4331.969241,0.002938,-0.013813,1.010438,192.0,0.0,0.0,0.0,0.0,0.0,0.0,0.0,0.0,0.0,1771320317.682269,0.0
204.0,15023.322704,8179.933808,4274.569961,5481.899438,4496.589839,4192.337894,-18447.229975,-20474.622604,-11444.048458,-1396.693456,3152.691204,19289.130782,7723.31002,15405.001093,8873.039052,-4615.367009,0.002938,-0.013813,1.010438,192.0,0.0,0.0,0.0,0.0,0.0,0.0,0.0,0.0,0.0,1771320317.68228,0.0
206.0,15508.422614,8666.508933,4763.514371,5966.552313,4983.611999,4672.52042,-17960.453684,-19988.159238,-11348.092419,-1302.525556,3247.417897,19384.371565,7814.549841,15509.070815,8758.642824,-4521.981421,0.002938,-0.013813,1.010438,192.0,0.0,0.0,0.0,0.0,0.0,0.0,0.0,0.0,0.0,1771320317.682292,0.0
208.0,15158.550758,8316.435911,4409.73096,5619.809701,4637.15996,4320.145168,-18309.051491,-20338.522832,-11134.76737,-1084.506641,3460.810001,19600.445879,8031.853501,15723.602858,9132.341639,-4303.470767,0.002938,-0.013813,1.010438,192.0,0.0,0.0,0.0,0.0,0.0,0.0,0.0,0.0,0.0,1771320317.682303,0.0
210.0,15239.464073,8397.818613,4491.270124,5703.807557,4717.827406,4409.619201,-18227.869955,-20260.783465,-11611.977114,-1558.31892,2981.678007,19125.717178,7552.877969,15246.2143,8634.747104,-4774.980816,0.002938,-0.013813,1.010438,192.0,0.0,0.0,0.0,0.0,0.0,0.0,0.0,0.0,0.0,1771320317.682314,0.0
212.0,15407.504488,8566.618987,4658.572931,5869.165763,4891.053425,4580.677102,-18064.009316,-20096.229922,-11089.192163,-1036.293928,3499.74674,19644.836443,8076.646397,15775.838885,9050.60131,-4256.845028,0.004,-0.014,1.008,192.0,0.0,16.0,127.5,72.0,15.5,64.0,0.0,0.0,0.0,1771320317.682326,0.0
214.0,14960.067267,8120.008781,4205.61483,5416.855862,4437.40242,4135.855035,-18518.688502,-20546.796387,-11515.775206,-1459.099526,3072.649607,19219.66156,7653.326708,15353.010935,8819.886603,-4680.097661,0.004,-0.014,1.008,192.0,0.0,0.0,0.0,0.0,0.0,0.0,0.0,0.0,0.0,1771320317.682337,0.0
216.0,15452.856177,8610.428406,4696.526193,5906.1579,4921.876481,4626.453474,-18029.118243,-20056.689686,-11387.476192,-1337.126057,3196.791195,19340.048056,7772.260341,15460.83575,8712.97821,-4566.81902,0.004,-0.014,1.008,192.0,0.0,0.0,0.0,0.0,0.0,0.0,0.0,0.0,0.0,1771320317.682349,0.0
218.0,15116.507127,8275.845143,4359.50659,5573.362776,4584.007512,4285.209392,-18358.62766,-20389.9989,-11218.094673,-1164.525886,3371.537134,19514.056386,7941.865378,15634.419398,9045.48276,-4396.945762,0.004,-0.014,1.008,192.0,0.0,0.0,0.0,0.0,0.0,0.0,0.0,0.0,0.0,1771320317.682362,0.0
220.0,15219.235744,8377.590284,4468.001958,5676.270208,4689.463042,4386.552201,-18251.38399,-20288.030241,-11603.841079,-1553.021556,2982.952056,19125.448957,7559.56114,15252.271623,8626.968697,-4777.931247,0.004,-0.014,1.008,192.0,0.0,0.0,0.0,0.0,0.0,0.0,0.0,0.0,0.0,1771320317.682374,0.0
222.0,15435.421817,8598.514926,4683.338664,5894.110309,4907.996047,4601.017189,-18036.986057,-20070.033678,-11129.246489,-1077.398786,3459.960635,19603.061033,8036.346201,15728.989628,9010.591687,-4303.023732,0.004,-0.018,1.008,192.0,0.0,16.0,127.5,56.0,15.5,64.0,0.0,0.0,0.0,1771320317.682385,0.0
224.0,14971.220788,8133.241014,4221.015182,5429.462246,4444.487923,4141.979413,-18502.192915,-20532.625381,-11459.739382,-1404.807139,3133.625166,19275.719735,7708.580221,15405.045796,8867.76404,-4634.589509,0.004,-0.018,1.008,192.0,0.0,0.0,0.0,0.0,0.0,0.0,0.0,0.0,0.0,1771320317.682412,0.0
226.0,15495.68212,8657.322366,4742.950766,5950.526112,4966.177638,4659.33289,-17979.787943,-20009.505154,-11388.034986,-1338.467161,3202.401483,19341.344457,7775.32253,15467.563625,8711.212422,-4566.796668,0.004,-0.018,1.008,192.0,0.0,0.0,0.0,0.0,0.0,0.0,0.0,0.0,0.0,1771320317.682424,0.0
228.0,15138.59065,8301.884926,4384.138213,5594.462823,4609.622611,4305.281258,-18334.331314,-20364.428504,-11159.711916,-1099.750531,3435.306661,19575.188407,8006.797195,15706.906105,9105.810118,-4333.153884,0.004,-0.018,1.008,192.0,0.0,0.0,0.0,0.0,0.0,0.0,0.0,0.0,0.0,1771320317.682435,0.0
230.0,15220.308628,8382.798241,4469.320711,5677.723071,4687.987827,4387.379216,-18252.680391,-20283.761058,-11622.191861,-1562.789269,2972.245571,19115.390672,7538.818722,15240.291088,8618.184461,-4793.711578,0.004,-0.018,1.008,192.0,0.0,0.0,0.0,0.0,0.0,0.0,0.0,0.0,0.0,1771320317.682447,0.0
232.0,15424.804738,8585.953246,4674.643835,5881.146298,4902.028132,4586.019169,-18048.787778,-20078.415582,-11114.874317,-1057.595141,3479.607818,19618.796661,8048.662013,15743.697076,9018.325391,-4289.076244,0.006,-0.018,1.006,192.0,0.0,24.0,127.5,56.0,15.5,56.0,0.0,0.0,0.0,1771320317.682458,0.0
234.0,14977.00989,8139.007764,4232.235757,5433.798484,4462.704594,4148.036736,-18495.532095,-20527.752701,-11476.927874,-1423.224976,3116.011991,19253.882081,7691.771709,15384.348081,8854.598862,-4651.956815,0.006,-0.018,1.006,192.0,0.0,0.0,0.0,0.0,0.0,0.0,0.0,0.0,0.0,1771320317.682469,0.0
236.0,15512.691797,8674.488506,4766.263636,5970.128592,4992.776214,4683.606885,-17960.677202,-19993.993043,-11366.197332,-1316.182472,3222.406295,19360.544605,7803.463376,15491.144716,8733.765332,-4544.981366,0.006,-0.018,1.006,192.0,0.0,0.0,0.0,0.0,0.0,0.0,0.0,0.0,0.0,1771320317.68248,0.0
238.0,15133.963839,8297.816908,4384.317027,5594.03814,4611.455454,4309.796311,-18338.287573,-20369.904681,-11146.882015,-1091.502737,3443.353289,19586.856018,8023.829225,15725.860384,9118.237688,-4321.396866,0.006,-0.018,1.006,192.0,0.0,0.0,0.0,0.0,0.0,0.0,0.0,0.0,0.0,1771320317.682492,0.0
240.0,15194.224142,8356.490237,4448.086554,5652.4656,4665.077289,4366.793259,-18277.334366,-20308.817364,-11629.836158,-1576.110909,2962.410803,19105.578256,7534.504835,15229.137567,8609.400226,-4807.636715,0.006,-0.018,1.006,192.0,0.0,0.0,0.0,0.0,0.0,0.0,0.0,0.0,0.0,1771320317.682503,0.0
242.0,15424.82709,8585.193287,4676.566085,5882.085071,4896.507251,4590.757738,-18047.446674,-20079.175541,-11139.751809,-1091.592144,3452.450449,19593.270969,8025.863233,15711.823489,8991.346835,-4318.647601,0.002,-0.014,1.008,192.0,0.0,8.0,127.5,72.0,15.5,64.0,0.0,0.0,0.0,1771320317.682514,0.0
244.0,14986.509381,8147.970813,4237.39901,5442.470961,4458.100135,4147.299128,-18486.591397,-20517.537954,-11461.192246,-1411.602069,3132.060544,19274.691555,7704.869831,15401.76009,8862.913711,-4632.242576,0.002,-0.014,1.008,192.0,0.0,0.0,0.0,0.0,0.0,0.0,0.0,0.0,0.0,1771320317.682526,0.0
246.0,15478.761849,8638.435142,4729.115037,5932.823531,4948.050374,4635.550634,-17995.568275,-20025.777224,-11385.308073,-1338.534217,3206.558908,19349.547547,7781.312797,15471.609291,8722.254184,-4561.521657,0.002,-0.014,1.008,192.0,0.0,0.0,0.0,0.0,0.0,0.0,0.0,0.0,0.0,1771320317.682537,0.0
248.0,15153.208691,8313.73135,4403.58423,5608.455015,4626.185253,4317.507662,-18320.048549,-20348.715228,-11172.027728,-1124.918595,3420.018067,19564.83955,8000.046968,15679.525218,9088.800441,-4355.975015,0.002,-0.014,1.008,192.0,0.0,0.0,0.0,0.0,0.0,0.0,0.0,0.0,0.0,1771320317.682549,0.0
250.0,15216.598239,8374.349281,4470.997092,5667.374214,4687.339626,4378.639684,-18257.284851,-20289.393698,-11593.872201,-1548.953539,2999.715865,19140.759902,7574.872085,15255.110294,8647.420543,-4777.819488,0.002,-0.014,1.008,192.0,0.0,0.0,0.0,0.0,0.0,0.0,0.0,0.0,0.0,1771320317.68257,0.0
252.0,15446.843558,8608.059121,4699.56603,5899.519432,4920.33421,4610.24846,-18027.553621,-20058.969564,-11121.244564,-1075.990626,3472.924646,19611.957027,8049.153751,15729.101387,9011.686923,-4305.30361,0.004,-0.008,1.008,192.0,0.0,16.0,127.5,96.0,15.5,64.0,0.0,0.0,0.0,1771320317.682582,0.0
254.0,14996.590018,8157.336194,4248.038441,5452.395135,4471.332368,4165.962835,-18476.466057,-20509.603084,-11442.394429,-1392.625438,3153.361756,19294.204628,7734.32943,15415.707578,8881.756232,-4622.452512,0.004,-0.008,1.008,192.0,0.0,0.0,0.0,0.0,0.0,0.0,0.0,0.0,0.0,1771320317.682593,0.0
0.0,15476.638434,8635.752933,4725.449351,5933.292917,4946.351641,4645.631271,-17997.155249,-20029.644076,-11399.501431,-1351.967615,3194.421911,19337.522309,7773.176762,15457.237119,8713.581707,-4570.641168,0.004,-0.008,1.008,192.0,0.0,0.0,0.0,0.0,0.0,0.0,0.0,0.0,0.0,1771320317.682604,0.0
2.0,15162.41761,8322.627344,4408.635725,5619.049742,4638.523416,4331.231634,-18313.387729,-20344.289582,-11150.815922,-1095.570754,3447.890693,19596.199047,8022.354009,15718.551364,9106.815947,-4319.005229,0.004,-0.008,1.008,192.0,0.0,0.0,0.0,0.0,0.0,0.0,0.0,0.0,0.0,1771320317.682616,0.0
4.0,15219.81689,8378.462002,4470.795926,5671.933969,4700.32599,4383.668826,-18257.240147,-20290.600692,-11607.730282,-1554.429716,2984.494327,19129.092291,7564.746745,15262.307556,8637.228148,-4787.363683,0.004,-0.008,1.008,192.0,0.0,0.0,0.0,0.0,0.0,0.0,0.0,0.0,0.0,1771320317.682628,0.0
6.0,15424.335352,8581.572304,4675.627312,5882.19683,4906.520832,4602.604163,-18049.950069,-20082.975338,-11121.423378,-1070.26858,3472.254094,19614.393367,8051.813609,15740.321963,9018.615963,-4290.618514,0.008,-0.008,1.008,192.0,0.0,32.0,127.5,96.0,15.5,64.0,0.0,0.0,0.0,1771320317.682639,0.0
8.0,14982.553122,8141.175883,4229.397086,5440.079324,4460.134144,4160.553713,-18494.436859,-20524.444643,-11473.55276,-1422.621479,3119.878843,19262.509854,7697.851383,15394.786345,8856.923444,-4642.54673,0.008,-0.008,1.008,192.0,0.0,0.0,0.0,0.0,0.0,0.0,0.0,0.0,0.0,1771320317.682651,0.0
10.0,15491.189419,8647.442895,4742.548435,5950.548464,4968.703385,4668.988844,-17983.028946,-20015.070738,-11382.312939,-1330.733458,3207.676495,19352.319163,7789.694701,15477.10782,8726.523367,-4557.051308,0.008,-0.008,1.008,192.0,0.0,0.0,0.0,0.0,0.0,0.0,0.0,0.0,0.0,1771320317.682662,0.0
12.0,15150.347668,8308.165766,4405.551184,5609.997286,4627.593413,4322.290936,-18318.998017,-20351.17392,-11150.413591,-1096.889507,3443.75562,19587.951253,8028.25487,15718.081977,9117.634191,-4324.101427,0.008,-0.008,1.008,192.0,0.0,0.0,0.0,0.0,0.0,0.0,0.0,0.0,0.0,1771320317.682674,0.0
14.0,15195.833468,8355.864388,4448.466533,5649.224597,4666.150172,4359.998329,-18278.720174,-20312.147774,-11627.735094,-1578.033159,2962.589617,19109.400405,7547.111219,15233.987896,8624.599412,-4809.603668,0.008,-0.008,1.008,192.0,0.0,0.0,0.0,0.0,0.0,0.0,0.0,0.0,0.0,1771320317.682685,0.0
16.0,15437.411122,8599.744272,4691.452347,5896.457243,4911.460568,4600.279582,-18034.080331,-20069.385477,-11121.468082,-1061.372585,3469.102498,19618.081405,8050.271338,15738.802044,9010.189356,-4300.162709,0.009,-0.009,1.008,192.0,0.0,40.0,127.5,88.0,15.5,64.0,0.0,0.0,0.0,1771320317.682696,0.0
18.0,14975.378212,8130.536453,4236.661403,5439.185254,4463.978644,4149.131971,-18488.781868,-20524.578753,-11455.336089,-1406.416465,3137.894349,19285.487447,7723.220613,15415.327598,8876.011834,-4631.102637,0.009,-0.009,1.008,192.0,0.0,0.0,0.0,0.0,0.0,0.0,0.0,0.0,0.0,1771320317.682708,0.0
20.0,15467.87655,8621.671334,4730.366734,5930.789522,4958.600397,4645.407754,-17997.42347,-20032.90743,-11395.9028,-1363.322301,3195.003056,19334.97421,7780.776355,15459.114666,8722.544756,-4572.764584,0.009,-0.009,1.008,192.0,0.0,0.0,0.0,0.0,0.0,0.0,0.0,0.0,0.0,1771320317.682719,0.0
22.0,15156.092066,8309.596277,4412.793149,5620.234385,4643.552559,4334.874968,-18310.102023,-20344.423693,-11154.995698,-1112.289859,3437.072448,19579.524646,8021.526995,15700.021768,9105.407787,-4331.432799,0.009,-0.009,1.008,192.0,0.0,0.0,0.0,0.0,0.0,0.0,0.0,0.0,0.0,1771320317.682731,0.0
24.0,15234.390227,8382.395909,4495.896935,5702.041769,4724.734095,4428.014687,-18227.758196,-20264.985593,-11595.213305,-1566.14203,2996.631324,19134.814338,7580.035338,15266.71085,8649.163979,-4759.64752,0.009,-0.009,1.008,192.0,0.0,0.0,0.0,0.0,0.0,0.0,0.0,0.0,0.0,1771320317.682742,0.0
26.0,15462.646242,8611.367179,4720.487263,5927.593223,4952.274853,4643.30669,-18002.273798,-20037.243669,-11074.641177,-1045.79342,3513.515414,19650.804359,8099.512231,15781.315062,9057.932682,-4242.405801,0.0075,-0.0055,1.008,192.0,0.0,24.0,127.5,120.0,15.5,64.0,0.0,0.0,0.0,1771320317.682754,0.0
28.0,14984.676538,8137.912528,4248.083144,5453.177447,4478.686092,4168.868562,-18477.78481,-20513.089956,-11434.124283,-1401.700247,3157.452125,19297.512686,7742.644279,15429.118625,8898.207116,-4603.542936,0.0075,-0.0055,1.008,192.0,0.0,0.0,0.0,0.0,0.0,0.0,0.0,0.0,0.0,1771320317.682765,0.0
30.0,15413.181831,8561.433382,4688.613676,5887.96358,4915.193309,4609.667314,-18041.992848,-20082.327137,-11411.79489,-1374.632284,3178.306303,19318.724491,7763.699623,15456.298346,8716.353323,-4581.884096,0.0075,-0.0055,1.008,192.0,0.0,0.0,0.0,0.0,0.0,0.0,0.0,0.0,0.0,1771320317.682777,0.0
32.0,15106.538249,8256.868512,4374.929294,5581.677625,4607.678009,4301.347351,-18350.111645,-20388.501333,-11207.388187,-1177.914581,3384.657608,19521.030131,7974.253055,15659.118075,9065.621682,-4374.973997,0.0075,-0.0055,1.008,192.0,0.0,0.0,0.0,0.0,0.0,0.0,0.0,0.0,0.0,1771320317.682788,0.0
34.0,15226.120082,8380.965397,4489.504336,5697.9514,4713.714685,4414.134254,-18236.497728,-20270.819398,-11604.422224,-1566.723176,2982.393263,19122.654989,7570.625254,15261.5923,8633.02602,-4779.585276,0.0075,-0.0055,1.008,192.0,0.0,0.0,0.0,0.0,0.0,0.0,0.0,0.0,0.0,1771320317.6828,0.0
36.0,15398.988473,8548.871702,4663.847943,5870.864495,4886.001931,4578.598389,-18061.930604,-20095.291149,-11111.745073,-1077.488193,3473.99753,19617.969646,8062.475391,15744.725257,9026.863757,-4287.556325,0.00575,-0.00475,1.009,192.0,0.0,16.0,127.5,112.0,15.5,72.0,0.0,0.0,0.0,1771320317.682811,0.0
38.0,14965.118762,8112.632705,4230.425266,5436.659507,4454.076821,4147.656756,-18495.286226,-20529.205564,-11465.528484,-1436.993651,3119.767084,19265.773209,7710.793043,15385.689185,8856.476409,-4649.766344,0.00575,-0.00475,1.009,192.0,0.0,0.0,0.0,0.0,0.0,0.0,0.0,0.0,0.0,1771320317.682822,0.0
40.0,15436.517052,8587.383758,4704.014028,5907.543708,4924.692801,4618.943288,-18022.904458,-20055.661506,-11407.972742,-1377.538011,3177.166364,19321.294942,7763.766678,15455.426628,8701.243544,-4593.328189,0.00575,-0.00475,1.009,192.0,0.0,0.0,0.0,0.0,0.0,0.0,0.0,0.0,0.0,1771320317.682834,0.0
42.0,15150.012392,8297.638094,4414.335419,5618.870928,4642.747896,4329.957584,-18308.984436,-20341.83089,-11156.716783,-1127.064362,3430.724553,19571.142742,8018.978896,15692.62334,9093.360197,-4339.971166,0.00575,-0.00475,1.009,192.0,0.0,0.0,0.0,0.0,0.0,0.0,0.0,0.0,0.0,1771320318.16277,0.0
44.0,15192.257189,8338.20651,4460.625882,5657.740612,4682.601056,4372.180029,-18267.14197,-20301.262474,-11606.076253,-1578.077862,2978.816984,19122.811451,7567.585417,15247.130721,8635.685877,-4785.843764,0.00575,-0.00475,1.009,192.0,0.0,0.0,0.0,0.0,0.0,0.0,0.0,0.0,0.0,1771320318.16283,0.0
46.0,15410.186697,8556.292481,4678.398928,5881.280408,4905.71617,4594.915163,-18047.536081,-20080.941329,-11119.098797,-1097.068321,3467.292007,19610.481812,8054.719335,15732.498852,9008.20005,-4303.89545,0.00575,-0.00475,1.009,192.0,0.0,0.0,127.5,104.0,15.5,72.0,0.0,0.0,0.0,1771320318.162872,0.0
48.0,14961.408372,8109.525813,4227.094856,5435.16194,4460.201199,4149.489599,-18496.180295,-20531.127814,-11474.625644,-1444.146209,3112.189843,19258.710058,7700.10891,15374.22274,8850.284976,-4651.487428,0.00575,-0.00475,1.009,192.0,0.0,0.0,0.0,0.0,0.0,0.0,0.0,0.0,0.0,1771320318.162914,0.0
50.0,15449.078733,8593.597542,4712.462987,5920.217147,4942.328327,4638.344602,-18013.852002,-20050.095922,-11390.292512,-1364.797516,3195.785367,19335.756521,7786.565457,15462.378021,8717.515614,-4564.047404,0.00575,-0.00475,1.009,192.0,0.0,0.0,0.0,0.0,0.0,0.0,0.0,0.0,0.0,1771320318.162956,0.0
52.0,15130.38756,8278.728518,4392.341303,5600.564849,4626.744047,4313.931383,-18332.342009,-20366.618975,-11166.015108,-1132.562892,3422.365001,19561.553843,8007.981838,15693.338596,9087.816964,-4344.396811,0.00575,-0.00475,1.009,192.0,0.0,0.0,0.0,0.0,0.0,0.0,0.0,0.0,0.0,1771320318.162998,0.0
54.0,15177.169761,8323.923746,4439.659946,5641.31208,4671.514591,4354.320986,-18289.069031,-20321.58021,-11632.42896,-1601.703656,2955.906445,19093.463611,7540.159826,15217.313494,8617.960944,-4814.990439,0.00575,-0.00475,1.009,192.0,0.0,0.0,0.0,0.0,0.0,0.0,0.0,0.0,0.0,1771320318.16304,0.0
56.0,15412.980665,8562.550969,4670.397004,5880.207524,4901.446986,4586.622666,-18052.028781,-20085.814009,-11136.130826,-1103.013885,3451.131696,19592.13103,8031.831149,15715.779747,8992.509126,-4321.933308,0.003875,-0.007375,1.0075,192.0,0.0,8.0,127.5,88.0,15.5,56.0,0.0,0.0,0.0,1771320318.163054,0.0
58.0,14972.025451,8120.76874,4230.849949,5437.97826,4458.301301,4142.851131,-18491.955816,-20527.931515,-11462.309833,-1422.599128,3127.098456,19273.149284,7708.915497,15393.959331,8859.806819,-4647.486466,0.003875,-0.007375,1.0075,192.0,0.0,0.0,0.0,0.0,0.0,0.0,0.0,0.0,0.0,1771320318.163066,0.0
60.0,15454.286689,8599.274886,4706.919754,5907.18608,4933.14176,4614.539995,-18021.183374,-20053.135759,-11400.462556,-1366.809173,3186.688207,19327.709893,7765.599521,15469.843503,8708.23964,-4587.114404,0.003875,-0.007375,1.0075,192.0,0.0,0.0,0.0,0.0,0.0,0.0,0.0,0.0,0.0,1771320318.163078,0.0
62.0,15122.251525,8268.513771,4371.174201,5572.625169,4597.642076,4287.064587,-18354.939622,-20385.193275,-11176.006338,-1143.068211,3408.462215,19547.181672,7985.943018,15667.63409,9075.143525,-4373.096451,0.003875,-0.007375,1.0075,192.0,0.0,0.0,0.0,0.0,0.0,0.0,0.0,0.0,0.0,1771320318.16309,0.0
64.0,15226.321247,8370.683595,4478.440223,5674.035033,4698.850775,4391.581344,-18250.042886,-20282.464657,-11616.648628,-1589.790176,2968.669292,19105.466498,7544.18314,15219.660428,8613.714112,-4807.636715,0.003875,-0.007375,1.0075,192.0,0.0,0.0,0.0,0.0,0.0,0.0,0.0,0.0,0.0,1771320318.163101,0.0
66.0,15449.928099,8594.402205,4699.990714,5901.888716,4925.519815,4609.555556,-18027.106586,-20058.678992,-11092.321407,-1066.804059,3493.912935,19631.626562,8071.013757,15744.613498,9029.903594,-4285.969351,0.003938,-0.007687,1.00475,192.0,0.0,16.0,127.5,96.0,15.5,40.0,0.0,0.0,0.0,1771320318.163113,0.0
68.0,14982.955454,8128.904775,4240.572958,5443.499141,4466.23617,4151.367146,-18484.825609,-20521.605971,-11433.967821,-1403.130758,3153.875846,19294.137573,7735.692887,15408.197392,8888.841735,-4620.642021,0.003938,-0.007687,1.00475,192.0,0.0,0.0,0.0,0.0,0.0,0.0,0.0,0.0,0.0,1771320318.163125,0.0
70.0,15484.081564,8630.075589,4740.55913,5945.005232,4963.406022,4658.416469,-17982.984243,-20021.88802,-11387.677358,-1357.466144,3198.691094,19337.343495,7779.792879,15461.796875,8722.902384,-4568.316587,0.003938,-0.007687,1.00475,192.0,0.0,0.0,0.0,0.0,0.0,0.0,0.0,0.0,0.0,1771320318.163136,0.0
72.0,15153.789837,8302.868402,4412.726094,5618.334486,4637.249367,4339.747648,-18310.727872,-20348.514062,-11149.340707,-1111.976935,3441.051059,19582.206855,8019.515338,15707.420195,9115.197851,-4322.380343,0.003938,-0.007687,1.00475,192.0,0.0,0.0,0.0,0.0,0.0,0.0,0.0,0.0,0.0,1771320318.163148,0.0
74.0,15210.675026,8359.172447,4469.007786,5672.313949,4690.670036,4395.112919,-18256.144912,-20290.868913,-11599.773061,-1562.275179,2989.2776,19135.015504,7567.384251,15253.143341,8648.180502,-4771.851572,0.003938,-0.007687,1.00475,192.0,0.0,0.0,0.0,0.0,0.0,0.0,0.0,0.0,0.0,1771320318.16316,0.0
76.0,15467.675384,8618.363275,4720.353153,5928.040257,4946.709269,4646.435934,-18001.446784,-20032.549802,-11099.809241,-1062.177248,3488.436757,19636.454539,8066.319891,15754.694135,9024.807397,-4276.425156,0.003969,-0.009844,1.004375,192.0,0.0,16.0,127.5,80.0,15.5,48.0,0.0,0.0,0.0,1771320318.163171,0.0
78.0,15003.004969,8153.223473,4252.441734,5461.984034,4481.055377,4175.395271,-18467.257138,-20498.181343,-11423.06017,-1381.740139,3166.012843,19320.1103,7746.131151,15433.454863,8901.090491,-4603.095901,0.003969,-0.009844,1.004375,192.0,0.0,0.0,0.0,0.0,0.0,0.0,0.0,0.0,0.0,1771320318.163183,0.0
80.0,15515.128137,8666.441878,4771.136316,5979.046938,4996.911287,4691.519402,-17949.926013,-19986.728726,-11361.771686,-1321.926871,3224.999097,19376.436696,7806.212641,15505.606294,8741.968422,-4541.203921,0.003969,-0.009844,1.004375,192.0,0.0,0.0,0.0,0.0,0.0,0.0,0.0,0.0,0.0,1771320318.163194,0.0
82.0,15162.41761,8314.960696,4417.777588,5627.185777,4646.190065,4342.787485,-18301.720119,-20338.142853,-11124.016181,-1081.779728,3465.056832,19617.388501,8045.711582,15730.218974,9144.590395,-4293.479537,0.003969,-0.009844,1.004375,192.0,0.0,0.0,0.0,0.0,0.0,0.0,0.0,0.0,0.0,1771320318.163206,0.0
84.0,15189.552628,8340.307574,4446.387821,5647.794085,4668.318292,4374.459907,-18277.870807,-20312.10307,-11605.673922,-1567.505487,2980.202792,19131.193355,7561.639853,15249.67882,8648.381668,-4778.825316,0.003969,-0.009844,1.004375,192.0,0.0,0.0,0.0,0.0,0.0,0.0,0.0,0.0,0.0,1771320318.163217,0.0
86.0,15431.689075,8582.80165,4685.126804,5885.683702,4909.806539,4607.320381,-18040.495281,-20072.201797,-11146.390277,-1110.032333,3437.497132,19585.581968,8020.856443,15705.341483,8992.129146,-4324.548462,0.003969,-0.009844,1.004375,192.0,0.0,0.0,0.0,0.0,0.0,0.0,0.0,0.0,0.0,1771320318.163229,0.0
88.0,15005.70953,8151.010651,4257.604987,5460.330005,4481.636522,4175.708196,-18465.245481,-20497.711956,-11425.787082,-1391.373741,3158.41325,19307.16864,7736.296384,15424.380055,8892.909752,-4606.135739,0.004,-0.008,1.01,192.0,0.0,16.0,127.5,96.0,15.5,72.0,0.0,0.0,0.0,1771320318.163241,0.0
90.0,15461.998041,8611.322476,4718.207385,5921.424141,4939.601414,4639.685707,-18004.710138,-20040.283506,-11387.632655,-1358.963711,3198.847556,19344.741922,7775.881323,15459.204073,8729.585556,-4565.030881,0.004,-0.008,1.01,192.0,0.0,0.0,0.0,0.0,0.0,0.0,0.0,0.0,0.0,1771320318.163253,0.0
92.0,15144.022124,8291.960751,4394.017684,5603.64939,4623.435989,4319.876947,-18324.854174,-20360.807521,-11165.880998,-1129.992441,3423.102608,19568.840512,8001.142204,15686.945997,9095.573019,-4341.446381,0.004,-0.008,1.01,192.0,0.0,0.0,0.0,0.0,0.0,0.0,0.0,0.0,0.0,1771320318.163265,0.0
94.0,15214.988913,8364.514514,4467.890199,5674.683234,4693.419301,4395.314085,-18255.452008,-20289.974843,-11602.522326,-1567.438432,2981.834469,19129.226402,7560.343452,15242.459207,8636.244671,-4781.038139,0.004,-0.008,1.01,192.0,0.0,0.0,0.0,0.0,0.0,0.0,0.0,0.0,0.0,1771320318.163276,0.0
96.0,15449.30225,8600.526583,4700.124824,5908.236612,4932.940594,4630.722658,-18021.339836,-20054.678029,-11113.37675,-1074.001321,3471.605894,19618.930771,8053.825266,15741.752475,9016.626658,-4289.836203,0.004,-0.008,1.01,192.0,0.0,0.0,0.0,0.0,0.0,0.0,0.0,0.0,0.0,1771320318.163288,0.0
98.0,14982.754288,8127.273098,4238.874225,5443.767362,4473.187563,4170.366129,-18481.606958,-20514.296951,-11437.454693,-1399.062741,3152.847666,19297.669148,7732.071904,15418.725064,8893.580305,-4606.135739,0.004,-0.006,1.008,192.0,0.0,16.0,127.5,104.0,15.5,64.0,0.0,0.0,0.0,1771320318.1633,0.0
100.0,15472.101029,8618.318572,4725.114074,5929.917804,4956.387574,4655.846018,-17998.45165,-20031.342808,-11393.421756,-1368.396147,3193.840765,19333.476643,7773.0203,15460.768695,8718.23087,-4564.181514,0.004,-0.006,1.008,192.0,0.0,0.0,0.0,0.0,0.0,0.0,0.0,0.0,0.0,1771320318.163311,0.0
102.0,15151.711124,8301.057911,4408.83689,5614.221765,4643.284338,4336.126666,-18314.259447,-20351.844472,-11143.886881,-1108.087731,3442.548626,19588.42064,8024.92446,15714.14807,9110.906316,-4318.580546,0.004,-0.006,1.008,192.0,0.0,0.0,0.0,0.0,0.0,0.0,0.0,0.0,0.0,1771320318.163323,0.0
104.0,15190.826677,8336.28426,4450.589949,5650.588054,4679.382405,4372.180029,-18273.9369,-20313.37712,-11622.571841,-1588.694941,2961.360271,19108.483983,7545.926576,15228.578774,8632.847206,-4793.510412,0.004,-0.006,1.008,192.0,0.0,0.0,0.0,0.0,0.0,0.0,0.0,0.0,0.0,1771320318.163334,0.0
106.0,15419.082692,8565.322586,4673.123917,5874.954864,4904.06214,4597.083282,-18050.978249,-20085.836361,-11132.800416,-1103.818548,3450.707012,19596.176695,8039.229576,15719.758358,9003.237963,-4309.438683,0.004,-0.006,1.008,192.0,0.0,0.0,0.0,0.0,0.0,0.0,0.0,0.0,0.0,1771320318.163346,0.0
108.0,15011.409224,8160.107811,4258.566112,5460.01708,4488.945542,4181.698463,-18465.49135,-20495.342671,-11436.962955,-1404.516566,3148.757297,19295.121049,7729.792026,15409.493793,8878.001139,-4621.670201,0.006,-0.006,1.008,192.0,0.0,24.0,127.5,104.0,15.5,64.0,0.0,0.0,0.0,1771320318.163358,0.0
110.0,15491.770565,8634.545938,4743.554264,5942.010098,4969.083365,4662.886818,-17984.146534,-20016.098918,-11357.346041,-1335.650842,3223.680344,19366.959556,7800.334132,15477.197227,8737.45337,-4546.881264,0.006,-0.006,1.008,192.0,0.0,0.0,0.0,0.0,0.0,0.0,0.0,0.0,0.0,1771320318.163369,0.0
112.0,15153.946299,8299.76151,4403.919507,5605.258716,4633.114294,4320.793369,-18320.83086,-20354.213757,-11158.147294,-1133.613424,3425.091913,19567.991146,8005.746663,15682.185076,9100.602162,-4343.636852,0.006,-0.006,1.008,192.0,0.0,0.0,0.0,0.0,0.0,0.0,0.0,0.0,0.0,1771320318.163381,0.0
114.0,15237.720637,8384.318159,4487.358569,5681.031129,4710.272516,4400.991428,-18239.872842,-20271.780523,-11567.497142,-1545.019632,3012.411655,19157.367248,7591.904115,15276.165638,8662.485619,-4759.513409,0.006,-0.006,1.008,192.0,0.0,0.0,0.0,0.0,0.0,0.0,0.0,0.0,0.0,1771320318.163392,0.0
116.0,15480.237064,8625.180557,4725.516406,5916.976144,4953.213627,4633.784847,-18002.653778,-20032.080416,-11090.220343,-1070.514449,3489.353179,19632.140652,8067.370423,15740.120797,9029.657725,-4292.138433,0.006,-0.006,1.008,192.0,0.0,0.0,0.0,0.0,0.0,0.0,0.0,0.0,0.0,1771320318.163404,0.0
118.0,15032.799844,8176.312825,4279.174421,5472.846982,4509.062112,4186.235867,-18447.855824,-20479.495284,-11390.225457,-1371.950075,3191.292666,19334.191899,7768.125268,15440.674477,8922.905794,-4588.947247,0.004,-0.008,1.002,192.0,0.0,16.0,127.5,96.0,15.5,40.0,0.0,0.0,0.0,1771320318.163415,0.0
120.0,15448.989326,8591.228258,4694.067501,5891.785728,4924.223414,4615.25525,-18032.895688,-20061.897643,-11365.795,-1350.224179,3216.348972,19357.01303,7795.95319,15459.628756,8744.494169,-4566.103764,0.004,-0.008,1.002,192.0,0.0,0.0,0.0,0.0,0.0,0.0,0.0,0.0,0.0,1771320318.163427,0.0
122.0,15135.729627,8282.304797,4378.863201,5580.314169,4614.74116,4299.849784,-18344.65782,-20371.603414,-11196.614647,-1177.042863,3387.049244,19532.541279,7964.887674,15634.642915,9055.943377,-4395.492899,0.004,-0.008,1.002,192.0,0.0,0.0,0.0,0.0,0.0,0.0,0.0,0.0,0.0,1771320318.163438,0.0
124.0,15220.174518,8366.526171,4463.464554,5663.239141,4696.861469,4383.244143,-18262.939842,-20290.108954,-11606.188012,-1581.788252,2978.012321,19127.460614,7554.621405,15239.195852,8632.713095,-4800.260639,0.004,-0.008,1.002,192.0,0.0,0.0,0.0,0.0,0.0,0.0,0.0,0.0,0.0,1771320318.16345,0.0
126.0,15467.541274,8615.055217,4703.79051,5910.13651,4938.550882,4629.292146,-18020.825746,-20045.625573,-11089.326273,-1061.506696,3494.516432,19642.154234,8070.298501,15743.630021,9030.283574,-4284.963523,0.004,-0.008,1.002,192.0,0.0,0.0,0.0,0.0,0.0,0.0,0.0,0.0,0.0,1771320318.163462,0.0
128.0,14992.991387,8136.996107,4236.549644,5439.185254,4464.470382,4158.20678,-18489.139496,-20514.989855,-11437.901728,-1408.428122,3146.49977,19295.501029,7720.828977,15407.057453,8881.398604,-4631.281451,-0.002,-0.006,1.01,192.0,127.5,120.0,127.5,104.0,15.5,72.0,0.0,0.0,0.0,1771320318.163473,0.0
130.0,15500.331283,8640.625613,4744.783609,5943.9547,4964.903589,4662.931521,-17981.307862,-20007.649959,-11368.656024,-1353.845162,3216.974821,19359.874053,7787.951265,15472.726878,8727.618602,-4560.202904,-0.002,-0.006,1.01,192.0,0.0,0.0,0.0,0.0,0.0,0.0,0.0,0.0,0.0,1771320318.163485,0.0
132.0,15165.949186,8313.843109,4406.91464,5603.805852,4632.846073,4313.841976,-18319.445052,-20341.428559,-11141.986983,-1120.649412,3445.789629,19591.572236,8015.559079,15689.002358,9109.587563,-4334.025602,-0.002,-0.006,1.01,192.0,0.0,0.0,0.0,0.0,0.0,0.0,0.0,0.0,0.0,1771320318.163496,0.0
134.0,15256.674916,8405.015875,4494.42172,5685.546182,4718.386199,4398.666847,-18236.430673,-20256.87191,-11584.104488,-1553.245074,3003.694475,19154.126245,7574.201533,15250.662297,8643.710154,-4780.904029,-0.002,-0.006,1.01,192.0,0.0,0.0,0.0,0.0,0.0,0.0,0.0,0.0,0.0,1771320318.163508,0.0
