Sample_index,EXG Channel 0,EXG Channel 1,EXG Channel 2,EXG Channel 3,EXG Channel 4,EXG Channel 5,EXG Channel 6,EXG Channel 7,EXG Channel 8,EXG Channel 9,EXG Channel 10,EXG Channel 11,EXG Channel 12,EXG Channel 13,EXG Channel 14,EXG Channel 15,Accel Channel 0,Accel Channel 1,Accel Channel 2,Not Used,Digital Channel 0 (D11),Digital Channel 1 (D12),Digital Channel 2 (D13),Digital Channel 3 (D17),Not Used.1,Digital Channel 4 (D18),Analog Channel 0,Analog Channel 1,Analog Channel 2,Timestamp,Marker Channel
90.0,19548.433369,10182.672463,5734.965889,5461.447592,4726.499883,6415.464749,-15854.427618,-18140.005248,-7887.774156,-7203.877831,5613.12653,19793.028509,7310.383893,18086.316357,6640.792685,-3012.143435,0.006,-0.002,1.014,192.0,0.0,0.0,0.0,0.0,0.0,0.0,0.0,0.0,0.0,1771318166.920398,101.0
92.0,19813.659169,10443.316155,5999.744654,5726.181653,4984.886048,6684.780918,-15589.291226,-17876.165256,-7964.686509,-7287.495707,5528.189901,19708.136583,7229.604689,17996.261179,6551.9445,-3096.208345,0.006,-0.002,1.014,192.0,0.0,0.0,0.0,0.0,0.0,0.0,0.0,0.0,0.0,1771318166.92045,0.0
94.0,19696.312511,10323.846081,5878.128812,5605.236364,4863.739593,6561.04166,-15713.298704,-17998.630464,-7726.707486,-7053.942329,5764.783116,19942.204051,7463.493343,18237.41415,6778.501782,-2860.084517,0.002,-0.004,1.016,192.0,0.0,8.0,127.5,112.0,15.5,96.0,0.0,0.0,0.0,1771318166.920492,0.0
96.0,19618.819013,10255.270929,5796.857869,5518.891575,4785.553191,6480.620084,-15794.882571,-18080.504904,-8028.679553,-7351.08642,5460.486467,19640.768426,7162.683566,17941.074722,6490.231334,-3167.041024,0.002,-0.004,1.016,192.0,0.0,0.0,0.0,0.0,0.0,0.0,0.0,0.0,0.0,1771318166.920538,0.0
98.0,19835.116844,10470.629987,6028.064314,5750.120372,5018.815997,6704.204584,-15565.464266,-17854.886395,-7757.6423,-7087.916981,5727.969793,19903.11085,7423.930755,18198.879742,6742.157846,-2903.312791,0.002,-0.004,1.016,192.0,0.0,0.0,0.0,0.0,0.0,0.0,0.0,0.0,0.0,1771318166.920574,0.0
100.0,19547.919279,10176.861009,5737.67045,5462.162848,4738.033383,6420.449188,-15855.545206,-18145.101445,-7886.120127,-7208.571697,5602.643562,19780.757401,7307.701684,18071.519503,6636.255281,-3020.257118,0.002,-0.004,1.016,192.0,0.0,0.0,0.0,0.0,0.0,0.0,0.0,0.0,0.0,1771318166.920613,0.0
102.0,19802.975035,10428.094617,5990.625142,5715.855147,4988.328217,6687.396072,-15598.857772,-17887.586997,-7969.670948,-7288.702701,5524.45716,19700.671101,7230.074075,18002.474964,6555.498428,-3093.749654,0.002,-0.004,1.016,192.0,0.0,0.0,0.0,0.0,0.0,0.0,0.0,0.0,0.0,1771318166.92063,0.0
104.0,19699.620569,10333.770255,5883.940266,5616.367533,4885.21962,6585.494469,-15706.034387,-17993.623673,-7739.112704,-7052.333004,5759.508104,19937.06315,7456.854875,18246.64542,6783.396814,-2857.312901,-0.002,-0.006,1.017,192.0,127.5,104.0,127.5,96.0,15.5,104.0,0.0,0.0,0.0,1771318166.920642,0.0
106.0,19594.321501,10241.144626,5793.549811,5525.194767,4791.007017,6490.253686,-15795.977807,-18084.818791,-8027.025524,-7341.318708,5466.588493,19646.781045,7164.650519,17945.567423,6502.949477,-3148.802,-0.002,-0.006,1.017,192.0,0.0,0.0,0.0,0.0,0.0,0.0,0.0,0.0,0.0,1771318166.920654,0.0
108.0,19833.596925,10474.966225,6026.723209,5754.143686,5019.37479,6719.314363,-15563.363202,-17851.913613,-7777.065966,-7098.623466,5716.682162,19893.812525,7412.598421,18199.818516,6734.446494,-2899.088311,-0.002,-0.006,1.017,192.0,0.0,0.0,0.0,0.0,0.0,0.0,0.0,0.0,0.0,1771318166.920666,0.0
110.0,19538.822119,10171.787163,5726.315764,5462.609883,4722.856548,6416.314115,-15859.300299,-18148.253041,-7879.88399,-7199.139261,5610.086693,19794.570779,7309.132196,18092.776012,6643.094914,-3002.398074,-0.002,-0.006,1.017,192.0,0.0,0.0,0.0,0.0,0.0,0.0,0.0,0.0,0.0,1771318166.920676,0.0
112.0,19804.584361,10439.583414,5992.614447,5722.583022,4976.682958,6683.082185,-15594.566237,-17881.73084,-7979.013977,-7301.532602,5512.990715,19691.618644,7207.208241,17991.053223,6536.5665,-3101.349247,-0.002,-0.006,1.017,192.0,0.0,0.0,0.0,0.0,0.0,0.0,0.0,0.0,0.0,1771318166.920706,0.0
114.0,19695.261979,10333.479683,5878.307626,5608.38796,4864.410146,6568.417736,-15713.186945,-17997.624635,-7725.634602,-7046.298033,5767.308863,19946.719104,7456.139619,18245.036095,6781.027529,-2857.55877,-0.002,-0.007,1.0155,192.0,127.5,120.0,127.5,96.0,15.5,88.0,0.0,0.0,0.0,1771318166.920717,0.0
116.0,19601.719928,10239.088266,5782.329235,5511.694313,4769.057604,6471.098241,-15808.763004,-18095.681738,-8033.619289,-7346.549016,5460.151191,19646.177548,7157.766182,17936.447911,6487.973808,-3164.470573,-0.002,-0.007,1.0155,192.0,0.0,0.0,0.0,0.0,0.0,0.0,0.0,0.0,0.0,1771318166.920727,0.0
118.0,19845.979791,10484.711586,6039.642518,5766.928883,5019.553604,6722.555366,-15552.097923,-17844.626945,-7769.913408,-7094.644856,5717.889156,19894.617187,7408.016313,18196.868085,6729.171482,-2906.844366,-0.002,-0.007,1.0155,192.0,0.0,0.0,0.0,0.0,0.0,0.0,0.0,0.0,0.0,1771318166.920739,0.0
120.0,19542.599564,10173.240027,5732.41779,5459.346528,4719.637897,6413.520147,-15859.277947,-18150.711733,-7878.788755,-7198.267543,5614.691152,19792.514419,7311.970867,18094.430041,6642.491417,-3005.616725,-0.002,-0.007,1.0155,192.0,0.0,0.0,0.0,0.0,0.0,0.0,0.0,0.0,0.0,1771318166.92075,0.0
122.0,19800.069308,10431.894413,5987.920581,5711.27304,4974.805412,6667.950054,-15602.836383,-17891.252684,-7977.784631,-7303.924239,5514.153005,19696.334862,7212.57266,17985.331176,6537.773494,-3109.105302,-0.002,-0.007,1.0155,192.0,0.0,0.0,0.0,0.0,0.0,0.0,0.0,0.0,0.0,1771318166.920761,0.0
124.0,19690.679871,10322.952011,5873.323187,5602.129472,4867.964073,6562.628634,-15716.919686,-18003.011406,-7728.607384,-7057.429201,5758.412869,19940.304153,7449.925834,18230.462757,6775.596055,-2867.214723,0.001,-0.0085,1.00775,192.0,0.0,16.0,127.5,88.0,15.5,32.0,0.0,0.0,0.0,1771318166.920772,0.0
126.0,19596.310806,10237.85892,5786.754881,5514.644744,4780.322883,6470.360633,-15801.565743,-18089.870285,-8032.680515,-7354.528589,5459.614749,19645.81992,7153.76522,17935.307972,6490.56661,-3165.252884,0.001,-0.0085,1.00775,192.0,0.0,0.0,0.0,0.0,0.0,0.0,0.0,0.0,0.0,1771318166.920783,0.0
128.0,19828.858355,10461.421068,6025.315049,5750.455648,5010.031761,6705.94802,-15561.262138,-17854.282898,-7775.568399,-7110.089911,5719.409075,19891.107963,7406.764615,18177.667937,6732.770113,-2905.726779,0.001,-0.0085,1.00775,192.0,0.0,0.0,0.0,0.0,0.0,0.0,0.0,0.0,0.0,1771318166.920795,0.0
130.0,19537.928049,10172.345957,5728.57329,5454.496199,4719.704952,6416.202356,-15859.300299,-18149.728256,-7891.573953,-7216.506567,5606.018675,19782.769058,7300.415015,18075.229892,6638.378696,-3011.651696,0.001,-0.0085,1.00775,192.0,0.0,0.0,0.0,0.0,0.0,0.0,0.0,0.0,0.0,1771318166.920806,0.0
132.0,19800.069308,10445.752495,5995.654284,5715.318705,4984.617827,6685.920857,-15595.616769,-17884.658919,-7971.839067,-7302.158451,5521.707895,19697.564208,7218.808796,17989.466249,6546.982413,-3104.254973,0.001,-0.0085,1.00775,192.0,0.0,0.0,0.0,0.0,0.0,0.0,0.0,0.0,0.0,1771318166.920817,0.0
134.0,19707.689548,10338.732343,5889.930533,5611.003114,4879.542277,6575.302073,-15703.151012,-17989.198028,-7718.30323,-7050.678974,5770.72868,19943.947487,7464.543875,18244.767874,6790.750538,-2852.574331,0.0015,-0.00925,1.004875,192.0,0.0,8.0,127.5,88.0,15.5,40.0,0.0,0.0,0.0,1771318166.920828,0.0
136.0,19597.026062,10229.14174,5783.335064,5513.549508,4764.900179,6466.560837,-15803.756214,-18092.686605,-8027.494911,-7351.578158,5467.862543,19643.361228,7165.16461,17938.325457,6497.272134,-3155.485172,0.0015,-0.00925,1.004875,192.0,0.0,0.0,0.0,0.0,0.0,0.0,0.0,0.0,0.0,1771318166.92084,0.0
138.0,19837.061445,10475.346205,6016.955497,5746.119409,4990.183412,6698.750758,-15566.380688,-17858.28386,-7777.065966,-7109.419359,5712.010647,19888.783382,7398.673284,18187.972091,6718.532052,-2912.409951,0.0015,-0.00925,1.004875,192.0,0.0,0.0,0.0,0.0,0.0,0.0,0.0,0.0,0.0,1771318166.920852,0.0
140.0,19548.05339,10176.682195,5728.640345,5455.747897,4709.221984,6401.405502,-15859.613223,-18147.247213,-7896.625447,-7216.864194,5600.453091,19781.718526,7292.748367,18063.562282,6619.267955,-3026.716772,0.0015,-0.00925,1.004875,192.0,0.0,0.0,0.0,0.0,0.0,0.0,0.0,0.0,0.0,1771318166.920863,0.0
142.0,19805.992521,10439.136379,5984.389005,5710.848357,4968.233999,6666.586598,-15604.579819,-17889.039861,-7965.915855,-7287.071024,5528.525177,19705.588484,7220.731046,17997.758746,6543.182617,-3102.846814,0.0015,-0.00925,1.004875,192.0,0.0,0.0,0.0,0.0,0.0,0.0,0.0,0.0,0.0,1771318166.920874,0.0
144.0,19699.352348,10337.92768,5890.422272,5618.043914,4880.011663,6582.0523,-15699.552381,-17986.851095,-7728.42857,-7055.819876,5764.514895,19941.578202,7459.87236,18228.875784,6774.590227,-2864.420755,0.0015,-0.00925,1.004875,192.0,0.0,0.0,127.5,104.0,15.5,64.0,0.0,0.0,0.0,1771318166.920885,0.0
146.0,19586.788963,10233.857958,5781.390462,5505.50288,4768.007072,6462.604578,-15806.639589,-18099.615645,-8020.632925,-7347.152513,5473.003444,19650.782007,7172.116002,17939.331286,6499.328494,-3153.317053,0.0015,-0.00925,1.004875,192.0,0.0,0.0,0.0,0.0,0.0,0.0,0.0,0.0,0.0,1771318166.920896,0.0
148.0,19833.284001,10472.306367,6016.642572,5741.760819,5003.125072,6697.655523,-15570.180484,-17864.229425,-7781.670425,-7113.822653,5708.389665,19884.670661,7401.936639,18173.711678,6722.890642,-2915.628602,0.0015,-0.00925,1.004875,192.0,0.0,0.0,0.0,0.0,0.0,0.0,0.0,0.0,0.0,1771318166.920907,0.0
150.0,19538.375084,10176.369271,5721.174863,5451.143438,4717.559185,6407.775749,-15868.173941,-18156.411428,-7890.366958,-7212.751474,5600.117815,19784.19957,7299.386835,18075.609872,6632.880167,-3020.92767,0.0015,-0.00925,1.004875,192.0,0.0,0.0,0.0,0.0,0.0,0.0,0.0,0.0,0.0,1771318166.920918,0.0
152.0,19817.973056,10448.144132,5994.290828,5722.091284,4985.601304,6679.036519,-15594.745051,-17879.875646,-7974.655387,-7300.370312,5513.95184,19697.72067,7214.047875,17978.133914,6539.00284,-3112.122787,0.0015,-0.00925,1.004875,192.0,0.0,0.0,0.0,0.0,0.0,0.0,0.0,0.0,0.0,1771318166.920929,0.0
154.0,19708.47186,10342.487436,5889.751719,5616.278126,4882.626818,6575.369129,-15700.066471,-17982.55956,-7720.180776,-7045.403963,5776.003692,19955.436284,7468.83541,18240.945726,6789.163564,-2854.965968,-0.00025,-0.011625,1.003437,192.0,127.5,120.0,127.5,72.0,15.5,40.0,0.0,0.0,0.0,1771318166.920941,0.0
156.0,19597.316634,10231.466321,5785.257314,5511.828424,4775.338444,6464.057441,-15801.185763,-18091.47961,-8013.90505,-7343.375068,5480.424223,19652.436036,7175.28995,17943.041675,6504.938782,-3153.093535,-0.00025,-0.011625,1.003437,192.0,0.0,0.0,0.0,0.0,0.0,0.0,0.0,0.0,0.0,1771318166.920951,0.0
158.0,19834.803919,10468.171295,6028.801921,5749.360412,5012.71397,6702.818776,-15561.128028,-17855.020506,-7780.351672,-7116.750731,5709.015514,19881.921396,7403.769482,18173.957547,6721.929517,-2922.021201,-0.00025,-0.011625,1.003437,192.0,0.0,0.0,0.0,0.0,0.0,0.0,0.0,0.0,0.0,1771318166.920963,0.0
160.0,19545.639401,10184.281788,5729.46736,5449.176484,4721.023705,6410.837938,-15865.402325,-18152.566928,-7877.179429,-7205.889488,5611.383094,19791.463887,7312.820233,18082.293043,6642.670231,-3018.312516,-0.00025,-0.011625,1.003437,192.0,0.0,0.0,0.0,0.0,0.0,0.0,0.0,0.0,0.0,1771318166.920974,0.0
162.0,19795.666015,10434.442512,5985.417185,5708.993162,4972.033795,6675.661406,-15608.558429,-17895.655977,-7984.69132,-7308.528699,5507.603944,19684.801362,7208.683456,17979.318557,6533.146683,-3117.15193,-0.00025,-0.011625,1.003437,192.0,0.0,0.0,0.0,0.0,0.0,0.0,0.0,0.0,0.0,1771318166.920985,0.0
164.0,19701.29695,10336.988907,5882.71092,5608.857347,4870.400413,6567.05428,-15710.16946,-17996.797621,-7718.347933,-7051.349527,5771.332177,19948.194319,7465.147372,18229.009894,6783.933256,-2856.15061,-0.001125,-0.013813,1.004719,192.0,127.5,120.0,127.5,64.0,15.5,56.0,0.0,0.0,0.0,1771318166.920997,0.0
166.0,19601.786983,10233.701495,5786.374901,5512.834252,4770.085784,6458.938892,-15800.716376,-18089.982044,-8017.816605,-7350.974661,5472.176429,19654.112417,7167.042156,17932.916335,6493.628799,-3157.608587,-0.001125,-0.013813,1.004719,192.0,0.0,0.0,0.0,0.0,0.0,0.0,0.0,0.0,0.0,1771318166.921008,0.0
168.0,19843.297582,10477.559027,6029.271308,5749.919206,5003.303886,6698.39313,-15559.317536,-17851.757151,-7773.310873,-7111.140443,5721.934822,19894.52778,7410.162081,18171.051821,6718.934383,-2921.820035,-0.001125,-0.013813,1.004719,192.0,0.0,0.0,0.0,0.0,0.0,0.0,0.0,0.0,0.0,1771318166.921019,0.0
170.0,19542.912488,10178.224466,5735.725848,5450.897569,4719.16851,6404.512394,-15858.428581,-18148.49891,-7882.812069,-7212.550308,5616.389885,19791.039204,7315.949478,18064.05402,6634.131865,-3024.928632,-0.001125,-0.013813,1.004719,192.0,0.0,0.0,0.0,0.0,0.0,0.0,0.0,0.0,0.0,1771318166.92103,0.0
172.0,19801.49982,10444.41139,5990.334569,5702.131176,4978.873429,6663.703223,-15606.591476,-17895.097184,-7969.112154,-7309.422768,5522.66902,19691.95392,7223.659125,17983.185408,6541.036849,-3119.141235,-0.001125,-0.013813,1.004719,192.0,0.0,0.0,0.0,0.0,0.0,0.0,0.0,0.0,0.0,1771318166.921041,0.0
174.0,19707.510734,10339.447598,5892.299818,5616.747512,4887.633608,6568.328329,-15700.938189,-17985.286472,-7710.569526,-7048.667317,5776.584837,19951.144749,7480.078337,18240.923374,6794.505631,-2858.542247,-0.001125,-0.013813,1.004719,192.0,0.0,0.0,0.0,0.0,0.0,0.0,0.0,0.0,0.0,1771318166.921053,0.0
176.0,19595.059108,10223.173824,5771.019253,5505.122901,4761.614473,6449.506456,-15812.339284,-18098.922741,-8024.209204,-7349.410039,5469.471868,19656.45935,7171.132525,17928.736559,6496.758043,-3164.604683,0.004,-0.016,1.004,192.0,0.0,16.0,127.5,64.0,15.5,48.0,0.0,0.0,0.0,1771318166.921064,0.0
178.0,19827.874878,10472.395774,6028.444294,5758.122296,5014.747979,6701.991761,-15555.629498,-17848.02441,-7781.178687,-7110.693408,5713.530566,19896.226513,7408.440996,18164.50276,6722.801235,-2918.534329,0.004,-0.016,1.004,192.0,0.0,0.0,0.0,0.0,0.0,0.0,0.0,0.0,0.0,1771318166.921075,0.0
180.0,19536.184613,10181.8678,5732.127217,5458.85479,4720.889595,6412.111987,-15856.103999,-18150.264698,-7881.649778,-7212.32679,5612.679495,19792.760288,7317.156472,18069.865473,6638.870435,-3017.150225,0.004,-0.016,1.004,192.0,0.0,0.0,0.0,0.0,0.0,0.0,0.0,0.0,0.0,1771318166.921086,0.0
182.0,19790.435706,10429.726294,5980.142174,5699.538374,4961.170848,6658.785839,-15612.224115,-17901.422727,-7982.120869,-7310.808576,5507.93922,19688.981138,7217.199471,17975.474057,6534.286622,-3119.07418,0.004,-0.016,1.004,192.0,0.0,0.0,0.0,0.0,0.0,0.0,0.0,0.0,0.0,1771318166.921096,0.0
184.0,19712.003435,10343.448561,5894.803213,5618.669762,4877.865896,6565.176733,-15699.485326,-17983.900664,-7726.059285,-7054.657585,5771.667453,19948.708409,7472.210523,18231.13331,6781.452213,-2867.393537,0.004,-0.016,1.004,192.0,0.0,0.0,0.0,0.0,0.0,0.0,0.0,0.0,0.0,1771318166.921107,0.0
186.0,19584.889064,10231.354562,5779.982302,5503.647685,4763.044985,6452.76981,-15811.556972,-18100.286198,-8021.370533,-7346.101981,5473.696348,19658.135731,7181.481383,17934.436254,6500.893116,-3161.542494,0.004,-0.016,1.004,192.0,0.0,0.0,127.5,80.0,15.5,56.0,0.0,0.0,0.0,1771318166.921124,0.0
188.0,19842.559974,10482.766984,6035.529797,5755.35068,5013.026895,6710.597183,-15556.590623,-17845.521014,-7779.859934,-7108.726455,5715.162243,19892.426716,7415.884127,18176.527998,6725.595203,-2916.254451,0.004,-0.016,1.004,192.0,0.0,0.0,0.0,0.0,0.0,0.0,0.0,0.0,0.0,1771318166.921134,0.0
190.0,19542.644267,10174.69289,5740.553825,5457.200761,4719.190862,6414.45892,-15855.031115,-18145.839053,-7870.093926,-7205.330694,5625.419989,19794.70489,7331.461588,18078.068564,6644.145446,-3010.80233,0.004,-0.016,1.004,192.0,0.0,0.0,0.0,0.0,0.0,0.0,0.0,0.0,0.0,1771318166.921145,0.0
192.0,19787.060593,10410.83907,5981.863258,5688.675426,4956.007595,6637.216406,-15619.19786,-17908.172954,-7984.423099,-7334.233205,5507.514537,19678.185246,7216.618325,17966.376897,6524.071875,-3134.027497,0.004,-0.016,1.004,192.0,0.0,0.0,0.0,0.0,0.0,0.0,0.0,0.0,0.0,1771318166.921156,0.0
194.0,19714.283313,10339.760523,5906.224955,5617.172196,4884.996102,6556.437201,-15696.132564,-17982.000766,-7713.005866,-7070.661434,5774.260256,19938.225441,7478.916046,18209.921504,6784.134422,-2873.853192,0.004,-0.016,1.004,192.0,0.0,0.0,0.0,0.0,0.0,0.0,0.0,0.0,0.0,1771318166.921167,0.0
196.0,19610.258294,10241.256385,5791.605209,5510.532023,4774.109098,6454.803819,-15805.164374,-18090.563189,-7996.358931,-7348.448914,5491.778909,19661.130865,7199.474537,17939.085417,6513.566555,-3153.67468,-0.004,-0.008,1.008,192.0,127.5,112.0,127.5,96.0,15.5,64.0,0.0,0.0,0.0,1771318166.921178,0.0
198.0,19851.813597,10484.242199,6036.110942,5759.865732,5015.507938,6712.944116,-15557.551748,-17844.023448,-7772.081527,-7117.734208,5712.122406,19891.130315,7415.638258,18171.007117,6717.10154,-2926.536253,-0.004,-0.008,1.008,192.0,0.0,0.0,0.0,0.0,0.0,0.0,0.0,0.0,0.0,1771318166.921188,0.0
200.0,19535.804634,10176.145753,5730.294374,5455.636138,4717.380371,6410.145034,-15863.882406,-18153.550405,-7871.055051,-7205.91184,5621.19551,19803.287959,7330.478112,18084.841142,6642.759638,-3008.410693,-0.004,-0.008,1.008,192.0,0.0,0.0,0.0,0.0,0.0,0.0,0.0,0.0,0.0,1771318166.921199,0.0
202.0,19799.041128,10436.72239,5990.960418,5714.491691,4972.749051,6663.904388,-15603.663397,-17893.621968,-7980.578599,-7314.809539,5512.275459,19687.617682,7223.122683,17976.815161,6533.727829,-3113.955631,-0.004,-0.008,1.008,192.0,0.0,0.0,0.0,0.0,0.0,0.0,0.0,0.0,0.0,1771318166.92121,0.0
204.0,19698.972368,10331.110398,5891.159879,5611.293687,4871.987387,6550.581044,-15705.833221,-17993.869542,-7722.706523,-7066.436954,5767.353567,19933.531574,7474.691567,18216.470565,6776.780698,-2871.841535,-0.004,-0.008,1.008,192.0,0.0,0.0,0.0,0.0,0.0,0.0,0.0,0.0,0.0,1771318166.921221,0.0
206.0,19584.57614,10217.250611,5773.902628,5500.25022,4753.858418,6445.863121,-15817.837813,-18106.052948,-8023.471597,-7367.224379,5468.689557,19643.316524,7174.328825,17921.382835,6491.371273,-3170.527896,-0.004,-0.012,1.012,192.0,127.5,112.0,127.5,80.0,15.5,80.0,0.0,0.0,0.0,1771318166.921233,0.0
208.0,19854.719323,10480.241237,6046.21393,5767.219456,5022.884014,6715.581622,-15547.58287,-17835.440378,-7769.645187,-7121.824577,5720.191386,19896.293568,7423.573127,18167.632004,6724.969354,-2915.718009,-0.004,-0.012,1.012,192.0,0.0,0.0,0.0,0.0,0.0,0.0,0.0,0.0,0.0,1771318166.921245,0.0
210.0,19560.637422,10181.286655,5742.565482,5458.295996,4721.493092,6415.397694,-15854.360563,-18140.720503,-7851.318461,-7203.296686,5640.775638,19809.099413,7347.823065,18088.104497,6655.544836,-3000.095844,-0.004,-0.012,1.012,192.0,0.0,0.0,0.0,0.0,0.0,0.0,0.0,0.0,0.0,1771318167.402342,0.0
212.0,19798.951721,10420.785596,5982.310293,5699.73954,4956.454629,6642.491417,-15612.447633,-17901.400376,-7975.46005,-7324.107864,5516.857566,19682.85676,7222.139206,17965.438123,6530.553881,-3122.650459,-0.004,-0.012,1.012,192.0,0.0,0.0,0.0,0.0,0.0,0.0,0.0,0.0,0.0,1771318167.4024,0.0
214.0,19703.107441,10345.929604,5899.050045,5618.5133,4876.63655,6559.901721,-15697.317207,-17983.855961,-7726.975706,-7077.52342,5764.112564,19936.772577,7466.466125,18203.32774,6772.131535,-2877.138898,-0.004,-0.012,1.012,192.0,0.0,0.0,0.0,0.0,0.0,0.0,0.0,0.0,0.0,1771318167.402443,0.0
216.0,19593.449783,10227.286545,5785.503183,5509.86147,4766.531857,6453.909749,-15809.657074,-18097.805154,-8012.519242,-7351.645214,5481.161831,19660.996754,7187.494002,17929.697684,6503.932953,-3154.836971,-0.002,-0.006,1.014,192.0,127.5,120.0,127.5,104.0,15.5,88.0,0.0,0.0,0.0,1771318167.402481,0.0
218.0,19855.613393,10484.331606,6038.39082,5758.256407,5014.546813,6703.466976,-15558.758743,-17845.409256,-7773.199114,-7115.946068,5718.738522,19891.018556,7420.734456,18168.637832,6720.923689,-2921.663573,-0.002,-0.006,1.014,192.0,0.0,0.0,0.0,0.0,0.0,0.0,0.0,0.0,0.0,1771318167.402533,0.0
220.0,19553.350753,10183.074794,5744.063049,5465.828534,4722.700086,6403.618324,-15852.058333,-18134.931402,-7861.644967,-7204.548383,5630.247966,19800.717509,7333.987335,18075.364003,6643.43019,-3012.635173,-0.002,-0.006,1.014,192.0,0.0,0.0,0.0,0.0,0.0,0.0,0.0,0.0,0.0,1771318167.402587,0.0
222.0,19800.225771,10438.577585,5988.009988,5706.467415,4964.165981,6646.7606,-15607.686711,-17890.000986,-7981.249151,-7316.038885,5517.617526,19697.832429,7213.08675,17965.974565,6527.826968,-3124.885634,-0.002,-0.006,1.014,192.0,0.0,0.0,0.0,0.0,0.0,0.0,0.0,0.0,0.0,1771318167.402599,0.0
224.0,19708.963598,10334.619622,5888.187097,5609.41614,4874.602541,6556.817181,-15710.974122,-17993.981301,-7714.21286,-7047.996765,5781.725738,19958.051438,7475.451526,18248.187691,6785.542582,-2858.721061,-0.002,-0.006,1.014,192.0,0.0,0.0,0.0,0.0,0.0,0.0,0.0,0.0,0.0,1771318167.40261,0.0
226.0,19596.780192,10241.166978,5787.872468,5508.430959,4779.406462,6457.016642,-15810.394682,-18097.11225,-8037.128513,-7359.66949,5461.201723,19645.708161,7167.779764,17915.504326,6490.477203,-3168.963274,-0.002,-0.004,1.012,192.0,127.5,120.0,127.5,112.0,15.5,80.0,0.0,0.0,0.0,1771318167.402621,0.0
228.0,19858.563824,10491.752385,6042.972927,5760.536285,5030.461255,6715.738084,-15555.584795,-17842.950564,-7762.157352,-7091.336798,5729.422656,19909.369339,7426.411799,18186.608635,6736.279337,-2907.53727,-0.002,-0.004,1.012,192.0,0.0,0.0,0.0,0.0,0.0,0.0,0.0,0.0,0.0,1771318167.402632,0.0
230.0,19556.144721,10182.113669,5744.532435,5463.392194,4736.33465,6417.118778,-15853.93588,-18140.407579,-7870.205685,-7198.692226,5629.689172,19802.975035,7328.064123,18079.05204,6649.129885,-3012.098731,-0.002,-0.004,1.012,192.0,0.0,0.0,0.0,0.0,0.0,0.0,0.0,0.0,0.0,1771318167.402644,0.0
232.0,19799.555218,10430.687419,5985.573648,5705.349827,4971.229133,6663.435002,-15612.224115,-17897.935855,-7977.471707,-7318.363466,5518.668058,19698.61474,7217.758264,17974.401173,6540.098076,-3115.900232,-0.002,-0.004,1.012,192.0,0.0,0.0,0.0,0.0,0.0,0.0,0.0,0.0,0.0,1771318167.402655,0.0
234.0,19716.026749,10352.165741,5899.63119,5621.061399,4886.985408,6575.011501,-15700.446451,-17983.96772,-7716.157462,-7053.428239,5777.769479,19948.037857,7472.791669,18238.196461,6788.649474,-2858.139915,-0.002,-0.004,1.012,192.0,0.0,0.0,0.0,0.0,0.0,0.0,0.0,0.0,0.0,1771318167.402667,0.0
236.0,19602.077556,10226.660696,5775.869581,5498.059749,4764.296682,6446.913653,-15822.576382,-18106.768204,-8018.151881,-7355.44501,5471.349415,19643.607097,7174.552342,17925.361446,6496.534526,-3163.66591,0.0,-0.009,1.007,192.0,0.0,8.0,127.5,72.0,15.5,40.0,0.0,0.0,0.0,1771318167.402679,0.0
238.0,19874.031231,10502.771795,6048.51616,5774.617884,5032.048229,6726.57868,-15547.538167,-17832.64641,-7766.672405,-7106.558336,5722.895947,19894.39367,7422.857871,18185.625158,6728.411523,-2912.544061,0.0,-0.009,1.007,192.0,0.0,0.0,0.0,0.0,0.0,0.0,0.0,0.0,0.0,1771318167.40269,0.0
240.0,19566.046544,10209.360446,5741.112619,5470.90238,4727.483359,6420.337429,-15854.159397,-18137.703018,-7861.779077,-7181.123755,5635.29946,19816.49784,7335.753123,18100.308549,6651.677984,-3000.341713,0.0,-0.009,1.007,192.0,0.0,0.0,0.0,0.0,0.0,0.0,0.0,0.0,0.0,1771318167.402701,0.0
242.0,19803.04209,10441.684478,5983.249066,5702.377045,4963.316615,6660.08224,-15614.526345,-17896.885323,-7982.232628,-7300.86205,5515.136482,19700.089955,7219.345238,17971.450743,6533.213739,-3118.448331,0.0,-0.009,1.007,192.0,0.0,0.0,0.0,0.0,0.0,0.0,0.0,0.0,0.0,1771318167.402712,0.0
244.0,19720.452395,10353.998584,5906.247307,5628.683344,4886.448966,6582.678149,-15695.171439,-17975.921092,-7712.827052,-7043.682878,5785.726701,19961.02422,7483.229933,18236.251859,6786.637817,-2856.955273,0.0,-0.009,1.007,192.0,0.0,0.0,0.0,0.0,0.0,0.0,0.0,0.0,0.0,1771318167.402723,0.0
246.0,19606.279684,10234.975545,5787.179564,5505.100549,4770.443412,6458.313043,-15814.328589,-18096.687567,-8010.932268,-7350.19235,5483.508764,19657.286365,7190.690302,17938.10194,6502.569497,-3154.635805,0.003,-0.0125,1.0095,192.0,0.0,24.0,127.5,64.0,15.5,80.0,0.0,0.0,0.0,1771318167.402735,0.0
248.0,19863.928242,10490.254818,6042.145913,5759.776325,5022.816959,6709.591354,-15557.261176,-17837.809663,-7770.96394,-7109.844042,5724.169996,19902.507353,7422.07556,18178.807876,6725.706962,-2915.807416,0.003,-0.0125,1.0095,192.0,0.0,0.0,0.0,0.0,0.0,0.0,0.0,0.0,0.0,1771318167.402745,0.0
250.0,19581.312785,10213.473167,5754.680127,5476.333854,4742.973118,6425.455979,-15845.35281,-18124.046102,-7850.178522,-7185.392938,5642.049687,19819.135346,7345.654946,18089.914988,6655.634243,-3001.571059,0.003,-0.0125,1.0095,192.0,0.0,0.0,0.0,0.0,0.0,0.0,0.0,0.0,0.0,1771318167.402757,0.0
252.0,19817.056634,10439.851634,5991.429805,5705.215717,4976.526496,6663.122077,-15608.916057,-17891.565608,-7963.54657,-7299.431539,5532.324974,19710.036482,7234.700887,17980.950234,6545.797771,-3110.446407,0.003,-0.0125,1.0095,192.0,0.0,0.0,0.0,0.0,0.0,0.0,0.0,0.0,0.0,1771318167.402768,0.0
254.0,19708.47186,10351.830465,5904.101539,5614.087655,4891.656922,6569.602379,-15699.127698,-17984.839438,-7728.026238,-7066.25814,5767.800601,19943.075769,7466.801401,18218.862202,6781.541619,-2874.411985,0.003,-0.0125,1.0095,192.0,0.0,0.0,0.0,0.0,0.0,0.0,0.0,0.0,0.0,1771318167.40278,0.0
0.0,19593.80741,10228.270021,5777.858886,5493.432938,4765.302511,6448.433572,-15823.157528,-18109.606875,-8013.078035,-7340.648155,5486.906229,19662.695487,7193.148994,17935.330324,6512.940706,-3156.267483,0.0025,-0.01325,1.00775,192.0,0.0,8.0,127.5,72.0,15.5,56.0,0.0,0.0,0.0,1771318167.40279,0.0
2.0,19855.769855,10492.5794,6041.162436,5757.161171,5028.002563,6718.219127,-15557.596452,-17843.531709,-7793.025111,-7122.785702,5706.132139,19881.764934,7407.748092,18158.914823,6713.949944,-2933.867625,0.0025,-0.01325,1.00775,192.0,0.0,0.0,0.0,0.0,0.0,0.0,0.0,0.0,0.0,1771318167.402801,0.0
4.0,19574.96489,10210.969771,5751.327366,5472.154078,4742.302566,6423.265508,-15845.665734,-18129.388169,-7856.705231,-7185.839973,5639.501588,19819.157698,7347.666603,18096.776974,6661.780973,-2996.787786,0.0025,-0.01325,1.00775,192.0,0.0,0.0,0.0,0.0,0.0,0.0,0.0,0.0,0.0,1771318167.402812,0.0
6.0,19793.140268,10425.591222,5968.362804,5683.623932,4948.944443,6637.372868,-15627.53506,-17911.83864,-7972.442564,-7307.52287,5518.69041,19703.73329,7222.027447,17968.34385,6534.912471,-3122.382238,0.0025,-0.01325,1.00775,192.0,0.0,0.0,0.0,0.0,0.0,0.0,0.0,0.0,0.0,1771318167.402823,0.0
8.0,19741.775959,10372.125849,5913.131644,5627.833978,4891.276943,6581.515858,-15685.671948,-17968.142684,-7732.496587,-7063.911207,5769.298168,19945.020371,7467.181381,18210.748519,6773.651454,-2873.584971,0.0025,-0.01325,1.00775,192.0,0.0,0.0,0.0,0.0,0.0,0.0,0.0,0.0,0.0,1771318167.402834,0.0
10.0,19625.390425,10250.107676,5792.141651,5507.201613,4772.857401,6456.323738,-15805.834926,-18088.551532,-7998.437643,-7328.131178,5497.724473,19676.777086,7203.877831,17942.84051,6520.830872,-3140.97889,0.00225,-0.012625,1.009875,192.0,0.0,8.0,127.5,80.0,15.5,80.0,0.0,0.0,0.0,1771318167.402845,0.0
12.0,19849.846643,10493.249952,6036.289756,5745.73943,5013.004543,6689.608895,-15564.883121,-17848.136168,-7780.105803,-7111.565126,5713.441159,19895.332443,7413.648953,18161.775847,6720.789578,-2930.179588,0.00225,-0.012625,1.009875,192.0,0.0,0.0,0.0,0.0,0.0,0.0,0.0,0.0,0.0,1771318167.402856,0.0
14.0,19567.678221,10206.477071,5750.880331,5466.119107,4732.311336,6413.900127,-15851.432485,-18134.551422,-7871.30092,-7188.723348,5630.784408,19812.563933,7332.959155,18078.560302,6650.046307,-3016.591432,0.00225,-0.012625,1.009875,192.0,0.0,0.0,0.0,0.0,0.0,0.0,0.0,0.0,0.0,1771318167.402867,0.0
16.0,19805.456079,10440.231614,5987.406491,5697.102034,4964.456554,6648.504036,-15614.839269,-17897.779393,-7976.756451,-7300.86205,5523.585442,19700.335825,7229.828206,17984.057127,6538.891082,-3124.259785,0.00225,-0.012625,1.009875,192.0,0.0,0.0,0.0,0.0,0.0,0.0,0.0,0.0,0.0,1771318167.402879,0.0
18.0,19741.775959,10382.184134,5927.101484,5636.19353,4906.677295,6583.594571,-15676.708898,-17959.447856,-7708.937849,-7044.912224,5785.167907,19963.907595,7486.090956,18224.718359,6791.242277,-2862.319691,0.00225,-0.012625,1.009875,192.0,0.0,0.0,0.0,0.0,0.0,0.0,0.0,0.0,0.0,1771318167.40289,0.0
20.0,19609.364225,10241.904586,5790.107642,5500.004351,4773.259732,6448.724145,-15811.2664,-18097.559285,-8003.690303,-7334.277908,5491.600095,19675.145409,7198.22284,17941.409998,6514.862956,-3151.797134,0.000125,-0.008313,1.007938,192.0,127.5,120.0,127.5,112.0,15.5,56.0,0.0,0.0,0.0,1771318167.402901,0.0
22.0,19864.554091,10503.174127,6056.607492,5773.902628,5038.59729,6719.02379,-15543.067818,-17831.193546,-7769.913408,-7101.551545,5726.65104,19909.481097,7430.166892,18166.916748,6735.385267,-2912.186433,0.000125,-0.008313,1.007938,192.0,0.0,0.0,0.0,0.0,0.0,0.0,0.0,0.0,0.0,1771318167.402912,0.0
24.0,19566.51593,10192.328416,5744.197159,5469.717737,4734.501807,6421.097388,-15852.818293,-18137.85948,-7862.382574,-7188.410424,5636.417048,19814.016797,7345.587891,18082.695375,6654.136676,-3000.43112,0.000125,-0.008313,1.007938,192.0,0.0,0.0,0.0,0.0,0.0,0.0,0.0,0.0,0.0,1771318167.402923,0.0
26.0,19810.217,10438.175254,5981.751499,5708.412016,4967.518743,6664.44083,-15613.05113,-17896.505343,-7981.964407,-7308.618105,5513.370694,19696.536028,7223.502663,17971.02606,6526.910547,-3119.45416,0.000125,-0.008313,1.007938,192.0,0.0,0.0,0.0,0.0,0.0,0.0,0.0,0.0,0.0,1771318167.402936,0.0
28.0,19710.505868,10349.885863,5902.492214,5625.889376,4891.768681,6580.13005,-15695.976102,-17978.022156,-7722.66182,-7040.37482,5777.52361,19969.540235,7488.884925,18244.544356,6788.247143,-2851.903779,0.000125,-0.008313,1.007938,192.0,0.0,0.0,0.0,0.0,0.0,0.0,0.0,0.0,0.0,1771318167.402947,0.0
30.0,19600.401175,10237.389533,5784.027968,5504.497052,4771.82922,6449.037069,-15815.24501,-18097.648692,-8017.950716,-7334.568481,5485.229848,19673.334917,7198.379302,17941.231184,6512.627782,-3148.578483,0.000125,-0.008313,1.007938,192.0,0.0,0.0,127.5,120.0,15.5,72.0,0.0,0.0,0.0,1771318167.402964,0.0
32.0,19858.854396,10501.944781,6048.672622,5772.628578,5028.181377,6721.035447,-15547.44876,-17832.557003,-7798.545992,-7119.567051,5703.919316,19890.526818,7406.965781,18153.773922,6711.33479,-2933.174721,0.000125,-0.008313,1.007938,192.0,0.0,0.0,0.0,0.0,0.0,0.0,0.0,0.0,0.0,1771318167.402975,0.0
34.0,19560.637422,10205.605353,5745.918244,5470.120069,4727.081028,6414.525976,-15851.074857,-18136.116044,-7865.511819,-7171.95954,5638.62987,19830.244163,7343.062144,18096.911084,6660.283406,-2991.959809,0.000125,-0.008313,1.007938,192.0,0.0,0.0,0.0,0.0,0.0,0.0,0.0,0.0,0.0,1771318167.402986,0.0
36.0,19806.327797,10451.943928,5994.871973,5713.128235,4965.775307,6658.383508,-15601.182354,-17885.173009,-7977.292893,-7292.413091,5519.897404,19708.47186,7222.966221,17983.096002,6538.444047,-3118.247165,0.000125,-0.008313,1.007938,192.0,0.0,0.0,0.0,0.0,0.0,0.0,0.0,0.0,0.0,1771318167.402997,0.0
38.0,19726.9344,10360.525293,5911.678781,5634.315984,4888.907658,6574.139783,-15682.63211,-17968.768533,-7716.045703,-7039.793675,5788.654779,19970.099028,7484.436927,18240.252821,6793.365692,-2855.211837,0.000125,-0.008313,1.007938,192.0,0.0,0.0,0.0,0.0,0.0,0.0,0.0,0.0,0.0,1771318167.403008,0.0
40.0,19601.004672,10236.942498,5780.004654,5502.798319,4766.710671,6446.310156,-15815.021493,-18099.235666,-8026.824358,-7341.877501,5482.43588,19661.667307,7187.71752,17929.407111,6506.011666,-3157.563884,0.001063,-0.005156,1.004969,192.0,0.0,8.0,127.5,120.0,15.5,40.0,0.0,0.0,0.0,1771318167.403019,0.0
42.0,19871.617242,10508.024455,6053.031212,5775.757822,5039.312546,6722.309497,-15543.067818,-17826.164404,-7775.32253,-7102.356208,5719.051447,19900.339234,7425.674191,18172.728201,6728.925613,-2916.768541,0.001063,-0.005156,1.004969,192.0,0.0,0.0,0.0,0.0,0.0,0.0,0.0,0.0,0.0,1771318167.40303,0.0
44.0,19581.893931,10214.948382,5758.882255,5481.54181,4746.236473,6425.746551,-15836.63563,-18121.229782,-7857.33108,-7174.462935,5644.351917,19828.858355,7348.292452,18102.029634,6665.089031,-2990.529298,0.001063,-0.005156,1.004969,192.0,0.0,0.0,0.0,0.0,0.0,0.0,0.0,0.0,0.0,1771318167.40304,0.0
46.0,19801.969207,10428.295783,5982.578514,5701.482976,4962.958987,6648.660499,-15611.553563,-17899.679291,-7988.02173,-7309.869803,5515.963497,19703.040386,7215.679552,17970.288452,6536.544149,-3118.649497,0.001063,-0.005156,1.004969,192.0,0.0,0.0,0.0,0.0,0.0,0.0,0.0,0.0,0.0,1771318167.403052,0.0
48.0,19712.338711,10356.591386,5905.442644,5626.403466,4891.478108,6565.869637,-15693.495058,-17979.720888,-7732.384829,-7049.516684,5773.67911,19958.520825,7476.926741,18222.885516,6788.314198,-2861.850305,0.001063,-0.005156,1.004969,192.0,0.0,0.0,0.0,0.0,0.0,0.0,0.0,0.0,0.0,1771318167.403062,0.0
50.0,19598.121297,10242.329269,5783.29036,5502.463043,4774.869058,6451.428706,-15815.826156,-18102.275503,-8020.767036,-7333.070914,5480.64774,19670.42919,7192.992531,17932.938687,6513.36539,-3152.735907,0.001063,-0.005156,1.004969,192.0,0.0,0.0,0.0,0.0,0.0,0.0,0.0,0.0,0.0,1771318167.403073,0.0
52.0,19860.933108,10499.88842,6047.62209,5769.029947,5033.21052,6726.71279,-15550.063914,-17837.13911,-7791.192268,-7115.275516,5700.924182,19894.281911,7409.156252,18165.955623,6712.877061,-2935.298137,-0.004,0.0,1.008,192.0,127.5,112.0,0.0,0.0,15.5,64.0,0.0,0.0,0.0,1771318167.403084,0.0
54.0,19575.233111,10210.321571,5759.731622,5481.564162,4747.242301,6437.078886,-15836.903851,-18124.381378,-7853.218359,-7162.415345,5651.817399,19833.909849,7361.345871,18112.780823,6672.621569,-2982.281504,-0.004,0.0,1.008,192.0,0.0,0.0,0.0,0.0,0.0,0.0,0.0,0.0,0.0,1771318167.403095,0.0
56.0,19797.208285,10441.416257,5978.756366,5700.298333,4961.550827,6647.811132,-15616.00156,-17903.143812,-7992.357968,-7306.405283,5511.895479,19694.345557,7219.054665,17972.635385,6530.732695,-3120.817616,-0.004,0.0,1.008,192.0,0.0,0.0,0.0,0.0,0.0,0.0,0.0,0.0,0.0,1771318167.403105,0.0
58.0,19744.055837,10365.666195,5913.444568,5634.427742,4899.211812,6574.497411,-15683.749698,-17966.667469,-7719.934907,-7040.598338,5779.848192,19958.923156,7483.051119,18236.251859,6788.068329,-2860.397441,-0.004,0.0,1.008,192.0,0.0,0.0,0.0,0.0,0.0,0.0,0.0,0.0,0.0,1771318167.403118,0.0
60.0,19587.615977,10222.525623,5775.534305,5500.227869,4764.542552,6443.963223,-15820.475318,-18104.264808,-8009.591163,-7328.064123,5494.014084,19680.733345,7205.53186,17938.683085,6518.23807,-3146.74564,-0.004,0.0,1.008,192.0,0.0,0.0,0.0,0.0,0.0,0.0,0.0,0.0,0.0,1771318167.403129,0.0
62.0,19869.449123,10512.405397,6057.859189,5781.278703,5042.039459,6724.499968,-15536.518757,-17823.929229,-7783.033882,-7110.492243,5710.311915,19897.388804,7417.538156,18172.929367,6722.533014,-2925.820997,-0.002,-0.004,1.006,192.0,127.5,120.0,127.5,112.0,15.5,56.0,0.0,0.0,0.0,1771318167.40314,0.0
64.0,19557.910509,10193.535411,5740.017383,5465.515609,4724.510577,6411.195566,-15853.667659,-18142.687457,-7860.594435,-7175.93815,5643.591958,19831.786434,7350.974661,18095.614683,6669.537028,-2990.104615,-0.002,-0.004,1.006,192.0,0.0,0.0,0.0,0.0,0.0,0.0,0.0,0.0,0.0,1771318167.403151,0.0
66.0,19791.620349,10436.253004,5984.724281,5705.863918,4963.987167,6651.320356,-15609.988941,-17900.30514,-8001.298666,-7316.75414,5502.284229,19696.111345,7209.130491,17960.699554,6524.00482,-3131.63586,-0.002,-0.004,1.006,192.0,0.0,0.0,0.0,0.0,0.0,0.0,0.0,0.0,0.0,1771318167.403163,0.0
68.0,19729.61661,10364.369793,5915.188004,5630.627946,4899.323571,6577.581951,-15683.01209,-17971.383687,-7713.788177,-7036.753838,5786.553715,19970.791932,7493.489384,18241.437464,6800.518251,-2851.635558,-0.002,-0.004,1.006,192.0,0.0,0.0,0.0,0.0,0.0,0.0,0.0,0.0,0.0,1771318167.403174,0.0
70.0,19601.138783,10243.670373,5786.017273,5503.535927,4772.34331,6463.185723,-15812.652208,-18099.839163,-8010.753454,-7329.986373,5490.214287,19671.233853,7207.096482,17950.305992,6518.930974,-3146.49977,-0.002,-0.004,1.006,192.0,0.0,0.0,0.0,0.0,0.0,0.0,0.0,0.0,0.0,1771318167.403185,0.0
72.0,19872.935995,10497.027397,6050.43841,5771.935674,5030.640069,6726.533976,-15546.130007,-17835.708599,-7787.101899,-7111.967458,5704.9922,19885.8106,7417.761674,18161.798198,6718.822625,-2931.923024,-0.002,-0.004,1.006,192.0,0.0,0.0,127.5,104.0,15.5,64.0,0.0,0.0,0.0,1771318167.403196,0.0
74.0,19569.84634,10209.67337,5756.714136,5484.022854,4739.374487,6426.864138,-15836.099188,-18124.426082,-7846.17756,-7167.824467,5648.017603,19835.608582,7358.39544,18107.706977,6669.917008,-2987.73533,-0.002,-0.004,1.006,192.0,0.0,0.0,0.0,0.0,0.0,0.0,0.0,0.0,0.0,1771318167.882502,0.0
76.0,19785.138343,10423.736027,5965.859409,5690.061234,4946.396344,6634.690658,-15622.640028,-17911.682178,-7989.027558,-7306.382931,5512.856604,19698.61474,7219.36759,17971.115466,6525.636497,-3129.154817,-0.002,-0.004,1.006,192.0,0.0,0.0,0.0,0.0,0.0,0.0,0.0,0.0,0.0,1771318167.882565,0.0
78.0,19746.335715,10380.798326,5912.349333,5639.00985,4897.982466,6583.259294,-15676.328918,-17963.873501,-7720.851328,-7042.051201,5781.189296,19961.314793,7486.850916,18235.961287,6780.982826,-2868.332311,-0.002,-0.004,1.006,192.0,0.0,0.0,0.0,0.0,0.0,0.0,0.0,0.0,0.0,1771318167.88261,0.0
80.0,19592.533361,10241.614013,5777.277741,5501.546622,4763.022633,6446.824246,-15811.40051,-18098.922741,-8006.976009,-7320.866861,5493.07531,19689.606987,7211.67859,17954.262251,6516.874613,-3145.449238,-0.002,-0.004,1.006,192.0,0.0,0.0,0.0,0.0,0.0,0.0,0.0,0.0,0.0,1771318167.882652,0.0
82.0,19866.051658,10491.461812,6047.331518,5763.732584,5024.940374,6709.479595,-15547.873443,-17835.283915,-7803.1281,-7127.50192,5700.052464,19881.83199,7409.715046,18149.728256,6705.478633,-2943.27771,-0.002,-0.01,1.006,192.0,127.5,120.0,127.5,88.0,15.5,56.0,0.0,0.0,0.0,1771318167.882689,0.0
84.0,19569.108733,10206.745292,5758.278758,5481.631217,4745.990604,6418.795159,-15838.602583,-18124.962524,-7847.518664,-7169.254979,5655.617196,19836.569707,7370.219513,18103.460145,6672.576865,-2990.886926,-0.002,-0.01,1.006,192.0,0.0,0.0,0.0,0.0,0.0,0.0,0.0,0.0,0.0,1771318167.882726,0.0
86.0,19807.110108,10436.387114,5982.802031,5707.383836,4975.118336,6654.270787,-15610.950066,-17900.439251,-7981.852648,-7309.489824,5510.532023,19692.780935,7234.253852,17963.270004,6534.13016,-3130.339459,-0.002,-0.01,1.006,192.0,0.0,0.0,0.0,0.0,0.0,0.0,0.0,0.0,0.0,1771318167.882769,0.0
88.0,19727.672008,10362.134619,5906.314362,5635.768847,4904.330361,6589.651893,-15685.82841,-17977.9551,-7726.618079,-7038.519625,5771.868619,19957.984383,7494.808137,18239.805787,6794.729149,-2861.962064,-0.002,-0.01,1.006,192.0,0.0,0.0,0.0,0.0,0.0,0.0,0.0,0.0,0.0,1771318167.882781,0.0
90.0,19587.593625,10226.705399,5771.734508,5501.65838,4763.402613,6448.142999,-15820.788243,-18115.708901,-8016.34139,-7323.124388,5483.754633,19680.599234,7212.32679,17948.204928,6527.022305,-3143.191712,-0.002,-0.01,1.006,192.0,0.0,0.0,0.0,0.0,0.0,0.0,0.0,0.0,0.0,1771318167.882797,0.0
92.0,19860.709591,10500.983656,6045.18575,5760.558636,5025.745037,6709.770168,-15553.237862,-17848.225575,-7810.146548,-7124.93147,5689.480089,19878.903911,7414.855947,18152.030486,6712.295915,-2947.233969,-0.002,-0.01,1.006,192.0,0.0,0.0,127.5,104.0,15.5,56.0,0.0,0.0,0.0,1771318167.88281,0.0
94.0,19573.869654,10218.658771,5757.831723,5477.987883,4742.1014,6425.85831,-15840.949516,-18130.393997,-7854.827685,-7174.39588,5641.736763,19828.008989,7362.798734,18099.16861,6668.821772,-3003.850937,-0.002,-0.01,1.006,192.0,0.0,0.0,0.0,0.0,0.0,0.0,0.0,0.0,0.0,1771318167.882822,0.0
96.0,19790.770983,10423.020771,5971.357938,5690.821194,4952.476019,6635.070638,-15623.020008,-17910.653998,-7984.110175,-7306.047655,5509.682656,19699.218237,7227.637735,17964.409943,6534.733657,-3135.368602,-0.002,-0.01,1.006,192.0,0.0,0.0,0.0,0.0,0.0,0.0,0.0,0.0,0.0,1771318167.882833,0.0
98.0,19748.280316,10377.914951,5915.791501,5644.173103,4902.788091,6585.874449,-15675.054869,-17960.945423,-7713.609363,-7035.613899,5782.508049,19965.941604,7491.611837,18234.419016,6792.493974,-2870.545133,-0.002,-0.01,1.006,192.0,0.0,0.0,0.0,0.0,0.0,0.0,0.0,0.0,0.0,1771318167.882845,0.0
100.0,19601.161134,10240.339963,5769.901665,5502.775967,4762.620302,6452.590996,-15818.150737,-18105.047119,-8006.104291,-7315.21187,5494.662284,19690.188133,7211.745645,17954.50812,6516.651096,-3155.731041,-0.002,-0.01,1.006,192.0,0.0,0.0,0.0,0.0,0.0,0.0,0.0,0.0,0.0,1771318167.882857,0.0
102.0,19871.550187,10503.665865,6040.648346,5773.008558,5027.82375,6719.292011,-15546.174711,-17837.228517,-7792.868649,-7104.747844,5701.907659,19893.544304,7414.207746,18175.231597,6704.562212,-2942.517751,-0.002,-0.01,1.006,192.0,0.0,0.0,127.5,112.0,15.5,48.0,0.0,0.0,0.0,1771318167.882868,0.0
104.0,19576.596567,10213.741388,5754.411907,5482.726453,4745.677679,6422.572604,-15835.540394,-18126.057759,-7847.920996,-7159.01788,5652.33149,19845.845681,7365.123315,18115.217163,6671.772202,-2985.634266,-0.002,-0.01,1.006,192.0,0.0,0.0,0.0,0.0,0.0,0.0,0.0,0.0,0.0,1771318167.882879,0.0
106.0,19782.120857,10414.974143,5959.064479,5679.511211,4946.08342,6617.502167,-15636.095778,-17926.143757,-8001.008093,-7312.864937,5501.881898,19693.272673,7217.668857,17961.325402,6522.864881,-3142.118829,-0.002,-0.01,1.006,192.0,0.0,0.0,0.0,0.0,0.0,0.0,0.0,0.0,0.0,1771318167.88291,0.0
108.0,19755.835206,10392.063605,5932.532958,5652.130324,4919.909527,6605.029894,-15666.896482,-17955.312783,-7717.900898,-7034.920995,5780.988131,19967.595633,7501.424253,18235.067217,6793.119823,-2866.834744,-0.002,-0.01,1.006,192.0,0.0,0.0,0.0,0.0,0.0,0.0,0.0,0.0,0.0,1771318167.882922,0.0
110.0,19595.46144,10236.786036,5773.723814,5499.803185,4760.80981,6447.338336,-15823.068121,-18107.528163,-8001.969218,-7309.489824,5492.404758,19693.429135,7226.140168,17958.754952,6523.714247,-3146.678584,-0.002,-0.01,1.006,192.0,0.0,0.0,0.0,0.0,0.0,0.0,0.0,0.0,0.0,1771318167.882933,0.0
112.0,19884.491847,10518.820348,6052.673585,5779.088232,5028.606061,6725.125816,-15538.798635,-17821.582296,-7784.352634,-7103.719664,5704.969848,19894.304263,7419.750979,18170.537731,6706.506813,-2942.24953,-0.004,-0.004,1.002,192.0,127.5,112.0,127.5,112.0,15.5,40.0,0.0,0.0,0.0,1771318167.882944,0.0
114.0,19588.353585,10225.185481,5748.82397,5477.339682,4735.418229,6421.343258,-15841.776531,-18124.40373,-7825.211623,-7148.311394,5665.78724,19856.708629,7375.673339,18128.158823,6672.666272,-2986.260114,-0.004,-0.004,1.002,192.0,0.0,0.0,0.0,0.0,0.0,0.0,0.0,0.0,0.0,1771318167.882962,0.0
116.0,19800.315177,10426.865271,5965.255912,5689.211868,4953.504199,6635.942356,-15626.797453,-17913.045634,-7988.647579,-7305.488861,5506.799281,19691.283368,7218.942907,17966.4216,6521.747294,-3141.738849,-0.004,-0.004,1.002,192.0,0.0,0.0,0.0,0.0,0.0,0.0,0.0,0.0,0.0,1771318167.882973,0.0
118.0,19750.89547,10382.340596,5921.893528,5647.056478,4915.640344,6591.998827,-15672.551474,-17958.531434,-7710.346009,-7032.708172,5784.407948,19969.517883,7499.747872,18240.833967,6796.40553,-2864.465459,-0.004,-0.004,1.002,192.0,0.0,0.0,0.0,0.0,0.0,0.0,0.0,0.0,0.0,1771318167.882984,0.0
120.0,19594.969701,10238.261251,5772.606227,5496.539831,4767.761203,6444.767886,-15822.352865,-18106.388224,-7989.698111,-7301.37614,5504.541755,19695.641958,7225.335506,17979.586778,6530.129198,-3144.44341,-0.004,-0.004,1.002,192.0,0.0,0.0,0.0,0.0,0.0,0.0,0.0,0.0,0.0,1771318167.882995,0.0
122.0,19880.021498,10517.18867,6051.198369,5779.132936,5031.265918,6716.07336,-15543.537205,-17827.974895,-7786.34194,-7107.117129,5708.680237,19890.727984,7421.784988,18160.859425,6709.010209,-2953.961844,-0.004,-0.007,1.003,192.0,127.5,112.0,127.5,88.0,15.5,48.0,0.0,0.0,0.0,1771318167.883008,0.0
124.0,19589.918207,10218.301143,5756.468267,5486.235677,4737.094609,6424.383095,-15837.842624,-18124.180213,-7823.647001,-7139.616566,5671.151658,19857.893271,7384.27876,18136.943059,6679.215333,-2989.702283,-0.004,-0.007,1.003,192.0,0.0,0.0,0.0,0.0,0.0,0.0,0.0,0.0,0.0,1771318167.88302,0.0
126.0,19792.268549,10430.150977,5970.575627,5689.435385,4946.619862,6633.68483,-15625.769273,-17913.291504,-7992.961465,-7311.054446,5497.478604,19684.220217,7212.147976,17964.231129,6510.03498,-3157.407422,-0.004,-0.007,1.003,192.0,0.0,0.0,0.0,0.0,0.0,0.0,0.0,0.0,0.0,1771318167.883031,0.0
128.0,19745.285183,10387.436794,5933.561138,5648.263472,4913.718094,6595.016312,-15666.784724,-17952.608222,-7698.857212,-7013.239803,5799.383616,19981.163142,7514.432968,18258.916528,6801.92641,-2859.905703,-0.004,-0.007,1.003,192.0,0.0,0.0,0.0,0.0,0.0,0.0,0.0,0.0,0.0,1771318167.883043,0.0
130.0,19601.854038,10237.188368,5778.372977,5498.350322,4763.693185,6440.677517,-15821.01176,-18101.98493,-7994.749605,-7308.349885,5502.55245,19687.707089,7221.558061,17963.47117,6517.321648,-3160.469611,-0.004,-0.007,1.003,192.0,0.0,0.0,0.0,0.0,0.0,0.0,0.0,0.0,0.0,1771318167.883054,0.0
132.0,19877.272234,10518.820348,6052.584178,5768.985244,5035.110418,6712.653543,-15545.459455,-17827.281991,-7779.748175,-7103.674961,5715.698685,19896.271216,7422.030857,18162.669916,6708.540822,-2952.687794,-0.004,-0.007,1.003,192.0,0.0,0.0,127.5,104.0,15.5,56.0,0.0,0.0,0.0,1771318167.883065,0.0
134.0,19617.656722,10242.798655,5777.769479,5500.138462,4768.163534,6445.84077,-15817.346074,-18099.883866,-7818.5061,-7130.45235,5681.656978,19868.912681,7390.760766,18134.350256,6685.96556,-2985.187231,-0.004,-0.007,1.003,192.0,0.0,0.0,0.0,0.0,0.0,0.0,0.0,0.0,0.0,1771318167.883077,0.0
136.0,19787.01589,10425.412408,5957.857485,5680.181763,4950.82199,6633.394257,-15635.849909,-17922.902754,-7987.284122,-7302.314914,5505.636991,19692.758583,7228.107122,17968.813237,6518.103959,-3151.551265,-0.004,-0.007,1.003,192.0,0.0,0.0,0.0,0.0,0.0,0.0,0.0,0.0,0.0,1771318167.883087,0.0
138.0,19759.366782,10404.446471,5931.191853,5652.152676,4934.214644,6610.126091,-15667.7682,-17954.619879,-7697.359645,-7012.636305,5792.521631,19976.491627,7510.968448,18260.682316,6799.802995,-2860.799773,-0.004,-0.007,1.003,192.0,0.0,0.0,0.0,0.0,0.0,0.0,0.0,0.0,0.0,1771318167.883098,0.0
140.0,19594.299149,10230.907527,5766.481849,5494.34936,4771.248075,6452.233368,-15831.584135,-18119.061663,-7991.553306,-7307.00878,5493.388235,19683.326147,7224.039104,17974.155304,6520.182672,-3153.317053,-0.004,-0.007,1.003,192.0,0.0,0.0,0.0,0.0,0.0,0.0,0.0,0.0,0.0,1771318167.883109,0.0
142.0,19875.506446,10509.119691,6052.025384,5777.657721,5049.013203,6730.892567,-15545.615917,-17835.842709,-7772.550913,-7096.812975,5709.529604,19886.347042,7433.139674,18173.823437,6719.761398,-2940.46139,-0.004,-0.0115,1.0045,192.0,127.5,112.0,127.5,64.0,15.5,56.0,0.0,0.0,0.0,1771318167.883121,0.0
144.0,19594.232094,10223.330286,5763.218494,5492.404758,4760.630996,6433.03322,-15833.841662,-18127.756492,-7827.938536,-7139.258938,5663.708528,19848.259669,7387.229191,18138.261812,6687.306665,-2984.695492,-0.004,-0.0115,1.0045,192.0,0.0,0.0,0.0,0.0,0.0,0.0,0.0,0.0,0.0,1771318167.883133,0.0
146.0,19780.042145,10426.172367,5969.882723,5693.97279,4960.366185,6645.59831,-15625.746921,-17922.366312,-7995.33075,-7305.578268,5494.885802,19681.560359,7223.21209,17968.85794,6522.417846,-3147.617358,-0.004,-0.0115,1.0045,192.0,0.0,0.0,0.0,0.0,0.0,0.0,0.0,0.0,0.0,1771318167.883145,0.0
148.0,19763.904186,10394.410538,5933.96347,5658.388812,4925.83274,6615.401103,-15663.521369,-17954.686934,-7689.0895,-7010.557593,5795.561468,19978.57034,7520.512643,18264.415057,6809.123672,-2850.696784,-0.004,-0.0115,1.0045,192.0,0.0,0.0,0.0,0.0,0.0,0.0,0.0,0.0,0.0,1771318167.883157,0.0
150.0,19590.544056,10236.361353,5763.129087,5486.302732,4753.321976,6446.958357,-15833.394627,-18119.441643,-7999.152899,-7310.070969,5489.811956,19679.727516,7214.159633,17970.221397,6513.946535,-3158.435602,-0.004,-0.0115,1.0045,192.0,0.0,0.0,0.0,0.0,0.0,0.0,0.0,0.0,0.0,1771318167.883169,0.0
152.0,19874.970004,10513.947667,6050.349003,5769.253465,5034.149293,6723.695305,-15546.197062,-17833.29461,-7789.42648,-7102.356208,5705.863918,19890.750336,7422.276726,18174.181065,6708.250249,-2946.474009,-0.004,-0.01275,1.00525,192.0,127.5,112.0,127.5,72.0,15.5,56.0,0.0,0.0,0.0,1771318167.88318,0.0
154.0,19585.894893,10224.090245,5761.162133,5478.703139,4743.598967,6431.714467,-15836.993258,-18124.068454,-7835.046391,-7142.276423,5662.166257,19852.305335,7382.401214,18126.616553,6672.152182,-2994.552612,-0.004,-0.01275,1.00525,192.0,0.0,0.0,0.0,0.0,0.0,0.0,0.0,0.0,0.0,1771318167.883192,0.0
156.0,19799.57757,10434.15194,5969.256874,5692.005836,4949.704403,6640.904443,-15623.936429,-17913.2468,-7983.931361,-7295.430576,5511.806072,19696.156048,7230.588166,17973.305937,6518.394532,-3143.839913,-0.004,-0.01275,1.00525,192.0,0.0,0.0,0.0,0.0,0.0,0.0,0.0,0.0,0.0,1771318167.883203,0.0
158.0,19764.574738,10404.625285,5925.916842,5652.532655,4915.193309,6601.14069,-15667.097648,-17954.329306,-7698.879564,-7009.305895,5797.953105,19978.346822,7515.841128,18261.710496,6795.757329,-2858.676357,-0.004,-0.01275,1.00525,192.0,0.0,0.0,0.0,0.0,0.0,0.0,0.0,0.0,0.0,1771318167.883214,0.0
160.0,19612.024082,10240.272908,5766.705366,5495.75752,4758.306415,6439.872854,-15827.091435,-18117.519393,-7998.750567,-7301.018512,5495.556354,19687.036537,7221.759227,17970.13199,6515.019419,-3150.59014,-0.004,-0.01275,1.00525,192.0,0.0,0.0,0.0,0.0,0.0,0.0,0.0,0.0,0.0,1771318167.883225,0.0
162.0,19886.212931,10519.35679,6051.555997,5775.646064,5037.390296,6728.255061,-15542.598431,-17835.798006,-7786.654864,-7099.226963,5706.66858,19885.274158,7421.829691,18179.098449,6708.652581,-2945.043498,-0.004,-0.010375,1.006625,192.0,127.5,112.0,127.5,96.0,15.5,64.0,0.0,0.0,0.0,1771318167.883236,0.0
164.0,19581.044564,10229.119388,5754.59072,5484.626351,4747.398764,6430.775694,-15838.155548,-18132.47271,-7826.06099,-7132.3746,5663.060327,19850.96423,7382.110641,18139.625268,6682.456336,-2982.505021,-0.004,-0.010375,1.006625,192.0,0.0,0.0,0.0,0.0,0.0,0.0,0.0,0.0,0.0,1771318167.883247,0.0
166.0,19790.435706,10433.39198,5960.629101,5689.88242,4953.750068,6640.815036,-15631.647781,-17922.075739,-7999.778748,-7312.328495,5490.147232,19676.084182,7205.777729,17968.746182,6504.871727,-3157.563884,-0.004,-0.010375,1.006625,192.0,0.0,0.0,0.0,0.0,0.0,0.0,0.0,0.0,0.0,1771318167.883258,0.0
168.0,19766.117008,10404.491175,5927.906147,5656.82419,4924.379876,6611.087216,-15665.689488,-17950.261289,-7694.051587,-7001.885116,5801.015294,19992.093145,7509.269715,18273.132238,6803.871012,-2851.836723,-0.004,-0.010375,1.006625,192.0,0.0,0.0,0.0,0.0,0.0,0.0,0.0,0.0,0.0,1771318167.883269,0.0
170.0,19602.681053,10238.708286,5764.44784,5494.684636,4761.458011,6446.578377,-15827.180842,-18111.506773,-8004.763187,-7299.029207,5502.55245,19691.484534,7211.231555,17976.569292,6519.78034,-3149.31609,-0.004,-0.010375,1.006625,192.0,0.0,0.0,0.0,0.0,0.0,0.0,0.0,0.0,0.0,1771318167.883281,0.0
172.0,19880.04385,10520.161452,6051.757163,5774.796697,5042.531197,6726.466921,-15542.665487,-17827.952543,-7795.4391,-7099.249315,5705.930973,19895.80183,7411.547889,18173.577568,6709.747816,-2943.747097,-0.004,-0.010375,1.006625,192.0,0.0,0.0,127.5,88.0,15.5,48.0,0.0,0.0,0.0,1771318167.883291,0.0
174.0,19598.903608,10232.181577,5755.820066,5484.112261,4749.388069,6428.67463,-15840.48013,-18122.414425,-7832.498292,-7139.437752,5666.167219,19852.484149,7374.756917,18129.522279,6678.880057,-2987.86944,-0.004,-0.010375,1.006625,192.0,0.0,0.0,0.0,0.0,0.0,0.0,0.0,0.0,0.0,1771318167.883302,0.0
176.0,19798.929369,10443.942004,5960.49499,5687.155507,4944.339984,6640.457408,-15633.346514,-17914.587905,-7992.626189,-7294.402396,5503.714741,19695.731365,7211.969162,17980.234978,6515.645267,-3146.723288,-0.004,-0.010375,1.006625,192.0,0.0,0.0,0.0,0.0,0.0,0.0,0.0,0.0,0.0,1771318167.883313,0.0
178.0,19772.375497,10424.093655,5938.813798,5667.70949,4926.168016,6617.323353,-15656.033535,-17936.850242,-7695.727968,-7003.025055,5802.736378,19993.456601,7499.502003,18271.031174,6797.076082,-2853.826029,-0.004,-0.010375,1.006625,192.0,0.0,0.0,0.0,0.0,0.0,0.0,0.0,0.0,0.0,1771318167.883324,0.0
180.0,19585.112582,10228.38178,5751.595587,5478.814897,4738.905101,6426.439455,-15842.670601,-18126.035407,-7989.832221,-7296.190536,5505.592287,19705.879057,7215.344276,17974.1106,6521.1885,-3145.918625,-0.004,-0.010375,1.006625,192.0,0.0,0.0,0.0,0.0,0.0,0.0,0.0,0.0,0.0,1771318167.883336,0.0
182.0,19894.997167,10534.690086,6061.055489,5783.80445,5036.429171,6729.193834,-15533.590678,-17813.960351,-7787.414823,-7102.266801,5708.657886,19898.081708,7406.406987,18178.003213,6698.616648,-2951.056117,-0.003,-0.009188,1.005313,192.0,127.5,120.0,127.5,96.0,15.5,48.0,0.0,0.0,0.0,1771318167.883347,0.0
184.0,19601.898742,10253.996879,5768.135878,5496.361017,4749.589235,6436.788313,-15825.75033,-18103.884829,-7826.217452,-7138.163702,5673.744461,19872.377202,7371.873542,18137.099521,6669.581732,-2991.803347,-0.003,-0.009188,1.005313,192.0,0.0,0.0,0.0,0.0,0.0,0.0,0.0,0.0,0.0,1771318167.883359,0.0
186.0,19786.25593,10421.187928,5949.117952,5672.291597,4929.856054,6620.765522,-15642.868357,-17922.813347,-7982.120869,-7290.893172,5521.506729,19709.455336,7219.635811,17980.749068,6515.242936,-3147.192675,-0.003,-0.009188,1.005313,192.0,0.0,0.0,0.0,0.0,0.0,0.0,0.0,0.0,0.0,1771318167.883372,0.0
188.0,19776.309404,10407.843936,5932.957641,5658.925254,4919.104864,6606.706274,-15660.727401,-17941.477053,-7709.697808,-7017.643096,5797.12609,19977.363345,7491.790651,18252.211005,6784.246181,-2866.544171,-0.003,-0.009188,1.005313,192.0,0.0,0.0,0.0,0.0,0.0,0.0,0.0,0.0,0.0,1771318167.883384,0.0
190.0,19594.075631,10248.185426,5763.799639,5488.649665,4754.931301,6443.315022,-15830.041865,-18111.797346,-7996.157765,-7294.4471,5510.420264,19697.877133,7208.795215,17976.435182,6517.72398,-3145.963329,-0.003,-0.009188,1.005313,192.0,0.0,0.0,0.0,0.0,0.0,0.0,0.0,0.0,0.0,1771318167.883395,0.0
192.0,19894.058394,10539.272194,6052.405364,5776.473078,5041.391258,6728.299764,-15541.637306,-17823.884526,-7796.735501,-7104.8149,5705.305124,19890.370356,7395.633447,18170.627137,6695.912086,-2953.358347,-0.003,-0.009188,1.005313,192.0,0.0,0.0,0.0,0.0,0.0,0.0,0.0,0.0,0.0,1771318167.883407,0.0
194.0,19603.083384,10241.546958,5761.363299,5486.638008,4757.524104,6440.610461,-15836.12154,-18115.351273,-7816.337981,-7126.406685,5680.539391,19864.554091,7377.416775,18146.151977,6680.332921,-2978.660521,-0.003,-0.009188,1.005313,192.0,0.0,0.0,127.5,96.0,15.5,48.0,0.0,0.0,0.0,1771318168.363338,0.0
196.0,19821.951666,10454.089696,5975.381252,5690.038882,4965.037699,6655.790705,-15624.294057,-17902.003873,-7979.05868,-7292.726015,5515.538814,19702.347482,7215.120758,17978.916225,6514.773549,-3145.516294,-0.003,-0.009188,1.005313,192.0,0.0,0.0,0.0,0.0,0.0,0.0,0.0,0.0,0.0,1771318168.363394,0.0
198.0,19769.08979,10414.840032,5933.628194,5657.159466,4922.390571,6609.567298,-15664.750715,-17946.68501,-7685.200296,-7002.309799,5805.932677,19992.450773,7502.653599,18275.34506,6797.880745,-2853.133124,-0.003,-0.009188,1.005313,192.0,0.0,0.0,0.0,0.0,0.0,0.0,0.0,0.0,0.0,1771318168.363438,0.0
200.0,19620.137765,10256.276757,5777.165982,5498.752653,4765.41427,6446.041935,-15821.347037,-18103.840125,-7982.970236,-7291.451966,5516.298773,19703.845048,7215.813663,17979.519722,6525.949422,-3141.49298,-0.003,-0.009188,1.005313,192.0,0.0,0.0,0.0,0.0,0.0,0.0,0.0,0.0,0.0,1771318168.363475,0.0
202.0,19908.296455,10541.127389,6069.258579,5790.755843,5050.443715,6734.848825,-15527.600411,-17811.12168,-7779.323492,-7095.382463,5718.269136,19899.422812,7408.820976,18179.724297,6707.423235,-2945.937567,-0.003,-0.009188,1.005313,192.0,0.0,0.0,0.0,0.0,0.0,0.0,0.0,0.0,0.0,1771318168.363512,0.0
204.0,19599.931788,10248.431295,5760.983319,5484.671054,4743.88954,6428.786388,-15836.881499,-18116.670026,-7812.247612,-7124.640897,5684.87563,19866.431638,7377.886162,18139.804082,6686.032615,-2979.576943,-0.004,-0.012,1.004,192.0,127.5,112.0,127.5,80.0,15.5,48.0,0.0,0.0,0.0,1771318168.363549,0.0
206.0,19797.588265,10430.95564,5954.169447,5673.565647,4928.604356,6626.800493,-15640.588479,-17922.813347,-7994.034349,-7302.560783,5506.754578,19688.556455,7202.559078,17968.232091,6503.865898,-3160.290797,-0.004,-0.012,1.004,192.0,0.0,0.0,0.0,0.0,0.0,0.0,0.0,0.0,0.0,1771318168.363582,0.0
208.0,19773.090753,10407.151032,5927.481464,5648.039955,4900.619972,6593.362283,-15667.567035,-17949.456626,-7698.18666,-7019.74416,5794.198012,19974.34586,7485.308645,18252.948612,6779.88759,-2867.30413,-0.004,-0.012,1.004,192.0,0.0,0.0,0.0,0.0,0.0,0.0,0.0,0.0,0.0,1771318168.363593,0.0
210.0,19610.168887,10251.82876,5775.221381,5497.925639,4750.68447,6435.961298,-15820.967057,-18101.09086,-7984.55721,-7302.985466,5512.655439,19692.3339,7208.281125,17963.292356,6510.54907,-3154.680509,-0.004,-0.012,1.004,192.0,0.0,0.0,0.0,0.0,0.0,0.0,0.0,0.0,0.0,1771318168.363604,0.0
212.0,19896.092402,10530.867938,6061.882503,5783.871506,5040.407782,6737.195758,-15533.903603,-17814.675607,-7780.441079,-7098.064673,5718.716171,19902.306187,7414.945354,18177.310309,6705.43393,-2943.635338,-0.004,-0.012,1.004,192.0,0.0,0.0,0.0,0.0,0.0,0.0,0.0,0.0,0.0,1771318168.363615,0.0
214.0,19619.646027,10245.659679,5770.303997,5492.292999,4758.596988,6444.164389,-15828.745464,-18108.846916,-7814.393379,-7129.915909,5683.802746,19871.416077,7389.240848,18148.253041,6686.099671,-2977.408824,-0.002,-0.016,1.002,192.0,127.5,120.0,127.5,64.0,15.5,40.0,0.0,0.0,0.0,1771318168.363627,0.0
216.0,19782.433782,10429.815701,5950.74963,5671.308121,4936.360411,6622.888937,-15647.65163,-17930.681161,-7997.253,-7310.093321,5500.160813,19685.091935,7210.225726,17964.700516,6505.743445,-3157.832105,-0.002,-0.016,1.002,192.0,0.0,0.0,0.0,0.0,0.0,0.0,0.0,0.0,0.0,1771318168.363638,0.0
218.0,19770.050915,10408.581544,5933.44938,5659.059365,4922.994068,6610.260202,-15664.638956,-17946.953231,-7699.639523,-7017.933669,5796.120262,19976.715145,7501.446605,18257.977755,6792.493974,-2857.268197,-0.002,-0.016,1.002,192.0,0.0,0.0,0.0,0.0,0.0,0.0,0.0,0.0,0.0,1771318168.363658,0.0
220.0,19611.219419,10250.219435,5770.907494,5494.528174,4763.179095,6440.789275,-15827.806691,-18108.288122,-7983.037291,-7299.096262,5511.26963,19693.026804,7219.635811,17984.772382,6523.155454,-3142.297643,-0.002,-0.016,1.002,192.0,0.0,0.0,0.0,0.0,0.0,0.0,0.0,0.0,0.0,1771318168.363669,0.0
222.0,19888.62692,10537.081723,6058.105058,5776.428375,5046.643918,6722.577718,-15542.441969,-17822.588125,-7792.265152,-7108.011199,5703.20406,19888.336347,7405.512918,18164.703925,6696.381473,-2957.605178,-0.002,-0.016,1.002,192.0,0.0,0.0,0.0,0.0,0.0,0.0,0.0,0.0,0.0,1771318168.363681,0.0
224.0,19604.82682,10251.381725,5767.308863,5493.32118,4759.379299,6437.01183,-15832.947592,-18114.703073,-7812.694646,-7123.813882,5684.62976,19873.517141,7390.760766,18150.041181,6686.636113,-2979.66635,0.002,-0.014,1.008,192.0,0.0,8.0,127.5,72.0,15.5,64.0,0.0,0.0,0.0,1771318168.363692,0.0
226.0,19809.389986,10436.744742,5963.065441,5687.222563,4947.826856,6638.825731,-15633.950011,-17917.024245,-7987.753509,-7308.796919,5504.653514,19688.399993,7212.013866,17974.401173,6510.16909,-3148.109096,0.002,-0.014,1.008,192.0,0.0,0.0,0.0,0.0,0.0,0.0,0.0,0.0,0.0,1771318168.363702,0.0
228.0,19777.382288,10413.230707,5932.868234,5658.433516,4915.483882,6602.727664,-15664.124866,-17945.165091,-7689.447128,-7011.116387,5804.211593,19994.97652,7501.670122,18273.489865,6796.427881,-2851.724965,0.002,-0.014,1.008,192.0,0.0,0.0,0.0,0.0,0.0,0.0,0.0,0.0,0.0,1771318168.363714,0.0
230.0,19607.64314,10249.951214,5761.11743,5482.100604,4743.286043,6420.426836,-15836.680333,-18116.580619,-7987.485288,-7298.04573,5513.638915,19701.43106,7215.6572,17972.545978,6518.975677,-3149.69607,0.002,-0.014,1.008,192.0,0.0,0.0,0.0,0.0,0.0,0.0,0.0,0.0,0.0,1771318168.363725,0.0
232.0,19908.475269,10543.742543,6063.469477,5780.697558,5041.726535,6736.413447,-15536.474053,-17815.99436,-7795.506155,-7112.213327,5704.299295,19888.336347,7397.488641,18162.379344,6691.374682,-2961.181457,0.002,-0.014,1.008,192.0,0.0,0.0,0.0,0.0,0.0,0.0,0.0,0.0,0.0,1771318168.363736,0.0
234.0,19622.529402,10253.169865,5779.892895,5494.304656,4767.224761,6452.568645,-15822.084644,-18101.604951,-7796.735501,-7113.01799,5697.750234,19884.603606,7402.85306,18163.943966,6696.403825,-2964.198943,0.002,-0.012,1.004,192.0,0.0,8.0,127.5,80.0,15.5,48.0,0.0,0.0,0.0,1771318168.363747,0.0
236.0,19788.69227,10433.25787,5950.727278,5676.158449,4934.527568,6623.872414,-15645.97525,-17927.998951,-7980.288026,-7310.138024,5507.916869,19693.697356,7213.73495,17967.919167,6508.850337,-3152.087707,0.002,-0.012,1.004,192.0,0.0,0.0,0.0,0.0,0.0,0.0,0.0,0.0,0.0,1771318168.363758,0.0
238.0,19787.261759,10427.804044,5944.021755,5664.647301,4927.933804,6616.608097,-15656.189997,-17936.000876,-7684.641502,-7010.624648,5806.893803,19991.981386,7506.900431,18264.996203,6792.31516,-2856.329424,0.002,-0.012,1.004,192.0,0.0,0.0,0.0,0.0,0.0,0.0,0.0,0.0,0.0,1771318168.36377,0.0
240.0,19599.596512,10236.920147,5762.972625,5482.212363,4746.236473,6431.870929,-15836.054484,-18116.647675,-7980.913875,-7292.681312,5524.032476,19708.158935,7228.59886,17995.680034,6523.11075,-3141.917663,0.002,-0.012,1.004,192.0,0.0,0.0,0.0,0.0,0.0,0.0,0.0,0.0,0.0,1771318168.36378,0.0
242.0,19896.248865,10527.470473,6056.339271,5776.406023,5036.987965,6716.475691,-15543.112522,-17825.247982,-7792.868649,-7122.562185,5695.380949,19882.659004,7397.622752,18152.969259,6679.014168,-2969.518658,0.002,-0.012,1.004,192.0,0.0,0.0,0.0,0.0,0.0,0.0,0.0,0.0,0.0,1771318168.363792,0.0
244.0,19618.908419,10254.890949,5779.490564,5499.244392,4768.588217,6451.831037,-15822.308162,-18103.817773,-7794.857954,-7121.243432,5696.856165,19880.133257,7405.512918,18163.653393,6693.319284,-2965.875324,-0.002,-0.01,1.002,192.0,127.5,120.0,127.5,88.0,15.5,40.0,0.0,0.0,0.0,1771318168.363802,0.0
246.0,19780.600939,10411.129643,5944.535845,5664.334376,4932.001821,6620.676115,-15655.832369,-17939.688914,-7993.676721,-7309.690989,5507.268668,19685.360156,7219.926383,17977.128086,6507.039846,-3152.691204,-0.002,-0.01,1.002,192.0,0.0,0.0,0.0,0.0,0.0,0.0,0.0,0.0,0.0,1771318168.363814,0.0
248.0,19782.299671,10420.047989,5945.228749,5667.731842,4937.545054,6618.664458,-15654.200691,-17936.17969,-7701.51707,-7020.660582,5793.840384,19981.65488,7505.648733,18261.934014,6785.609637,-2863.951369,-0.002,-0.01,1.002,192.0,0.0,0.0,0.0,0.0,0.0,0.0,0.0,0.0,0.0,1771318168.363824,0.0
250.0,19603.508068,10245.592623,5774.550828,5491.823613,4765.838953,6443.426781,-15826.107958,-18112.847878,-7971.61555,-7284.634684,5528.189901,19720.407691,7245.943814,17998.004615,6542.534416,-3126.159683,-0.002,-0.01,1.002,192.0,0.0,0.0,0.0,0.0,0.0,0.0,0.0,0.0,0.0,1771318168.363837,0.0
252.0,19875.797019,10516.696932,6055.847532,5769.007596,5040.273671,6723.941174,-15546.442931,-17833.182851,-7797.830736,-7122.919813,5702.399397,19886.369394,7412.46431,18162.535806,6698.616648,-2957.426364,-0.002,-0.01,1.002,192.0,0.0,0.0,0.0,0.0,0.0,0.0,0.0,0.0,0.0,1771318168.363848,0.0
254.0,19601.183486,10242.441027,5769.052299,5487.196802,4759.155781,6444.410258,-15834.266345,-18116.960599,-7822.060027,-7132.419304,5684.428595,19868.242129,7391.498374,18151.762265,6688.826583,-2977.051196,-0.002,-0.012,1.008,192.0,127.5,120.0,127.5,80.0,15.5,64.0,0.0,0.0,0.0,1771318168.36386,0.0
0.0,19788.982843,10421.903184,5957.052822,5674.794993,4941.814237,6637.216406,-15642.421322,-17926.903716,-7992.939114,-7308.193422,5510.464968,19696.804249,7221.692171,17975.474057,6518.707456,-3144.018727,-0.002,-0.012,1.008,192.0,0.0,0.0,0.0,0.0,0.0,0.0,0.0,0.0,0.0,1771318168.36387,0.0
2.0,19784.601901,10419.444492,5945.608729,5664.312025,4929.364315,6616.496338,-15653.373677,-17935.553841,-7688.664816,-7007.383645,5810.246564,19997.837543,7516.75755,18274.562749,6805.323876,-2848.640424,-0.002,-0.012,1.008,192.0,0.0,0.0,0.0,0.0,0.0,0.0,0.0,0.0,0.0,1771318168.363881,0.0
4.0,19586.967777,10218.569364,5755.641252,5467.326101,4738.368659,6419.689228,-15845.777493,-18130.930439,-7990.927457,-7310.361542,5507.268668,19702.749813,7220.798102,17965.974565,6519.78034,-3153.67468,-0.002,-0.012,1.008,192.0,0.0,0.0,0.0,0.0,0.0,0.0,0.0,0.0,0.0,1771318168.363893,0.0
6.0,19892.583179,10534.466569,6060.004957,5774.349663,5044.118171,6725.30463,-15542.665487,-17828.176061,-7801.138795,-7131.704048,5697.616124,19877.272234,7405.758787,18159.652431,6689.318322,-2966.2106,-0.002,-0.012,1.008,192.0,0.0,0.0,0.0,0.0,0.0,0.0,0.0,0.0,0.0,1771318168.363904,0.0
8.0,19625.613943,10257.573158,5782.731567,5502.865374,4779.428813,6453.52977,-15818.821289,-18103.527201,-7805.497385,-7125.803188,5694.688045,19876.445219,7409.357418,18150.28705,6696.739101,-2965.294178,0.0,-0.012,1.009,192.0,0.0,8.0,127.5,80.0,15.5,72.0,0.0,0.0,0.0,1771318168.363915,0.0
10.0,19785.473619,10423.445454,5952.403659,5673.453888,4943.244749,6621.212557,-15644.678848,-17932.98339,-7989.362835,-7298.850393,5510.24145,19700.425232,7228.822378,17981.307862,6520.696762,-3142.968195,0.0,-0.012,1.009,192.0,0.0,0.0,0.0,0.0,0.0,0.0,0.0,0.0,0.0,1771318168.363926,0.0
12.0,19774.610671,10409.989704,5941.071324,5665.295501,4926.078609,6614.08235,-15654.223043,-17942.684048,-7696.91261,-7013.709189,5798.847175,19996.921122,7512.53307,18264.549168,6796.897268,-2850.048584,0.0,-0.012,1.009,192.0,0.0,0.0,0.0,0.0,0.0,0.0,0.0,0.0,0.0,1771318168.363937,0.0
14.0,19579.681108,10215.551879,5750.74622,5477.317331,4733.205406,6421.030333,-15844.659906,-18130.729274,-7996.202468,-7301.666713,5514.331819,19712.517525,7227.794198,17980.078516,6521.255555,-3137.670831,0.0,-0.012,1.009,192.0,0.0,0.0,0.0,0.0,0.0,0.0,0.0,0.0,0.0,1771318168.363948,0.0
16.0,19896.092402,10531.583194,6059.91555,5785.257314,5040.810113,6730.512587,-15534.752969,-17819.525936,-7811.487652,-7128.843025,5686.842583,19889.811562,7401.333141,18158.87012,6677.538953,-2964.601274,0.0,-0.012,1.009,192.0,0.0,0.0,0.0,0.0,0.0,0.0,0.0,0.0,0.0,1771318168.36396,0.0
18.0,19602.39048,10234.684972,5763.978453,5490.303694,4754.90895,6438.263528,-15832.321743,-18114.546611,-7813.141681,-7127.971307,5686.730824,19880.04385,7402.696598,18148.901242,6688.379549,-2964.668329,0.001,-0.013,1.0075,192.0,0.0,8.0,127.5,72.0,15.5,56.0,0.0,0.0,0.0,1771318168.363971,0.0
20.0,19778.633985,10415.041198,5942.971223,5665.675481,4931.532434,6612.942411,-15652.010221,-17935.28562,-8005.098463,-7311.948515,5502.597153,19699.933493,7214.62902,17973.685917,6506.659866,-3151.081878,0.001,-0.013,1.0075,192.0,0.0,0.0,0.0,0.0,0.0,0.0,0.0,0.0,0.0,1771318168.363982,0.0
22.0,19774.20834,10418.237498,5939.551406,5660.445173,4925.117484,6600.6266,-15657.732267,-17941.611164,-7712.894107,-7023.409846,5794.756805,19985.834656,7501.13368,18251.808673,6786.347245,-2865.672453,0.001,-0.013,1.0075,192.0,0.0,0.0,0.0,0.0,0.0,0.0,0.0,0.0,0.0,1771318168.363993,0.0
24.0,19583.480905,10227.688876,5754.054279,5477.742014,4738.703935,6419.041028,-15841.776531,-18126.549497,-7994.727253,-7301.867879,5515.248241,19705.230857,7226.140168,17969.23792,6524.51891,-3142.744677,0.001,-0.013,1.0075,192.0,0.0,0.0,0.0,0.0,0.0,0.0,0.0,0.0,0.0,1771318168.364004,0.0
26.0,19892.449068,10526.129368,6056.115753,5777.3895,5037.770276,6720.05197,-15539.178615,-17822.856346,-7808.00078,-7126.697257,5695.380949,19886.727022,7400.148499,18146.30844,6686.166726,-2964.42246,0.001,-0.013,1.0075,192.0,0.0,0.0,0.0,0.0,0.0,0.0,0.0,0.0,0.0,1771318168.364017,0.0
28.0,19607.218457,10244.698554,5774.1932,5493.07531,4760.765107,6433.480255,-15825.124481,-18109.092785,-7807.10671,-7125.311449,5697.57142,19887.017594,7405.781139,18149.594146,6694.682741,-2967.082318,0.0015,-0.0145,1.00875,192.0,0.0,8.0,127.5,64.0,15.5,72.0,0.0,0.0,0.0,1771318168.364029,0.0
30.0,19786.278282,10420.182099,5955.756421,5669.63174,4936.181597,6613.858833,-15640.789645,-17928.602449,-8004.271448,-7318.274059,5504.742921,19692.84799,7215.701904,17957.749123,6509.409131,-3153.451163,0.0015,-0.0145,1.00875,192.0,0.0,0.0,0.0,0.0,0.0,0.0,0.0,0.0,0.0,1771318168.36404,0.0
32.0,19771.816703,10407.799233,5933.20351,5657.315929,4920.021286,6595.083367,-15663.387258,-17949.568385,-7702.880526,-7017.061951,5804.435111,19994.551837,7510.074378,18261.554034,6797.56782,-2850.428563,0.0015,-0.0145,1.00875,192.0,0.0,0.0,0.0,0.0,0.0,0.0,0.0,0.0,0.0,1771318168.364052,0.0
34.0,19584.263216,10228.873519,5748.935729,5477.272627,4743.934243,6425.031295,-15848.191482,-18132.293896,-8004.360855,-7306.070007,5504.407645,19700.0229,7224.016753,17972.993013,6515.712323,-3145.002204,0.0015,-0.0145,1.00875,192.0,0.0,0.0,0.0,0.0,0.0,0.0,0.0,0.0,0.0,1771318168.364064,0.0
36.0,19899.467516,10532.633726,6055.579311,5779.781136,5043.827599,6724.947003,-15542.866652,-17826.946715,-7807.419635,-7119.410589,5694.397473,19885.631786,7409.312714,18154.220957,6687.37372,-2957.605178,0.0015,-0.0145,1.00875,192.0,0.0,0.0,0.0,0.0,0.0,0.0,0.0,0.0,0.0,1771318168.364077,0.0
38.0,19624.339893,10267.027946,5786.48666,5505.994619,4772.835049,6454.714412,-15814.127423,-18096.21818,-7801.183498,-7110.112263,5705.148662,19893.901932,7416.979363,18157.394905,6701.254153,-2954.252416,0.0015,-0.0145,1.00875,192.0,0.0,0.0,127.5,80.0,15.5,56.0,0.0,0.0,0.0,1771318168.364088,0.0
40.0,19774.409506,10419.243326,5940.154903,5663.775583,4923.575213,6617.055132,-15657.955785,-17941.879385,-8000.225782,-7310.830928,5505.525232,19697.161877,7213.019694,17959.581966,6502.144814,-3156.200428,0.0015,-0.0145,1.00875,192.0,0.0,0.0,0.0,0.0,0.0,0.0,0.0,0.0,0.0,1771318168.364098,0.0
42.0,19781.673823,10421.925535,5940.937214,5669.855257,4930.19133,6616.630449,-15657.396991,-17939.957135,-7691.570543,-7006.087244,5807.810224,20000.340939,7514.142396,18273.311052,6792.516326,-2853.088421,0.0015,-0.0145,1.00875,192.0,0.0,0.0,0.0,0.0,0.0,0.0,0.0,0.0,0.0,1771318168.364109,0.0
44.0,19587.548922,10222.257402,5742.766648,5471.483525,4742.369621,6422.90788,-15854.271156,-18138.328867,-7983.685492,-7288.859163,5515.337648,19711.757566,7227.995363,17983.096002,6524.876538,-3136.665003,0.0015,-0.0145,1.00875,192.0,0.0,0.0,0.0,0.0,0.0,0.0,0.0,0.0,0.0,1771318168.364119,0.0
46.0,19899.489868,10534.35481,6053.299433,5778.998825,5048.320299,6732.703058,-15544.386571,-17828.55604,-7809.453643,-7126.339629,5685.657941,19875.126466,7391.632484,18148.565966,6675.862572,-2969.988044,0.0015,-0.0145,1.00875,192.0,0.0,0.0,0.0,0.0,0.0,0.0,0.0,0.0,0.0,1771318168.36413,0.0
48.0,19632.699446,10267.631443,5792.074596,5512.208404,4786.246095,6459.475334,-15810.014702,-18093.468916,-7803.284562,-7107.76533,5703.561688,19897.701728,7412.352552,18176.662109,6702.170575,-2953.40305,0.0015,-0.0145,1.00875,192.0,0.0,0.0,127.5,96.0,15.5,56.0,0.0,0.0,0.0,1771318168.364141,0.0
50.0,19772.755477,10409.095634,5946.659261,5666.144868,4933.074705,6608.382655,-15654.603023,-17942.929917,-7992.648541,-7298.582172,5517.394008,19703.532124,7226.050761,17965.996917,6521.970811,-3138.028459,0.0015,-0.0145,1.00875,192.0,0.0,0.0,0.0,0.0,0.0,0.0,0.0,0.0,0.0,1771318168.364152,0.0
52.0,19791.553294,10418.863346,5956.024642,5671.956321,4942.641251,6621.369019,-15647.852796,-17935.531489,-7703.282857,-7020.481768,5801.99877,19984.024165,7510.09673,18250.556976,6797.299599,-2851.993186,0.0015,-0.0145,1.00875,192.0,0.0,0.0,0.0,0.0,0.0,0.0,0.0,0.0,0.0,1771318168.364163,0.0
54.0,19580.552826,10220.648077,5747.169941,5467.19199,4737.22872,6420.337429,-15854.159397,-18137.568907,-7979.706881,-7289.596771,5523.674849,19705.297912,7237.673669,17978.33508,6535.67243,-3129.668907,0.0015,-0.0145,1.00875,192.0,0.0,0.0,0.0,0.0,0.0,0.0,0.0,0.0,0.0,1771318168.364173,0.0
56.0,19887.107001,10519.781473,6050.997204,5768.895837,5033.702258,6720.81193,-15546.465283,-17831.506471,-7819.981315,-7136.755542,5683.959208,19866.252824,7391.632484,18136.406617,6674.454412,-2974.950132,0.0015,-0.0145,1.00875,192.0,0.0,0.0,0.0,0.0,0.0,0.0,0.0,0.0,0.0,1771318168.364185,0.0
58.0,19606.61496,10244.743257,5774.282607,5494.729339,4760.027499,6437.414162,-15821.190574,-18105.561209,-7816.539146,-7124.484435,5696.252667,19878.859207,7396.728682,18147.291916,6692.514621,-2968.155201,-0.00025,-0.01425,1.007375,192.0,127.5,120.0,127.5,72.0,15.5,56.0,0.0,0.0,0.0,1771318168.843411,0.0
60.0,19779.97509,10419.153919,5945.49697,5664.110859,4929.207853,6612.070693,-15648.813921,-17933.519832,-7998.437643,-7307.455815,5511.5155,19695.396089,7213.354971,17958.710248,6510.057331,-3157.00509,-0.00025,-0.01425,1.007375,192.0,0.0,0.0,0.0,0.0,0.0,0.0,0.0,0.0,0.0,1771318168.843474,0.0
62.0,19786.032413,10414.415349,5947.843903,5664.960225,4930.951289,6612.473024,-15650.624412,-17936.067931,-7699.639523,-7012.524547,5805.642105,19983.688889,7502.474785,18257.575423,6790.102338,-2862.409098,-0.00025,-0.01425,1.007375,192.0,0.0,0.0,0.0,0.0,0.0,0.0,0.0,0.0,0.0,1771318168.843513,0.0
64.0,19598.769498,10228.962926,5757.429392,5481.02772,4740.983813,6428.607575,-15840.48013,-18123.599067,-7965.021785,-7279.85141,5535.543625,19722.396996,7238.880663,17991.924941,6537.013535,-3125.757352,-0.00025,-0.01425,1.007375,192.0,0.0,0.0,0.0,0.0,0.0,0.0,0.0,0.0,0.0,1771318168.843555,0.0
66.0,19899.467516,10537.640516,6065.458782,5785.704349,5045.63809,6729.238537,-15531.020228,-17813.17804,-7809.207774,-7119.231775,5699.404263,19882.435487,7396.549868,18145.794349,6678.768298,-2965.45064,-0.00025,-0.01425,1.007375,192.0,0.0,0.0,0.0,0.0,0.0,0.0,0.0,0.0,0.0,1771318168.843596,0.0
68.0,19602.926922,10238.663583,5767.890008,5496.115148,4758.149953,6435.558967,-15828.097263,-18111.283256,-7810.101844,-7115.320219,5697.079682,19887.107001,7402.942467,18144.207376,6692.402863,-2960.890885,-0.00025,-0.01425,1.007375,192.0,0.0,0.0,0.0,0.0,0.0,0.0,0.0,0.0,0.0,1771318168.843637,0.0
70.0,19781.338546,10418.215146,5943.105333,5665.608426,4929.498426,6610.014333,-15652.859587,-17940.1583,-8000.717521,-7311.277963,5499.333799,19688.847028,7212.282087,17952.228242,6503.150642,-3156.021614,-0.002,-0.01,1.006,192.0,127.5,120.0,127.5,88.0,15.5,56.0,0.0,0.0,0.0,1771318168.843678,0.0
72.0,19783.216093,10417.969277,5948.805028,5668.558856,4936.807446,6619.692638,-15650.870282,-17941.879385,-7688.84363,-7005.640209,5804.658628,19982.526598,7509.739102,18258.156569,6794.393873,-2851.724965,-0.002,-0.01,1.006,192.0,0.0,0.0,0.0,0.0,0.0,0.0,0.0,0.0,0.0,1771318168.843696,0.0
74.0,19565.107771,10199.145698,5754.59072,5463.772173,4743.777781,6417.65522,-15852.483017,-18140.966373,-7998.169422,-7303.343094,5514.175357,19692.758583,7229.247061,17969.059106,6525.994125,-3143.057602,-0.002,-0.01,1.006,192.0,0.0,0.0,0.0,0.0,0.0,0.0,0.0,0.0,0.0,1771318168.843707,0.0
76.0,19885.184751,10523.380104,6071.292588,5777.076575,5055.897541,6728.143302,-15536.876385,-17820.285895,-7811.107673,-7125.624374,5697.660827,19874.210045,7407.993961,18148.029524,6689.541839,-2972.446736,-0.002,-0.01,1.006,192.0,0.0,0.0,0.0,0.0,0.0,0.0,0.0,0.0,0.0,1771318168.843718,0.0
78.0,19627.267972,10262.669356,5793.527459,5507.268668,4783.139203,6459.967072,-15809.612371,-18088.707994,-7798.076606,-7107.139481,5712.032999,19891.510295,7421.606174,18163.496931,6707.222069,-2959.013338,-0.002,-0.01,1.006,192.0,0.0,0.0,0.0,0.0,0.0,0.0,0.0,0.0,0.0,1771318168.843728,0.0
80.0,19778.589282,10405.161727,5945.653432,5665.742536,4927.576176,6612.562431,-15649.998564,-17928.557745,-7996.314227,-7314.742483,5514.398875,19686.120115,7214.159633,17958.106751,6503.128291,-3158.882637,0.002,-0.014,1.01,192.0,0.0,8.0,127.5,72.0,15.5,72.0,0.0,0.0,0.0,1771318168.84374,0.0
82.0,19781.673823,10413.387169,5954.236502,5675.957283,4937.612109,6612.830652,-15640.543776,-17923.975637,-7685.066186,-7005.416692,5827.837387,19997.770488,7521.719637,18264.057429,6802.149928,-2845.421773,0.002,-0.014,1.01,192.0,0.0,0.0,0.0,0.0,0.0,0.0,0.0,0.0,0.0,1771318168.843751,0.0
84.0,19572.14857,10202.87844,5745.515912,5463.459249,4734.948842,6407.619286,-15848.750275,-18135.490195,-7980.176268,-7298.537469,5531.274442,19705.186153,7237.874834,17963.784094,6531.023268,-3139.369564,0.002,-0.014,1.01,192.0,0.0,0.0,0.0,0.0,0.0,0.0,0.0,0.0,0.0,1771318168.843761,0.0
86.0,19885.698841,10518.306258,6055.489904,5770.371052,5035.468046,6720.744875,-15540.050333,-17825.583258,-7821.344772,-7147.931415,5680.293522,19845.95744,7383.809374,18129.030541,6672.018072,-2985.097824,0.002,-0.014,1.01,192.0,0.0,0.0,0.0,0.0,0.0,0.0,0.0,0.0,0.0,1771318168.843772,0.0
88.0,19623.602286,10245.011478,5783.849154,5502.395988,4765.190752,6447.606557,-15815.423824,-18094.228875,-7807.084359,-7127.926603,5703.293467,19875.260577,7400.774348,18143.268602,6697.36495,-2962.679024,0.002,-0.014,1.01,192.0,0.0,0.0,0.0,0.0,0.0,0.0,0.0,0.0,0.0,1771318168.843782,0.0
90.0,19773.627195,10411.86725,5947.530979,5659.595807,4921.250632,6604.873431,-15655.34063,-17930.904678,-7999.93521,-7317.536452,5511.850776,19686.634205,7211.276258,17952.429408,6499.52966,-3165.051718,0.006,-0.014,1.008,192.0,0.0,24.0,127.5,72.0,15.5,64.0,0.0,0.0,0.0,1771318168.843799,0.0
92.0,19797.27534,10431.402675,5965.501781,5675.979635,4937.388591,6615.445806,-15636.408703,-17915.012588,-7674.046776,-6997.593581,5835.43698,20005.370081,7531.889681,18274.965081,6807.804919,-2845.377069,0.006,-0.014,1.008,192.0,0.0,0.0,0.0,0.0,0.0,0.0,0.0,0.0,0.0,1771318168.84381,0.0
94.0,19589.359413,10226.280716,5757.295282,5472.802278,4729.897348,6405.607629,-15838.513176,-18121.542707,-7971.257922,-7287.048672,5535.454218,19710.14824,7239.528863,17971.406039,6524.161282,-3142.878788,0.006,-0.014,1.008,192.0,0.0,0.0,0.0,0.0,0.0,0.0,0.0,0.0,0.0,1771318168.84382,0.0
96.0,19898.595798,10529.750351,6069.929131,5777.367148,5046.085125,6723.24827,-15527.242783,-17812.596895,-7807.576097,-7128.01601,5700.655961,19875.461742,7400.774348,18131.310419,6674.700281,-2978.615818,0.006,-0.014,1.008,192.0,0.0,0.0,0.0,0.0,0.0,0.0,0.0,0.0,0.0,1771318168.843832,0.0
98.0,19607.173754,10235.132007,5779.088232,5489.051996,4765.727194,6431.066266,-15823.381045,-18108.556343,-7794.589733,-7118.561222,5712.547089,19885.318862,7416.375866,18144.408541,6697.990799,-2967.127021,0.006,-0.014,1.008,192.0,0.0,0.0,0.0,0.0,0.0,0.0,0.0,0.0,0.0,1771318168.843843,0.0
100.0,19766.340526,10400.043178,5943.731182,5651.280958,4924.066952,6594.926905,-15659.006317,-17947.1991,-8008.004189,-7323.437312,5503.714741,19671.457371,7214.360799,17948.629612,6502.211869,-3171.556076,0.012,-0.006,1.0,192.0,0.0,48.0,127.5,104.0,15.5,32.0,0.0,0.0,0.0,1771318168.843853,0.0
102.0,19790.167485,10415.220012,5961.120839,5673.140964,4939.556711,6616.362228,-15638.956802,-17926.18846,-7699.550116,-7011.049332,5811.520614,19976.826903,7519.909146,18257.217796,6798.305428,-2858.251674,0.012,-0.006,1.0,192.0,0.0,0.0,0.0,0.0,0.0,0.0,0.0,0.0,0.0,1771318168.843863,0.0
104.0,19593.226265,10215.44012,5758.345814,5474.836287,4737.988679,6414.928307,-15839.273136,-18124.448433,-7972.688433,-7291.340207,5537.465875,19710.975255,7245.742648,17975.742278,6536.253576,-3133.356945,0.012,-0.006,1.0,192.0,0.0,0.0,0.0,0.0,0.0,0.0,0.0,0.0,0.0,1771318168.843873,0.0
106.0,19876.221702,10517.05456,6053.746468,5766.146572,5033.188168,6707.579697,-15543.648963,-17829.785386,-7820.137777,-7141.71763,5688.071929,19856.73098,7386.245714,18120.112195,6670.095822,-2990.551649,0.012,-0.006,1.0,192.0,0.0,0.0,0.0,0.0,0.0,0.0,0.0,0.0,0.0,1771318168.843884,0.0
108.0,19600.289416,10233.746199,5775.221381,5496.450424,4762.665005,6438.755267,-15821.727016,-18109.629227,-7805.251516,-7111.498071,5708.233202,19878.993318,7411.145557,18154.399771,6704.02577,-2960.868533,0.012,-0.006,1.0,192.0,0.0,0.0,0.0,0.0,0.0,0.0,0.0,0.0,0.0,1771318168.843894,0.0
110.0,19776.823494,10400.669026,5942.993574,5663.060327,4924.290469,6602.504146,-15653.776008,-17940.940611,-8014.754416,-7319.905736,5495.131671,19672.329089,7202.380264,17946.506196,6497.205078,-3167.912742,0.004,-0.008,0.998,192.0,0.0,16.0,127.5,96.0,15.5,24.0,0.0,0.0,0.0,1771318168.843904,0.0
112.0,19788.289939,10427.446416,5963.892456,5677.96894,4942.909472,6622.15133,-15639.426188,-17921.96398,-7683.948598,-6999.761701,5820.036628,19999.692738,7521.429064,18268.371316,6804.854489,-2846.360546,0.004,-0.008,0.998,192.0,0.0,0.0,0.0,0.0,0.0,0.0,0.0,0.0,0.0,1771318168.843915,0.0
114.0,19582.877407,10216.84828,5754.389555,5470.120069,4735.194711,6412.000228,-15848.571461,-18129.365817,-7981.047986,-7289.574419,5531.542663,19699.419403,7232.82334,17975.965795,6527.178768,-3142.878788,0.004,-0.008,0.998,192.0,0.0,0.0,0.0,0.0,0.0,0.0,0.0,0.0,0.0,1771318168.843925,0.0
116.0,19904.653121,10538.981621,6064.497657,5784.05032,5041.011279,6730.624346,-15530.506138,-17810.60759,-7818.081417,-7122.271612,5699.784243,19864.308222,7392.414795,18148.74478,6677.047214,-2976.425347,0.004,-0.008,0.998,192.0,0.0,0.0,0.0,0.0,0.0,0.0,0.0,0.0,0.0,1771318168.843935,0.0
118.0,19619.9366,10250.4206,5778.887067,5504.4747,4763.067336,6447.852427,-15810.662903,-18092.619549,-7794.656789,-7101.775062,5721.934822,19894.281911,7412.419607,18167.520245,6704.115177,-2954.185361,0.004,-0.008,0.998,192.0,0.0,0.0,0.0,0.0,0.0,0.0,0.0,0.0,0.0,1771318168.843945,0.0
120.0,19763.591261,10400.244343,5934.09758,5647.034126,4915.439178,6590.233039,-15658.559282,-17944.0028,-8016.386094,-7320.755103,5502.485395,19678.967557,7195.786499,17938.727789,6490.901886,-3170.170268,0.002,-0.006,1.002,192.0,0.0,8.0,127.5,104.0,15.5,40.0,0.0,0.0,0.0,1771318168.843956,0.0
122.0,19821.437576,10448.948794,5985.014854,5697.884345,4968.837496,6642.536121,-15616.202726,-17902.406204,-7680.305264,-6988.071738,5835.884015,19998.888075,7529.118065,18277.379069,6814.801015,-2839.140932,0.002,-0.006,1.002,192.0,0.0,0.0,0.0,0.0,0.0,0.0,0.0,0.0,0.0,1771318168.843974,0.0
124.0,19586.297224,10214.970734,5747.684031,5463.794525,4735.351173,6414.615383,-15852.39361,-18139.692323,-7964.105363,-7274.039957,5543.366735,19712.785746,7251.218826,17990.717946,6548.882311,-3120.415285,0.002,-0.006,1.002,192.0,0.0,0.0,0.0,0.0,0.0,0.0,0.0,0.0,0.0,1771318168.844001,0.0
126.0,19881.183789,10517.769816,6050.930148,5766.414793,5033.322279,6713.502909,-15547.31465,-17838.815491,-7833.660583,-7144.578653,5673.766813,19847.253841,7375.874505,18123.062625,6662.965615,-2988.808213,0.002,-0.006,1.002,192.0,0.0,0.0,0.0,0.0,0.0,0.0,0.0,0.0,0.0,1771318168.844011,0.0
128.0,19617.030873,10248.677164,5786.956046,5506.084026,4774.220857,6452.25572,-15811.9146,-18104.689491,-7801.33996,-7107.832385,5709.954287,19880.245016,7412.553717,18157.864291,6706.931496,-2953.26894,0.002,-0.006,1.002,192.0,0.0,0.0,0.0,0.0,0.0,0.0,0.0,0.0,0.0,1771318168.844022,0.0
130.0,19767.703982,10401.496041,5939.126723,5649.246949,4921.340039,6608.583821,-15662.359078,-17956.564481,-8007.668913,-7313.893117,5504.586459,19673.781952,7212.952639,17958.643193,6506.995142,-3157.452125,0.006,-0.002,0.998,192.0,0.0,24.0,127.5,120.0,15.5,24.0,0.0,0.0,0.0,1771318168.844032,0.0
132.0,19791.396831,10436.320059,5966.731127,5681.276999,4949.391478,6631.89669,-15636.922793,-17926.479033,-7697.225535,-7004.567326,5812.481739,19980.291424,7516.24346,18270.137104,6800.875878,-2854.027194,0.006,-0.002,0.998,192.0,0.0,0.0,0.0,0.0,0.0,0.0,0.0,0.0,0.0,1771318168.844042,0.0
134.0,19600.870562,10240.29526,5762.302072,5480.357168,4751.399726,6428.831092,-15838.289659,-18119.978085,-7968.307491,-7269.144925,5543.478494,19710.729386,7247.128456,17994.651853,6545.060163,-3123.94686,0.006,-0.002,0.998,192.0,0.0,0.0,0.0,0.0,0.0,0.0,0.0,0.0,0.0,1771318168.844053,0.0
136.0,19911.269237,10531.292621,6061.390765,5779.31175,5046.554511,6727.763322,-15535.892908,-17817.246058,-7801.094091,-7114.403798,5705.998028,19871.0808,7399.880278,18150.555271,6685.943208,-2965.137716,0.006,-0.002,0.998,192.0,0.0,0.0,0.0,0.0,0.0,0.0,0.0,0.0,0.0,1771318168.844064,0.0
138.0,19620.629504,10255.270929,5781.770442,5503.871203,4767.47063,6450.869912,-15812.451042,-18097.447526,-7792.10869,-7101.216269,5717.106845,19886.861132,7417.046418,18159.048934,6706.953848,-2950.497323,0.006,-0.002,0.998,192.0,0.0,0.0,0.0,0.0,0.0,0.0,0.0,0.0,0.0,1771318168.844074,0.0
140.0,19758.875043,10401.071358,5928.621403,5647.011774,4905.179728,6593.317579,-15663.364907,-17952.138835,-8014.866175,-7314.496614,5499.400854,19674.161932,7200.726235,17950.66362,6496.176898,-3164.627035,0.004,-0.002,1.0,192.0,0.0,8.0,127.5,120.0,15.5,40.0,0.0,0.0,0.0,1771318168.844084,0.0
142.0,19780.690346,10415.57764,5956.806953,5674.035033,4933.342926,6615.334048,-15639.403837,-17928.960076,-7711.709465,-7013.485672,5810.58184,19976.670441,7505.782843,18249.953479,6791.890477,-2859.950407,0.004,-0.002,1.0,192.0,0.0,0.0,0.0,0.0,0.0,0.0,0.0,0.0,0.0,1771318168.844094,0.0
144.0,19590.521704,10222.145643,5749.248654,5467.482563,4732.981888,6417.65522,-15848.258537,-18132.629172,-7980.489192,-7279.516134,5543.009107,19711.891676,7246.748477,17986.113487,6539.986317,-3125.265613,0.004,-0.002,1.0,192.0,0.0,0.0,0.0,0.0,0.0,0.0,0.0,0.0,0.0,1771318168.844105,0.0
146.0,19909.525801,10544.971889,6067.202218,5788.207744,5044.900482,6738.872139,-15530.997876,-17813.580372,-7824.898699,-7130.608813,5689.524792,19858.250899,7387.944447,18148.767131,6666.541894,-2980.828641,0.004,-0.002,1.0,192.0,0.0,0.0,0.0,0.0,0.0,0.0,0.0,0.0,0.0,1771318168.844115,0.0
148.0,19623.289361,10257.394344,5783.916209,5504.206479,4763.357909,6452.836866,-15814.797975,-18096.307587,-7792.555725,-7103.652609,5724.751142,19891.465591,7429.004601,18164.100428,6708.071435,-2947.837466,0.004,-0.002,1.0,192.0,0.0,0.0,0.0,0.0,0.0,0.0,0.0,0.0,0.0,1771318168.844126,0.0
150.0,19767.748686,10404.088843,5927.794388,5645.044821,4902.676332,6590.702425,-15668.52816,-17949.63544,-8001.365721,-7314.83189,5509.481491,19683.482609,7210.628058,17949.680144,6496.623933,-3163.844724,0.001,-0.005,1.005,192.0,127.5,120.0,127.5,96.0,15.5,72.0,0.0,0.0,0.0,1771318168.844136,0.0
152.0,19831.674675,10452.10039,5970.396813,5689.524792,4947.178656,6632.522539,-15626.529232,-17902.652073,-7685.75909,-7006.646038,5821.154215,19988.963901,7518.009248,18253.440351,6792.024588,-2857.648177,0.001,-0.005,1.005,192.0,0.0,0.0,0.0,0.0,0.0,0.0,0.0,0.0,0.0,1771318168.844146,0.0
154.0,19590.924035,10225.163129,5744.420677,5469.181296,4725.516406,6412.871946,-15850.203139,-18128.337637,-7964.507695,-7264.540465,5557.895369,19724.632171,7255.845637,17994.160115,6540.813332,-3122.091666,0.001,-0.005,1.005,192.0,0.0,0.0,0.0,0.0,0.0,0.0,0.0,0.0,0.0,1771318168.844157,0.0
156.0,19886.503504,10524.564746,6046.795076,5767.755898,5023.755732,6719.224956,-15546.912318,-17827.39375,-7845.596414,-7146.97029,5678.483031,19841.017704,7374.108717,18118.927553,6649.286348,-2997.592449,0.001,-0.005,1.005,192.0,0.0,0.0,0.0,0.0,0.0,0.0,0.0,0.0,0.0,1771318168.844167,0.0
158.0,19623.244658,10256.254406,5780.295227,5502.395988,4762.08386,6446.824246,-15814.641513,-18094.16182,-7799.171841,-7100.948048,5723.007706,19890.638577,7423.506072,18167.207321,6705.500985,-2952.665443,0.001,-0.005,1.005,192.0,0.0,0.0,0.0,0.0,0.0,0.0,0.0,0.0,0.0,1771318168.844177,0.0
160.0,19778.94691,10409.028579,5937.94208,5654.499609,4918.858995,6595.150422,-15657.374639,-17937.654905,-8011.893393,-7316.284754,5510.420264,19680.331013,7213.422026,17942.996972,6500.915468,-3164.671739,0.0035,-0.0055,1.0045,192.0,0.0,24.0,127.5,104.0,15.5,48.0,0.0,0.0,0.0,1771318168.844192,0.0
162.0,19790.234541,10429.055742,5955.10822,5675.867877,4939.80258,6613.434149,-15642.175453,-17922.768643,-7697.337293,-7003.829718,5823.545852,19988.494514,7519.015076,18257.53072,6800.428844,-2855.837686,0.0035,-0.0055,1.0045,192.0,0.0,0.0,0.0,0.0,0.0,0.0,0.0,0.0,0.0,1771318168.844203,0.0
164.0,19574.607262,10209.628667,5745.292395,5463.191028,4731.864301,6407.619286,-15852.684182,-18137.613611,-7982.277332,-7281.483088,5541.489189,19712.852801,7246.882587,17979.005632,6538.309936,-3135.21214,0.0035,-0.0055,1.0045,192.0,0.0,0.0,0.0,0.0,0.0,0.0,0.0,0.0,0.0,1771318168.844213,0.0
166.0,19893.387841,10530.51031,6061.480172,5779.579971,5042.195921,6726.824549,-15535.311763,-17823.16927,-7831.693629,-7143.841045,5686.753176,19847.589117,7386.156307,18125.364855,6670.900484,-2988.361178,0.0035,-0.0055,1.0045,192.0,0.0,0.0,0.0,0.0,0.0,0.0,0.0,0.0,0.0,1771318168.844223,0.0
168.0,19634.644048,10269.106659,5797.014331,5520.076218,4780.948732,6462.895151,-15800.24699,-18087.679814,-7793.718015,-7103.965533,5721.331325,19894.416022,7424.735418,18168.503722,6714.754607,-2948.686832,0.0035,-0.0055,1.0045,192.0,0.0,0.0,0.0,0.0,0.0,0.0,0.0,0.0,0.0,1771318168.844233,0.0
170.0,19754.427046,10386.74389,5923.882833,5643.524902,4906.498481,6598.234963,-15671.567997,-17960.878368,-8016.72137,-7317.603507,5506.218136,19673.379621,7211.276258,17944.092207,6502.122462,-3162.525971,0.00275,-0.00375,1.00425,192.0,0.0,8.0,127.5,120.0,15.5,48.0,0.0,0.0,0.0,1771318168.844244,0.0
172.0,19803.645587,10430.754474,5963.467772,5688.250743,4947.648042,6641.485589,-15631.24545,-17918.633571,-7693.336331,-7013.552727,5812.302925,19973.675307,7520.937326,18264.817389,6795.980846,-2853.021366,0.00275,-0.00375,1.00425,192.0,0.0,0.0,0.0,0.0,0.0,0.0,0.0,0.0,0.0,1771318168.844254,0.0
174.0,19569.756933,10200.665617,5743.973642,5464.263912,4727.840987,6413.587202,-15851.097208,-18139.938192,-7973.15782,-7283.137117,5548.507637,19713.612761,7253.901035,17982.403097,6541.707401,-3124.729171,0.00275,-0.00375,1.00425,192.0,0.0,0.0,0.0,0.0,0.0,0.0,0.0,0.0,0.0,1771318168.844264,0.0
176.0,19880.289719,10513.232412,6053.344137,5774.684939,5034.998659,6726.936308,-15541.011458,-17831.707636,-7844.456475,-7159.91195,5675.845525,19842.470568,7379.853115,18109.740986,6656.885941,-2990.17167,0.00275,-0.00375,1.00425,192.0,0.0,0.0,0.0,0.0,0.0,0.0,0.0,0.0,0.0,1771318168.844275,0.0
178.0,19626.508013,10251.068801,5790.889953,5512.878956,4778.199467,6459.095354,-15805.231429,-18094.966483,-7795.237934,-7101.037455,5726.226357,19898.171115,7433.743171,18165.173312,6716.498043,-2934.471123,0.00275,-0.00375,1.00425,192.0,0.0,0.0,0.0,0.0,0.0,0.0,0.0,0.0,0.0,1771318169.324704,0.0
180.0,19757.533939,10390.454279,5927.414409,5647.101181,4910.052408,6595.195126,-15668.461104,-17958.553786,-8015.514376,-7322.342077,5502.910078,19674.497208,7211.097444,17950.261289,6498.859107,-3158.435602,0.006375,-0.004875,1.007125,192.0,0.0,40.0,127.5,104.0,15.5,72.0,0.0,0.0,0.0,1771318169.324768,0.0
182.0,19797.029471,10423.870137,5962.573703,5683.98156,4944.719964,6631.963746,-15633.771197,-17925.026169,-7697.091424,-7015.229108,5813.219346,19979.263244,7517.942192,18259.251804,6795.64557,-2849.445087,0.006375,-0.004875,1.007125,192.0,0.0,0.0,0.0,0.0,0.0,0.0,0.0,0.0,0.0,1771318169.324811,0.0
184.0,19579.725811,10208.824004,5741.090267,5469.516572,4728.623298,6419.644525,-15852.237147,-18143.983858,-7984.512506,-7289.596771,5536.817674,19706.080223,7245.228558,17977.932749,6538.086419,-3121.018782,0.006375,-0.004875,1.007125,192.0,0.0,0.0,0.0,0.0,0.0,0.0,0.0,0.0,0.0,1771318169.324852,0.0
186.0,19896.785307,10536.858205,6058.328576,5779.423509,5042.68766,6734.982936,-15538.441007,-17831.059436,-7841.841321,-7146.187979,5673.342129,19849.176091,7377.014444,18120.469823,6664.731403,-2980.806289,0.006375,-0.004875,1.007125,192.0,0.0,0.0,0.0,0.0,0.0,0.0,0.0,0.0,0.0,1771318169.324894,0.0
188.0,19618.103757,10254.153342,5794.30977,5514.890613,4781.753395,6468.90777,-15804.516173,-18099.213314,-7790.678178,-7095.158946,5724.460569,19891.689109,7433.050267,18170.940062,6724.947003,-2929.866663,0.006375,-0.004875,1.007125,192.0,0.0,0.0,0.0,0.0,0.0,0.0,0.0,0.0,0.0,1771318169.324936,0.0
190.0,19746.715694,10377.13264,5924.911013,5643.122571,4907.549013,6599.509013,-15672.037384,-17965.952214,-8010.239364,-7326.566556,5502.440691,19669.959804,7211.566831,17942.706399,6507.308067,-3151.908893,0.006188,-0.004438,1.007562,192.0,0.0,24.0,127.5,112.0,15.5,64.0,0.0,0.0,0.0,1771318169.324974,0.0
192.0,19785.22775,10407.799233,5957.790429,5674.057385,4944.094115,6629.080371,-15641.437845,-17932.826928,-7710.256602,-7033.445779,5805.642105,19974.703488,7508.397997,18241.102188,6793.566858,-2856.329424,0.006188,-0.004438,1.007562,192.0,0.0,0.0,0.0,0.0,0.0,0.0,0.0,0.0,0.0,1771318169.324988,0.0
194.0,19573.444971,10205.337132,5744.532435,5460.419412,4733.965365,6417.409351,-15855.813426,-18142.73216,-7973.426041,-7282.064233,5545.981889,19718.843069,7256.225616,17986.962853,6546.401268,-3122.516349,0.006188,-0.004438,1.007562,192.0,0.0,0.0,0.0,0.0,0.0,0.0,0.0,0.0,0.0,1771318169.324999,0.0
196.0,19884.871827,10504.425824,6059.177942,5767.308863,5037.546758,6723.181215,-15542.129045,-17833.026389,-7843.294185,-7162.415345,5677.231333,19837.821405,7380.031929,18113.294913,6660.775144,-2992.697417,0.006188,-0.004438,1.007562,192.0,0.0,0.0,0.0,0.0,0.0,0.0,0.0,0.0,0.0,1771318169.325009,0.0
198.0,19620.540097,10247.693687,5797.215497,5511.113168,4778.691206,6453.797991,-15802.057481,-18091.010224,-7793.874478,-7124.819711,5721.510139,19882.435487,7422.96963,18155.182082,6713.77113,-2949.849123,0.006188,-0.004438,1.007562,192.0,0.0,0.0,0.0,0.0,0.0,0.0,0.0,0.0,0.0,1771318169.32502,0.0
200.0,19756.505758,10387.25798,5930.476598,5646.743553,4908.778359,6594.524574,-15666.382392,-17956.162149,-8004.360855,-7316.172995,5513.840081,19679.928682,7217.154767,17956.832702,6509.118558,-3154.836971,0.005094,-0.004219,1.005781,192.0,0.0,16.0,127.5,112.0,15.5,48.0,0.0,0.0,0.0,1771318169.32503,0.0
202.0,19797.007119,10436.387114,5977.862296,5695.157432,4954.890007,6632.79076,-15620.024874,-17907.86003,-7700.891221,-7019.811215,5822.227099,19989.455639,7515.237631,18246.064275,6802.194631,-2844.661813,0.005094,-0.004219,1.005781,192.0,0.0,0.0,0.0,0.0,0.0,0.0,0.0,0.0,0.0,1771318169.32504,0.0
204.0,19567.052372,10203.124309,5744.353622,5461.29113,4722.387162,6402.836013,-15852.728886,-18136.026637,-7956.438715,-7272.117707,5564.891465,19730.331866,7259.801896,17988.415717,6554.604358,-3108.032418,0.005094,-0.004219,1.005781,192.0,0.0,0.0,0.0,0.0,0.0,0.0,0.0,0.0,0.0,1771318169.325051,0.0
206.0,19879.105077,10509.589077,6055.288739,5770.572218,5026.460293,6714.486386,-15540.720885,-17826.454976,-7844.478827,-7161.96831,5676.337263,19840.347152,7363.871618,18104.197753,6644.234853,-3002.912164,0.005094,-0.004219,1.005781,192.0,0.0,0.0,0.0,0.0,0.0,0.0,0.0,0.0,0.0,1771318169.325062,0.0
208.0,19633.749978,10258.020193,5806.022084,5522.53491,4783.832107,6463.900979,-15791.842734,-18075.989851,-7784.196172,-7106.73715,5733.870653,19894.460725,7425.517729,18159.920652,6711.245383,-2942.38364,0.005094,-0.004219,1.005781,192.0,0.0,0.0,0.0,0.0,0.0,0.0,0.0,0.0,0.0,1771318169.325072,0.0
210.0,19757.891567,10377.289102,5928.353182,5643.390792,4903.145719,6590.791832,-15668.461104,-17950.887138,-8005.791367,-7316.843547,5521.730247,19690.255188,7219.725218,17953.412885,6505.832852,-3153.495866,0.005094,-0.004219,1.005781,192.0,0.0,0.0,0.0,0.0,0.0,0.0,0.0,0.0,0.0,1771318169.325082,0.0
212.0,19796.984768,10424.495986,5975.649473,5690.664731,4953.101868,6639.742153,-15622.483566,-17906.764794,-7702.567602,-7016.257288,5827.23389,19994.820058,7516.690495,18255.899043,6794.885611,-2852.216703,-0.006,-0.01,0.996,192.0,127.5,104.0,127.5,88.0,15.5,16.0,0.0,0.0,0.0,1771318169.325092,0.0
214.0,19551.272041,10184.773527,5745.448857,5458.228941,4726.656345,6409.183909,-15851.052505,-18139.580564,-7966.608759,-7283.248876,5561.35989,19728.409616,7256.762058,17997.356414,6551.519817,-3110.424055,-0.006,-0.01,0.996,192.0,0.0,0.0,0.0,0.0,0.0,0.0,0.0,0.0,0.0,1771318169.325103,0.0
216.0,19872.511312,10496.759176,6058.999128,5765.923055,5036.138598,6720.409598,-15537.748103,-17827.170232,-7848.09981,-7179.805002,5674.280903,19835.094492,7364.966853,18100.643826,6653.28731,-2995.849013,-0.006,-0.01,0.996,192.0,0.0,0.0,0.0,0.0,0.0,0.0,0.0,0.0,0.0,1771318169.325114,0.0
218.0,19610.660626,10241.904586,5798.064863,5513.214232,4781.261656,6458.603616,-15798.592961,-18085.757564,-7796.668446,-7115.990772,5732.5519,19895.578312,7422.276726,18154.958565,6716.408636,-2938.315623,-0.006,-0.01,0.996,192.0,0.0,0.0,0.0,0.0,0.0,0.0,0.0,0.0,0.0,1771318169.325125,0.0
220.0,19732.455281,10360.324128,5918.831339,5634.65126,4902.072835,6579.638312,-15674.94311,-17962.5771,-8022.599879,-7341.452818,5506.128729,19676.262996,7198.111081,17932.670466,6497.272134,-3162.213047,-0.006,-0.01,0.996,192.0,0.0,0.0,0.0,0.0,0.0,0.0,0.0,0.0,0.0,1771318169.325135,0.0
222.0,19788.647567,10407.821585,5968.362804,5679.444156,4950.598472,6625.258222,-15628.227964,-17916.867783,-7707.842613,-7032.305841,5817.063846,19979.553816,7510.47671,18246.176034,6797.724282,-2849.959177,-0.004,-0.008,1.004,192.0,127.5,112.0,127.5,96.0,15.5,48.0,0.0,0.0,0.0,1771318169.325145,0.0
224.0,19560.637422,10180.929027,5745.87354,5461.469944,4726.298717,6403.9536,-15849.443179,-18140.206413,-7974.074241,-7285.819326,5555.973119,19719.401863,7250.078887,17984.906493,6556.437201,-3104.500843,-0.004,-0.008,1.004,192.0,0.0,0.0,0.0,0.0,0.0,0.0,0.0,0.0,0.0,1771318169.325156,0.0
226.0,19871.773705,10500.156641,6065.145858,5775.444898,5036.451523,6720.834282,-15529.097978,-17820.241191,-7861.287339,-7181.637845,5672.626874,19837.553184,7353.14278,18095.949959,6651.476818,-2996.363103,-0.004,-0.008,1.004,192.0,0.0,0.0,0.0,0.0,0.0,0.0,0.0,0.0,0.0,1771318169.325166,0.0
228.0,19608.4031,10239.91528,5802.445805,5515.069427,4778.713558,6452.099258,-15794.144964,-18081.510732,-7795.841431,-7107.318295,5743.05722,19909.481097,7423.684886,18171.588263,6725.841072,-2930.224291,-0.004,-0.008,1.004,192.0,0.0,0.0,0.0,0.0,0.0,0.0,0.0,0.0,0.0,1771318169.325176,0.0
230.0,19715.087976,10349.282366,5908.840109,5621.866062,4884.303198,6560.952253,-15684.55436,-17971.182522,-8041.308289,-7349.454743,5496.070444,19665.645917,7180.296741,17925.16028,6485.716282,-3177.188716,-0.004,-0.008,1.004,192.0,0.0,0.0,0.0,0.0,0.0,0.0,0.0,0.0,0.0,1771318169.325187,0.0
232.0,19784.19957,10412.023713,5973.950741,5690.977656,4947.133952,6631.851987,-15620.069578,-17907.167126,-7713.609363,-7024.326268,5819.231965,19994.104802,7499.59141,18252.099246,6793.946838,-2853.177828,-0.006,-0.006,1.006,192.0,127.5,104.0,127.5,104.0,15.5,56.0,0.0,0.0,0.0,1771318169.325197,0.0
234.0,19557.575233,10183.968864,5749.941558,5465.605016,4722.253051,6410.346199,-15843.452912,-18134.596125,-7982.657311,-7289.887344,5552.620358,19728.141395,7237.338392,17982.112525,6543.204968,-3116.883709,-0.006,-0.006,1.006,192.0,0.0,0.0,0.0,0.0,0.0,0.0,0.0,0.0,0.0,1771318169.325208,0.0
236.0,19871.125504,10503.665865,6062.128372,5774.774346,5033.881072,6716.810968,-15531.109635,-17825.292686,-7859.610958,-7168.785592,5676.538429,19850.31603,7355.221493,18111.97616,6656.75183,-2989.635228,-0.006,-0.006,1.006,192.0,0.0,0.0,0.0,0.0,0.0,0.0,0.0,0.0,0.0,1771318169.325218,0.0
238.0,19625.926867,10252.499312,5804.144538,5520.635011,4787.296627,6458.044822,-15791.172182,-18079.342613,-7800.982332,-7109.844042,5731.747238,19900.29453,7416.197052,18163.809855,6721.996572,-2937.108628,-0.006,-0.006,1.006,192.0,0.0,0.0,0.0,0.0,0.0,0.0,0.0,0.0,0.0,1771318169.325228,0.0
240.0,19737.059741,10369.086012,5917.758455,5634.964184,4898.29539,6578.028986,-15676.284215,-17961.526568,-8015.715541,-7333.316783,5504.698217,19676.151237,7191.070281,17946.528548,6498.456776,-3163.129468,-0.006,-0.006,1.006,192.0,0.0,0.0,0.0,0.0,0.0,0.0,0.0,0.0,0.0,1771318169.325239,0.0
242.0,19778.43282,10404.93821,5971.313235,5689.211868,4954.174752,6632.008449,-15622.863546,-17913.157393,-7715.263392,-7028.573099,5811.945297,19984.113572,7492.997645,18244.320839,6792.069291,-2853.826029,-0.004,-0.008,1.008,192.0,127.5,112.0,127.5,96.0,15.5,64.0,0.0,0.0,0.0,1771318169.325249,0.0
244.0,19564.057239,10186.248742,5747.482866,5464.979168,4734.03242,6410.077978,-15846.671563,-18138.217108,-7978.455183,-7289.596771,5552.240378,19724.788633,7242.702811,17991.455554,6556.772477,-3105.99841,-0.004,-0.008,1.008,192.0,0.0,0.0,0.0,0.0,0.0,0.0,0.0,0.0,0.0,1771318169.325259,0.0
246.0,19877.987489,10509.298505,6072.119602,5783.402119,5053.528256,6736.726372,-15522.59362,-17817.804851,-7855.92292,-7168.204447,5671.509286,19841.129463,7361.524685,18115.395977,6664.105554,-2984.874306,-0.004,-0.008,1.008,192.0,0.0,0.0,0.0,0.0,0.0,0.0,0.0,0.0,0.0,1771318169.32527,0.0
248.0,19613.633408,10241.792827,5800.992942,5523.607793,4787.006055,6469.175991,-15792.669748,-18085.779916,-7783.01153,-7093.951952,5744.934767,19918.35474,7438.615851,18196.15283,6740.883796,-2911.426474,-0.004,-0.008,1.008,192.0,0.0,0.0,0.0,0.0,0.0,0.0,0.0,0.0,0.0,1771318169.32528,0.0
250.0,19747.140377,10371.075317,5924.911013,5639.769809,4904.732693,6583.393405,-15669.109305,-17961.057181,-8022.801044,-7332.020382,5500.831366,19678.49817,7195.607686,17945.723885,6501.407206,-3156.267483,-0.004,-0.008,1.008,192.0,0.0,0.0,0.0,0.0,0.0,0.0,0.0,0.0,0.0,1771318169.325291,0.0
252.0,19781.539712,10411.844899,5970.240351,5682.841621,4948.072725,6623.335972,-15625.09872,-17915.705492,-7713.318791,-7027.366105,5813.308753,19984.515904,7495.36693,18247.91947,6797.321951,-2849.288624,-0.004,-0.012,1.008,192.0,127.5,112.0,127.5,80.0,15.5,64.0,0.0,0.0,0.0,1771318169.325301,0.0
254.0,19570.963928,10197.379911,5751.059145,5466.476734,4731.439618,6402.92542,-15844.883423,-18135.378436,-7969.492134,-7280.834887,5553.983814,19724.185136,7247.061401,17990.583836,6555.006689,-3111.653401,-0.004,-0.012,1.008,192.0,0.0,0.0,0.0,0.0,0.0,0.0,0.0,0.0,0.0,1771318169.325311,0.0
0.0,19860.217853,10492.981731,6054.595835,5765.09604,5035.289232,6708.540822,-15545.14653,-17834.523956,-7853.620691,-7172.361871,5668.536504,19833.105187,7360.272987,18104.085994,6654.114324,-2999.827623,-0.004,-0.012,1.008,192.0,0.0,0.0,0.0,0.0,0.0,0.0,0.0,0.0,0.0,1771318169.325322,0.0
2.0,19628.206745,10255.874426,5809.620715,5522.467854,4798.427796,6471.008834,-15791.239237,-18080.996642,-7782.564495,-7102.64678,5737.782209,19898.662853,7433.184377,18175.678632,6724.79054,-2932.817093,-0.004,-0.012,1.008,192.0,0.0,0.0,0.0,0.0,0.0,0.0,0.0,0.0,0.0,1771318169.325332,0.0
4.0,19734.936325,10352.970404,5917.020847,5629.890338,4902.206946,6580.241809,-15680.463991,-17972.769496,-8011.289896,-7324.398437,5505.391122,19675.123057,7204.347218,17954.910452,6502.010703,-3155.194599,-0.004,-0.012,1.008,192.0,0.0,0.0,0.0,0.0,0.0,0.0,0.0,0.0,0.0,1771318169.325342,0.0
6.0,19788.982843,10412.940134,5975.113031,5689.413034,4961.215551,6634.333031,-15623.154118,-17917.493632,-7719.510224,-7034.809236,5800.992942,19976.692793,7495.277523,18247.226566,6785.65434,-2858.810468,-0.002,-0.008,1.008,192.0,127.5,120.0,127.5,96.0,15.5,64.0,0.0,0.0,0.0,1771318169.325353,0.0
8.0,19544.790035,10176.883361,5730.808464,5448.684746,4724.599984,6397.493946,-15865.98347,-18159.920652,-7974.029538,-7277.973864,5547.01007,19718.664255,7249.810666,17995.076537,6553.710288,-3108.367694,-0.002,-0.008,1.008,192.0,0.0,0.0,0.0,0.0,0.0,0.0,0.0,0.0,0.0,1771318169.325363,0.0
10.0,19879.239187,10499.955475,6057.747431,5774.282607,5046.979195,6729.618517,-15537.949269,-17831.350008,-7865.377708,-7174.865267,5655.863065,19825.036207,7355.892045,18108.623398,6644.748943,-2998.218298,-0.002,-0.008,1.008,192.0,0.0,0.0,0.0,0.0,0.0,0.0,0.0,0.0,0.0,1771318169.325373,0.0
12.0,19635.560469,10263.116391,5817.890861,5532.66025,4811.324753,6489.001988,-15781.583283,-18072.63709,-7775.791916,-7084.83244,5744.152456,19914.443185,7444.516712,18195.571684,6739.050953,-2908.900727,-0.002,-0.008,1.008,192.0,0.0,0.0,0.0,0.0,0.0,0.0,0.0,0.0,0.0,1771318169.325383,0.0
14.0,19726.442662,10356.077296,5910.628249,5619.116797,4897.222507,6573.603341,-15687.907122,-17979.765592,-8020.208242,-7327.952364,5498.752653,19670.920929,7200.301552,17941.454702,6504.044712,-3157.295663,-0.002,-0.008,1.008,192.0,0.0,0.0,0.0,0.0,0.0,0.0,0.0,0.0,0.0,1771318169.325394,0.0
16.0,19778.991613,10409.274448,5972.252008,5680.27117,4956.007595,6630.846158,-15626.708046,-17921.360483,-7725.791064,-7034.161035,5799.450672,19965.338107,7494.33875,18244.20908,6790.661131,-2858.408136,-0.002,-0.008,1.008,192.0,0.0,0.0,127.5,96.0,15.5,72.0,0.0,0.0,0.0,1771318169.325404,0.0
18.0,19552.479035,10181.823096,5743.705421,5458.363051,4731.752542,6402.210164,-15851.030153,-18145.503777,-7979.103384,-7286.042844,5547.792381,19723.045197,7253.051669,17992.483734,6559.320576,-3101.01397,-0.002,-0.008,1.008,192.0,0.0,0.0,0.0,0.0,0.0,0.0,0.0,0.0,0.0,1771318169.325414,0.0
20.0,19863.950594,10493.09349,6047.331518,5762.883218,5032.674078,6705.56804,-15547.873443,-17840.46952,-7865.176542,-7175.982854,5656.533618,19832.479338,7358.753068,18103.303683,6650.448638,-2995.536088,-0.002,-0.008,1.008,192.0,0.0,0.0,0.0,0.0,0.0,0.0,0.0,0.0,0.0,1771318169.325424,0.0
22.0,19620.987132,10257.684917,5806.111491,5515.292944,4792.593991,6462.38106,-15795.933103,-18085.377584,-7791.862821,-7101.193917,5728.439179,19902.373243,7431.999735,18178.919635,6724.008229,-2933.375887,-0.002,-0.008,1.008,192.0,0.0,0.0,0.0,0.0,0.0,0.0,0.0,0.0,0.0,1771318169.325434,0.0
24.0,19731.449453,10354.624433,5926.386228,5625.531748,4898.16128,6570.5188,-15676.641843,-17969.662603,-8019.783559,-7336.35662,5504.519404,19671.435019,7208.281125,17942.08055,6501.809538,-3165.610512,-0.002,-0.008,1.008,192.0,0.0,0.0,0.0,0.0,0.0,0.0,0.0,0.0,0.0,1771318169.325445,0.0
26.0,19789.407526,10413.834204,5986.959456,5686.663769,4957.974548,6628.409818,-15617.499127,-17910.274018,-7710.658933,-7033.401076,5813.644029,19975.105819,7512.331904,18242.733865,6795.734977,-2861.045642,-0.002,-0.008,1.008,192.0,0.0,0.0,127.5,88.0,15.5,56.0,0.0,0.0,0.0,1771318169.325455,0.0
28.0,19569.421657,10191.948437,5748.086363,5457.804258,4733.853606,6404.735911,-15853.42179,-18142.665105,-7964.351233,-7267.982634,5561.918683,19735.048084,7270.195457,18005.157173,6560.192294,-3108.412398,-0.002,-0.008,1.008,192.0,0.0,0.0,0.0,0.0,0.0,0.0,0.0,0.0,0.0,1771318169.325466,0.0
30.0,19882.636652,10518.216851,6066.933998,5778.194163,5055.584616,6729.752628,-15531.69078,-17819.928267,-7853.151304,-7163.018842,5666.726013,19840.660076,7369.928941,18110.813869,6649.44281,-3003.940344,-0.002,-0.008,1.008,192.0,0.0,0.0,0.0,0.0,0.0,0.0,0.0,0.0,0.0,1771318169.325476,0.0
32.0,19622.618809,10248.051315,5804.368055,5517.975154,4796.594953,6466.158505,-15794.547295,-18079.744945,-7784.531448,-7093.41551,5738.922148,19918.801775,7442.616813,18181.04305,6729.14913,-2934.895806,-0.002,-0.008,1.008,192.0,0.0,0.0,0.0,0.0,0.0,0.0,0.0,0.0,0.0,1771318169.325486,0.0
34.0,19728.096691,10358.804209,5921.893528,5625.04001,4899.658847,6572.150477,-15678.720555,-17969.662603,-8016.85548,-7321.515062,5512.051941,19693.473839,7215.14311,17951.401228,6507.978619,-3161.117811,-0.002,-0.008,1.008,192.0,0.0,0.0,0.0,0.0,0.0,0.0,0.0,0.0,0.0,1771318169.325496,0.0
36.0,19782.612596,10414.16948,5983.718453,5683.109842,4960.56735,6625.884071,-15619.622543,-17915.392568,-7719.33141,-7035.233919,5807.094968,19973.45179,7508.397997,18246.623069,6791.66696,-2867.795869,-0.002,-0.008,1.008,192.0,0.0,0.0,127.5,80.0,15.5,64.0,0.0,0.0,0.0,1771318169.325506,0.0
38.0,19561.263271,10187.031053,5746.164113,5453.043336,4734.054772,6396.733987,-15857.735676,-18147.291916,-7969.022747,-7281.974826,5556.62132,19728.186098,7268.273207,17994.785964,6561.93573,-3116.593136,-0.002,-0.008,1.008,192.0,0.0,0.0,0.0,0.0,0.0,0.0,0.0,0.0,0.0,1771318169.325516,0.0
40.0,19879.887388,10503.330589,6060.228474,5769.901665,5046.263939,6721.415427,-15539.625649,-17823.012808,-7851.765496,-7168.11504,5668.089469,19841.062408,7372.09706,18099.861515,6650.582749,-3015.898528,-0.002,-0.008,1.008,192.0,0.0,0.0,0.0,0.0,0.0,0.0,0.0,0.0,0.0,1771318169.325527,0.0
42.0,19634.956972,10258.467228,5813.375808,5526.759389,4803.009904,6470.584151,-15784.377251,-18070.133694,-7780.552838,-7086.955856,5744.666546,19917.795946,7442.683869,18182.786486,6731.227843,-2939.366155,-0.002,-0.008,1.008,192.0,0.0,0.0,0.0,0.0,0.0,0.0,0.0,0.0,0.0,1771318169.325536,0.0
44.0,19732.701151,10354.736192,5915.299763,5624.302402,4891.388701,6561.332233,-15681.380413,-17975.049374,-8024.052742,-7330.098132,5506.307543,19683.460257,7206.448282,17942.527585,6504.312933,-3174.573561,-0.002,-0.008,1.008,192.0,0.0,0.0,0.0,0.0,0.0,0.0,0.0,0.0,0.0,1771318169.80563,102.0
46.0,19780.466828,10412.62721,5972.319063,5676.605484,4946.061068,6613.009466,-15627.892688,-17919.415882,-7722.706523,-7035.569195,5805.373884,19976.961014,7498.138547,18236.855356,6788.314198,-2881.385729,-0.002,-0.008,1.008,192.0,0.0,0.0,127.5,80.0,15.5,64.0,0.0,0.0,0.0,1771318169.805699,10.0
48.0,19583.235035,10207.013512,5756.825895,5468.533095,4733.250109,6410.457958,-15841.620069,-18127.331808,-7963.971253,-7271.581265,5564.042099,19739.697247,7257.611425,17996.864676,6559.924073,-3125.489131,-0.002,-0.008,1.008,192.0,0.0,0.0,0.0,0.0,0.0,0.0,0.0,0.0,0.0,1771318169.805752,0.0
50.0,19882.457838,10518.97681,6068.051585,5780.295227,5039.290194,6723.315325,-15527.958039,-17811.658122,-7844.791751,-7154.212255,5678.415975,19858.988507,7363.89397,18124.113157,6654.427249,-3010.399998,-0.002,-0.008,1.008,192.0,0.0,0.0,0.0,0.0,0.0,0.0,0.0,0.0,0.0,1771318169.8058,0.0
52.0,19624.183431,10252.074629,5807.609058,5519.897404,4779.719386,6460.70468,-15789.048766,-18077.330956,-7785.380815,-7087.514649,5747.058183,19920.14288,7429.541043,18188.933216,6723.091808,-2944.708222,-0.002,-0.008,1.008,192.0,0.0,0.0,0.0,0.0,0.0,0.0,0.0,0.0,0.0,1771318169.805864,0.0
54.0,19729.393092,10354.758543,5916.685571,5621.262565,4881.665693,6558.739431,-15680.463991,-17969.550844,-8029.484216,-7326.521853,5504.877031,19682.029746,7192.97018,17945.679181,6494.656979,-3180.943809,-0.002,-0.008,1.008,192.0,0.0,0.0,0.0,0.0,0.0,0.0,0.0,0.0,0.0,1771318169.805885,0.0
56.0,19806.283093,10439.605765,5996.570706,5699.337208,4962.981339,6635.495321,-15602.098775,-17889.15162,-7718.683209,-7022.582832,5816.907384,19994.395375,7499.367893,18245.99722,6790.191745,-2875.686035,0.0,-0.009,1.008,192.0,0.0,8.0,127.5,88.0,15.5,64.0,0.0,0.0,0.0,1771318169.805901,0.0
58.0,19582.855056,10196.664655,5749.293357,5458.161886,4727.081028,6395.504641,-15849.264365,-18132.673875,-7944.771104,-7258.103163,5579.934189,19758.852692,7276.275131,18007.459403,6567.501315,-3112.323953,0.0,-0.009,1.008,192.0,0.0,0.0,0.0,0.0,0.0,0.0,0.0,0.0,0.0,1771318169.805917,0.0
60.0,19879.887388,10508.672656,6055.847532,5763.352604,5033.277575,6715.17929,-15539.491539,-17828.109005,-7855.565292,-7168.718537,5665.183743,19841.755312,7359.088344,18110.612704,6641.75381,-3020.100656,0.0,-0.009,1.008,192.0,0.0,0.0,0.0,0.0,0.0,0.0,0.0,0.0,0.0,1771318169.805934,0.0
62.0,19625.680998,10255.807371,5807.765521,5518.533947,4787.654255,6457.553084,-15787.95353,-18073.866436,-7783.838544,-7086.419414,5742.073744,19922.19924,7436.470084,18184.060536,6723.76236,-2947.412783,0.0,-0.009,1.008,192.0,0.0,0.0,0.0,0.0,0.0,0.0,0.0,0.0,0.0,1771318169.805946,0.0
64.0,19724.341598,10370.829448,5910.315324,5615.875794,4879.989312,6548.792904,-15686.85659,-17971.473094,-8035.630946,-7334.791998,5501.479566,19683.61672,7189.349197,17933.944515,6485.492764,-3192.678475,0.0,-0.009,1.008,192.0,0.0,0.0,0.0,0.0,0.0,0.0,0.0,0.0,0.0,1771318169.805957,0.0
66.0,19814.285018,10439.203434,5987.562953,5692.229353,4955.627615,6626.822844,-15611.017121,-17892.124402,-7699.661875,-7009.372951,5827.658573,19996.541142,7509.180308,18262.515159,6794.393873,-2872.176811,0.0,-0.009,1.008,192.0,0.0,0.0,127.5,88.0,15.5,40.0,0.0,0.0,0.0,1771318169.805968,0.0
68.0,19576.149532,10207.75112,5749.472171,5459.726508,4727.997449,6395.147013,-15848.526758,-18129.119948,-7960.037346,-7263.489933,5566.791364,19751.834244,7257.834942,18003.592551,6549.038774,-3130.451218,0.0,-0.009,1.008,192.0,0.0,0.0,0.0,0.0,0.0,0.0,0.0,0.0,0.0,1771318169.805979,0.0
70.0,19889.833914,10522.217813,6064.810582,5771.421584,5041.525369,6710.44072,-15534.104769,-17817.91661,-7842.713039,-7150.099534,5676.180801,19859.390838,7370.040699,18115.418329,6648.526388,-3018.178406,0.0,-0.009,1.008,192.0,0.0,0.0,0.0,0.0,0.0,0.0,0.0,0.0,0.0,1771318169.805991,0.0
72.0,19643.89767,10271.274778,5818.382599,5524.770084,4801.646447,6465.867933,-15779.348109,-18067.317375,-7765.532466,-7072.494277,5757.228226,19936.727874,7451.021069,18191.771888,6737.687497,-2939.612024,0.0,-0.009,1.008,192.0,0.0,0.0,0.0,0.0,0.0,0.0,0.0,0.0,0.0,1771318169.806002,0.0
74.0,19722.240534,10344.744962,5902.738083,5601.928306,4876.435384,6542.489713,-15694.612645,-17983.744202,-8035.921518,-7337.943594,5493.567049,19674.363097,7185.750566,17929.496518,6487.504421,-3198.288762,0.0,-0.009,1.008,192.0,0.0,0.0,0.0,0.0,0.0,0.0,0.0,0.0,0.0,1771318169.806013,0.0
76.0,19799.152887,10432.833187,5992.212116,5698.756063,4962.690766,6638.915138,-15605.429185,-17893.532561,-7718.079712,-7026.226166,5815.767445,19990.528523,7500.351369,18239.604621,6787.889515,-2879.709349,0.002,-0.0045,1.005,192.0,0.0,16.0,0.0,0.0,15.5,40.0,0.0,0.0,0.0,1771318169.806024,0.0
78.0,19565.577157,10195.569419,5743.727773,5454.272682,4720.487263,6396.2646,-15853.93588,-18138.932364,-7951.968366,-7259.421916,5577.162573,19759.947927,7265.389832,18015.416624,6566.003748,-3114.872052,0.002,-0.0045,1.005,192.0,0.0,0.0,0.0,0.0,0.0,0.0,0.0,0.0,0.0,1771318169.806036,0.0
80.0,19881.027327,10508.762063,6057.09923,5761.519761,5027.890805,6705.121005,-15540.475016,-17826.454976,-7862.650795,-7174.440584,5664.624949,19841.375332,7347.75601,18097.358119,6636.791722,-3032.774095,0.002,-0.0045,1.005,192.0,0.0,0.0,0.0,0.0,0.0,0.0,0.0,0.0,0.0,1771318169.806047,0.0
82.0,19646.311658,10270.380708,5822.450617,5531.475607,4795.298552,6462.716337,-15774.833056,-18059.963651,-7777.602408,-7084.653626,5756.200046,19931.184641,7433.206729,18185.222827,6730.736104,-2942.785971,0.002,-0.0045,1.005,192.0,0.0,0.0,0.0,0.0,0.0,0.0,0.0,0.0,0.0,1771318169.806059,0.0
84.0,19719.670083,10353.886825,5902.402807,5611.696018,4872.65794,6538.421695,-15693.13743,-17980.12322,-8022.152844,-7329.494635,5510.353209,19691.104554,7187.270485,17932.581059,6494.902849,-3183.290742,0.002,-0.0045,1.005,192.0,0.0,0.0,0.0,0.0,0.0,0.0,0.0,0.0,0.0,1771318169.80607,0.0
86.0,19795.487201,10426.015905,5981.416223,5689.010702,4950.218493,6620.474949,-15617.320313,-17902.294445,-7723.958221,-7034.049277,5808.950163,19984.717069,7480.301855,18228.741673,6776.199553,-2889.521764,0.003,-0.00525,1.0035,192.0,0.0,16.0,127.5,104.0,15.5,40.0,0.0,0.0,0.0,1771318169.806082,0.0
88.0,19572.416791,10198.27398,5747.996956,5454.496199,4720.733132,6394.588219,-15851.611299,-18133.836166,-7959.456201,-7260.651262,5577.967236,19754.829378,7257.365555,18008.532287,6562.002785,-3115.117921,0.003,-0.00525,1.0035,192.0,0.0,0.0,0.0,0.0,0.0,0.0,0.0,0.0,0.0,1771318169.806093,0.0
90.0,19882.591949,10500.514269,6056.003994,5763.643177,5029.924814,6702.572906,-15542.866652,-17829.986552,-7870.339795,-7175.558171,5660.914559,19834.781567,7344.112676,18096.352291,6633.774237,-3030.851845,0.003,-0.00525,1.0035,192.0,0.0,0.0,0.0,0.0,0.0,0.0,0.0,0.0,0.0,1771318169.806104,0.0
92.0,19622.819975,10263.071688,5815.655686,5528.122846,4799.098349,6476.395604,-15781.717394,-18070.871302,-7779.368195,-7088.386367,5744.487732,19921.327522,7435.039572,18183.658205,6729.037372,-2938.382678,0.003,-0.00525,1.0035,192.0,0.0,0.0,0.0,0.0,0.0,0.0,0.0,0.0,0.0,1771318169.806116,0.0
94.0,19703.129793,10343.381505,5892.210411,5606.555117,4871.316835,6552.235073,-15703.799212,-17995.076537,-8036.167388,-7332.757989,5494.885802,19675.413629,7188.499831,17947.869652,6489.471375,-3178.842745,0.003,-0.00525,1.0035,192.0,0.0,0.0,0.0,0.0,0.0,0.0,0.0,0.0,0.0,1771318169.806127,0.0
96.0,19810.887553,10438.935213,5990.356921,5703.986371,4969.440993,6645.08422,-15607.396139,-17896.482992,-7719.130244,-7020.839396,5811.140634,19985.387622,7501.267791,18246.466606,6786.190782,-2871.305093,0.003,-0.00525,1.0035,192.0,0.0,0.0,0.0,0.0,0.0,0.0,0.0,0.0,0.0,1771318169.806139,0.0
98.0,19575.233111,10203.01255,5742.945462,5461.157019,4729.405609,6404.601801,-15852.751237,-18139.64762,-7951.588386,-7249.497741,5577.453146,19753.801197,7267.714413,18017.182412,6567.903646,-3108.770026,0.006,-0.008,1.008,192.0,0.0,24.0,127.5,96.0,15.5,64.0,0.0,0.0,0.0,1771318169.806149,0.0
100.0,19872.801885,10505.230487,6057.635672,5771.600398,5037.233834,6715.425159,-15535.244707,-17824.108043,-7871.569141,-7169.836124,5660.758097,19837.128501,7346.21374,18100.017977,6637.238757,-3025.018039,0.006,-0.008,1.008,192.0,0.0,0.0,0.0,0.0,0.0,0.0,0.0,0.0,0.0,1771318169.806161,0.0
102.0,19618.617847,10250.979394,5802.781082,5510.688485,4786.380206,6457.553084,-15794.189667,-18084.081183,-7793.025111,-7086.665283,5746.857017,19917.795946,7434.458427,18186.832152,6731.272546,-2936.907463,0.006,-0.008,1.008,192.0,0.0,0.0,0.0,0.0,0.0,0.0,0.0,0.0,0.0,1771318169.806172,0.0
104.0,19717.256095,10346.823674,5897.19485,5606.242193,4875.116631,6544.166093,-15701.027596,-17990.785002,-8043.342297,-7343.308013,5489.454328,19662.09199,7183.448337,17924.7803,6481.447098,-3198.355818,0.006,-0.008,1.008,192.0,0.0,0.0,0.0,0.0,0.0,0.0,0.0,0.0,0.0,1771318169.806183,0.0
106.0,19820.677617,10450.17814,5998.939991,5705.6404,4975.833592,6646.24651,-15600.10947,-17887.318777,-7699.371302,-7006.556631,5830.072562,19996.205866,7517.696323,18264.951499,6806.195594,-2859.592779,0.006,-0.008,1.008,192.0,0.0,0.0,0.0,0.0,0.0,0.0,0.0,0.0,0.0,1771318169.806193,0.0
108.0,19549.752122,10187.768661,5741.917281,5449.198836,4723.705914,6386.832164,-15856.551034,-18145.570832,-7960.305567,-7259.466619,5570.904085,19752.884776,7268.228503,18002.921999,6565.936692,-3116.034343,0.002,-0.01,1.008,192.0,0.0,8.0,127.5,88.0,15.5,64.0,0.0,0.0,0.0,1771318169.806204,0.0
110.0,19856.932146,10491.595923,6045.901006,5754.702479,5022.146406,6699.980104,-15549.795693,-17842.056494,-7884.779022,-7180.699072,5650.431591,19825.416187,7348.314804,18091.010224,6634.310679,-3029.086057,0.002,-0.01,1.008,192.0,0.0,0.0,0.0,0.0,0.0,0.0,0.0,0.0,0.0,1771318169.806214,0.0
112.0,19631.179527,10266.603263,5810.201861,5526.111189,4787.564848,6470.405337,-15783.013795,-18073.419401,-7796.355521,-7088.945161,5738.18454,19912.96797,7429.183415,18179.947815,6722.153034,-2942.718916,0.002,-0.01,1.008,192.0,0.0,0.0,0.0,0.0,0.0,0.0,0.0,0.0,0.0,1771318169.806225,0.0
114.0,19726.017979,10355.473799,5905.107368,5617.99921,4878.648207,6556.481905,-15689.739965,-17976.211664,-8039.497797,-7330.187539,5498.037398,19675.301871,7187.292837,17929.340056,6482.899962,-3187.984608,0.002,-0.01,1.008,192.0,0.0,0.0,0.0,0.0,0.0,0.0,0.0,0.0,0.0,1771318169.806236,0.0
116.0,19809.457041,10448.993498,5992.927372,5704.075778,4969.798621,6641.709106,-15603.931618,-17891.342091,-7713.654067,-7002.399206,5828.418532,20003.917218,7510.946096,18263.029249,6792.337512,-2864.398404,0.002,-0.01,1.008,192.0,0.0,0.0,0.0,0.0,0.0,0.0,0.0,0.0,0.0,1771318169.806247,0.0
118.0,19569.220492,10200.799728,5745.270043,5458.407755,4729.53972,6394.409406,-15852.01363,-18141.70398,-7964.06066,-7243.753343,5578.548381,19764.261814,7277.839753,18021.51865,6566.607245,-3104.679657,0.006,-0.008,1.006,192.0,0.0,24.0,127.5,96.0,15.5,56.0,0.0,0.0,0.0,1771318169.806258,0.0
120.0,19877.071068,10520.183804,6059.088535,5770.751032,5039.536064,6708.205546,-15536.786978,-17826.63379,-7876.464173,-7165.611644,5658.657033,19845.130425,7357.300205,18100.710881,6636.411743,-3024.191025,0.006,-0.008,1.006,192.0,0.0,0.0,0.0,0.0,0.0,0.0,0.0,0.0,0.0,1771318169.80627,0.0
122.0,19640.477853,10267.474981,5814.918079,5528.234604,4797.086692,6468.885418,-15781.180952,-18067.272671,-7783.100937,-7074.930617,5747.371107,19926.714292,7446.170741,18189.067327,6726.645735,-2940.148466,0.006,-0.008,1.006,192.0,0.0,0.0,0.0,0.0,0.0,0.0,0.0,0.0,0.0,1771318169.806281,0.0
124.0,19698.033595,10337.994735,5889.215277,5605.638695,4864.499553,6536.074762,-15702.525163,-17991.254388,-8036.301498,-7323.683181,5500.272572,19685.226045,7196.479404,17945.857995,6487.482069,-3184.29657,0.006,-0.008,1.006,192.0,0.0,0.0,0.0,0.0,0.0,0.0,0.0,0.0,0.0,1771318169.806292,0.0
126.0,19812.049843,10451.45219,6000.549316,5711.764778,4972.279665,6647.453504,-15593.515705,-17884.345995,-7735.849349,-7023.052218,5805.217422,19988.338052,7492.908239,18239.179938,6779.060576,-2878.56941,0.006,-0.008,1.006,192.0,0.0,0.0,0.0,0.0,0.0,0.0,0.0,0.0,0.0,1771318169.806303,0.0
128.0,19554.513044,10190.786146,5735.859959,5451.81399,4711.47951,6375.946865,-15859.143836,-18149.214166,-7971.347329,-7241.78639,5578.213105,19761.579604,7270.351919,18014.85783,6569.021233,-3106.736017,0.006,-0.012,1.012,192.0,0.0,24.0,127.5,80.0,15.5,80.0,0.0,0.0,0.0,1771318169.806315,0.0
130.0,19875.886425,10519.781473,6070.42087,5780.004654,5038.731401,6712.832357,-15524.739388,-17817.134299,-7889.785813,-7168.673833,5655.997176,19837.553184,7343.486827,18092.708956,6635.428266,-3029.242519,0.006,-0.012,1.012,192.0,0.0,0.0,0.0,0.0,0.0,0.0,0.0,0.0,0.0,1771318169.806326,0.0
132.0,19637.795644,10267.832609,5813.934602,5529.195729,4786.223744,6457.441325,-15782.477353,-18073.844084,-7795.014417,-7075.042376,5751.684994,19933.442167,7439.085238,18192.241274,6734.111218,-2933.174721,0.006,-0.012,1.012,192.0,0.0,0.0,0.0,0.0,0.0,0.0,0.0,0.0,0.0,1771318169.806337,0.0
134.0,19715.602066,10360.48059,5901.061702,5614.557041,4872.836753,6545.037811,-15692.131602,-17981.889007,-8038.670783,-7321.112731,5501.434863,19688.556455,7197.619343,17936.224393,6491.125404,-3183.111928,0.006,-0.012,1.012,192.0,0.0,0.0,0.0,0.0,0.0,0.0,0.0,0.0,0.0,1771318169.806348,0.0
