Sample_index,EXG Channel 0,EXG Channel 1,EXG Channel 2,EXG Channel 3,EXG Channel 4,EXG Channel 5,EXG Channel 6,EXG Channel 7,EXG Channel 8,EXG Channel 9,EXG Channel 10,EXG Channel 11,EXG Channel 12,EXG Channel 13,EXG Channel 14,EXG Channel 15,Accel Channel 0,Accel Channel 1,Accel Channel 2,Not Used,Digital Channel 0 (D11),Digital Channel 1 (D12),Digital Channel 2 (D13),Digital Channel 3 (D17),Not Used,Digital Channel 4 (D18),Analog Channel 0,Analog Channel 1,Analog Channel 2,Timestamp,Marker Channel
90.000000,8150.317746,11553.661412,-2534.553711,-4508.235098,-316.210129,-12010.911049,-5139.314251,949.993843,13277.763221,8251.615852,-14655.792970,8334.026734,11245.363801,-5259.745450,-11905.276704,4167.326291,0.008000,-0.008000,1.008000,192.000000,0.000000,0.000000,0.000000,0.000000,0.000000,0.000000,0.000000,0.000000,0.000000,1769696339.687305,101.000000
92.000000,8163.795848,11570.380517,-2522.103789,-4497.372150,-305.123664,-11994.415461,-5125.791445,964.053090,13122.932687,8100.920391,-14811.383463,8188.829802,11095.115375,-5406.059969,-12046.092695,4035.160427,0.008000,-0.008000,1.008000,192.000000,0.000000,0.000000,0.000000,0.000000,0.000000,0.000000,0.000000,0.000000,0.000000,1769696339.687381,0.000000
94.000000,8213.059093,11616.894498,-2468.079623,-4443.102115,-247.210294,-11922.152272,-5070.895561,1011.438788,13274.924549,8254.186303,-14660.755057,8331.612746,11247.241348,-5241.014688,-11893.698501,4153.311748,0.010000,-0.010000,1.008000,192.000000,0.000000,40.000000,127.500000,88.000000,15.500000,64.000000,0.000000,0.000000,0.000000,1769696339.687439,0.000000
96.000000,8095.801842,11500.710130,-2583.548735,-4553.832657,-358.544333,-12055.838055,-5185.068272,895.299124,13138.891833,8118.377104,-14798.955893,8195.870602,11127.771274,-5390.257286,-12021.416369,4064.642377,0.010000,-0.010000,1.008000,192.000000,0.000000,0.000000,0.000000,0.000000,0.000000,0.000000,0.000000,0.000000,0.000000,1769696339.687491,0.000000
98.000000,8279.264960,11683.860324,-2402.633715,-4380.338416,-170.253238,-11857.086343,-5015.373828,1073.554286,13222.174433,8200.095081,-14715.382721,8279.734347,11190.736138,-5300.671494,-11944.392257,4101.858032,0.010000,-0.010000,1.008000,192.000000,0.000000,0.000000,0.000000,0.000000,0.000000,0.000000,0.000000,0.000000,0.000000,1769696339.687545,0.000000
100.000000,8130.938784,11533.455435,-2550.579912,-4539.393430,-310.599841,-12013.235630,-5168.282112,925.876311,13284.424041,8249.537140,-14659.793932,8319.766321,11279.070232,-5250.804752,-11890.971588,4168.622693,0.010000,-0.010000,1.008000,192.000000,0.000000,0.000000,0.000000,0.000000,0.000000,0.000000,0.000000,0.000000,0.000000,1769696339.687594,0.000000
102.000000,8195.669436,11608.132614,-2496.198117,-4463.844533,-251.859457,-11944.727533,-5111.799253,995.434939,13133.058027,8106.754196,-14808.276571,8187.041663,11124.731436,-5401.276696,-12046.338564,4027.538482,0.010000,-0.010000,1.008000,192.000000,0.000000,0.000000,0.000000,0.000000,0.000000,0.000000,0.000000,0.000000,0.000000,1769696339.687643,0.000000
104.000000,8272.671196,11684.016786,-2427.086523,-4392.341303,-177.137575,-11870.989128,-5043.917006,1066.424080,13319.806852,8303.583658,-14621.170118,8375.600979,11297.666883,-5210.482205,-11873.850152,4172.958931,0.012000,-0.014000,1.010000,192.000000,0.000000,48.000000,127.500000,72.000000,15.500000,72.000000,0.000000,0.000000,0.000000,1769696339.687677,0.000000
106.000000,8140.326517,11549.079305,-2558.850057,-4528.597537,-306.777693,-12003.780842,-5174.719414,933.766476,13218.374636,8188.919209,-14734.024076,8264.915140,11196.435833,-5337.730686,-11987.017034,4098.862898,0.012000,-0.014000,1.010000,192.000000,0.000000,0.000000,0.000000,0.000000,0.000000,0.000000,0.000000,0.000000,0.000000,1769696339.687694,0.000000
108.000000,8288.049196,11701.898182,-2405.718256,-4370.056614,-161.737223,-11850.894910,-5017.340781,1087.322961,13230.623392,8209.281648,-14712.298180,8294.061815,11215.859498,-5302.325523,-11967.481609,4078.880439,0.012000,-0.014000,1.010000,192.000000,0.000000,0.000000,0.000000,0.000000,0.000000,0.000000,0.000000,0.000000,0.000000,1769696339.687706,0.000000
110.000000,8159.258444,11569.955834,-2528.854016,-4487.202106,-281.766091,-11959.300871,-5131.401733,961.192067,13306.820489,8286.797498,-14633.038894,8361.944063,11275.270435,-5211.353923,-11871.458515,4192.561411,0.012000,-0.014000,1.010000,192.000000,0.000000,0.000000,0.000000,0.000000,0.000000,0.000000,0.000000,0.000000,0.000000,1769696339.687723,0.000000
112.000000,8190.126203,11602.052939,-2502.478957,-4474.528667,-258.073241,-11942.559414,-5109.027637,989.623486,13127.917126,8109.257592,-14812.165774,8191.981398,11089.303921,-5399.242687,-12038.224880,4033.886377,0.012000,-0.014000,1.010000,192.000000,0.000000,0.000000,0.000000,0.000000,0.000000,0.000000,0.000000,0.000000,0.000000,1769696339.687765,0.000000
114.000000,8270.793649,11679.680548,-2417.095294,-4389.413224,-186.905287,-11877.225265,-5022.995773,1072.749623,13325.707713,8307.808138,-14612.095310,8383.111165,11321.784415,-5197.451138,-11837.617974,4189.767443,0.012000,-0.015000,1.007000,192.000000,0.000000,48.000000,127.500000,64.000000,15.500000,48.000000,0.000000,0.000000,0.000000,1769696339.687781,0.000000
116.000000,8075.685272,11484.885095,-2604.626430,-4582.755814,-381.074891,-12088.471602,-5207.844699,881.955133,13170.743069,8144.550996,-14768.356355,8226.336029,11156.090934,-5360.887094,-11988.514601,4080.802689,0.012000,-0.015000,1.007000,192.000000,0.000000,0.000000,0.000000,0.000000,0.000000,0.000000,0.000000,0.000000,0.000000,1769696339.687799,0.000000
118.000000,8243.993907,11652.903158,-2441.346936,-4427.366486,-222.176340,-11909.590591,-5049.326128,1045.033460,13172.754726,8150.653023,-14760.980280,8237.958936,11168.876132,-5352.482838,-11983.440755,4039.764886,0.012000,-0.015000,1.007000,192.000000,0.000000,0.000000,0.000000,0.000000,0.000000,0.000000,0.000000,0.000000,0.000000,1769696339.687812,0.000000
120.000000,8135.655002,11541.971450,-2551.742202,-4534.230177,-318.110027,-12022.824529,-5160.257835,932.380668,13250.717610,8224.614945,-14688.627683,8300.208545,11243.955641,-5304.180718,-11924.163929,4129.440085,0.012000,-0.015000,1.007000,192.000000,0.000000,0.000000,0.000000,0.000000,0.000000,0.000000,0.000000,0.000000,0.000000,1769696339.687828,0.000000
122.000000,8203.783119,11613.474681,-2495.393454,-4469.074842,-249.847800,-11937.709086,-5111.598088,992.015122,13145.440894,8113.102092,-14802.889800,8192.249619,11137.941317,-5387.709187,-12040.035372,4025.884453,0.012000,-0.015000,1.007000,192.000000,0.000000,0.000000,0.000000,0.000000,0.000000,0.000000,0.000000,0.000000,0.000000,1769696339.687848,0.000000
124.000000,8265.161009,11672.103306,-2441.279881,-4412.189652,-166.833421,-11879.773364,-5059.674985,1049.570864,13334.626059,8308.836318,-14615.470423,8371.600017,11298.538601,-5204.089606,-11861.556692,4168.510934,0.008000,-0.015500,1.004500,192.000000,0.000000,16.000000,127.500000,64.000000,15.500000,40.000000,0.000000,0.000000,0.000000,1769696339.687865,0.000000
126.000000,8141.108828,11549.682802,-2576.887915,-4543.215578,-285.096501,-11983.060775,-5189.203344,928.022078,13191.932522,8159.325499,-14761.315556,8226.492492,11190.892600,-5351.454657,-12005.189002,4065.603502,0.008000,-0.015500,1.004500,192.000000,0.000000,0.000000,0.000000,0.000000,0.000000,0.000000,0.000000,0.000000,0.000000,1769696339.687877,0.000000
128.000000,8342.833321,11754.111857,-2380.281971,-4345.827323,-105.254365,-11803.688026,-4997.067749,1129.545406,13265.469762,8243.904500,-14679.664633,8314.714827,11286.289845,-5256.929130,-11935.719780,4095.018398,0.008000,-0.015500,1.004500,192.000000,0.000000,0.000000,0.000000,0.000000,0.000000,0.000000,0.000000,0.000000,0.000000,1769696339.687889,0.000000
130.000000,8201.436186,11611.083044,-2515.152397,-4481.323598,-241.085916,-11936.770312,-5123.466864,988.550602,13331.809739,8315.787711,-14612.587048,8376.204476,11310.250915,-5179.837964,-11866.116448,4182.927809,0.008000,-0.015500,1.004500,192.000000,0.000000,0.000000,0.000000,0.000000,0.000000,0.000000,0.000000,0.000000,0.000000,1769696339.687912,0.000000
132.000000,8204.319561,11617.833271,-2506.099940,-4460.916455,-262.051852,-11960.172589,-5110.748721,996.865451,13171.637138,8151.301223,-14775.128934,8234.874396,11148.021954,-5367.525562,-12014.241459,4046.939796,0.008000,-0.015500,1.004500,192.000000,0.000000,0.000000,0.000000,0.000000,0.000000,0.000000,0.000000,0.000000,0.000000,1769696339.687928,0.000000
134.000000,8249.783009,11664.235492,-2455.339128,-4401.684332,-234.313337,-11929.058961,-5045.414572,1049.235588,13278.970215,8265.719803,-14657.603461,8351.617557,11252.471656,-5267.546209,-11895.084309,4129.887120,0.005000,-0.015750,1.002250,192.000000,0.000000,8.000000,127.500000,64.000000,15.500000,32.000000,0.000000,0.000000,0.000000,1769696339.687944,0.000000
136.000000,8103.893173,11517.339828,-2596.244525,-4541.338031,-380.806670,-12065.203436,-5173.892400,910.610069,13169.938406,8163.125296,-14760.667355,8245.916157,11141.808169,-5359.993024,-11986.011205,4084.490727,0.005000,-0.015750,1.002250,192.000000,0.000000,0.000000,0.000000,0.000000,0.000000,0.000000,0.000000,0.000000,0.000000,1769696339.687959,0.000000
138.000000,8255.661518,11670.114001,-2444.409125,-4406.378198,-248.350233,-11908.405949,-5027.890805,1064.971216,13177.247426,8170.590779,-14745.132893,8262.009413,11167.289158,-5346.693736,-11977.696356,4053.399450,0.005000,-0.015750,1.002250,192.000000,0.000000,0.000000,0.000000,0.000000,0.000000,0.000000,0.000000,0.000000,0.000000,1769696339.687976,0.000000
140.000000,8120.858147,11532.159034,-2582.475851,-4541.673308,-371.754214,-12062.074192,-5165.108164,925.496331,13248.504788,8232.192186,-14678.837619,8311.227955,11195.139431,-5296.826994,-11924.387446,4127.070800,0.005000,-0.015750,1.002250,192.000000,0.000000,0.000000,0.000000,0.000000,0.000000,0.000000,0.000000,0.000000,0.000000,1769696339.687988,0.000000
142.000000,8200.318599,11613.541736,-2504.848242,-4484.408138,-289.768015,-11993.029653,-5107.977105,997.267782,13104.604257,8090.012740,-14827.521423,8173.943540,11061.476000,-5403.400112,-12080.290864,3983.282028,0.005000,-0.015750,1.002250,192.000000,0.000000,0.000000,0.000000,0.000000,0.000000,0.000000,0.000000,0.000000,0.000000,1769696339.688000,0.000000
144.000000,8285.255228,11696.109080,-2408.199299,-4400.052655,-186.435901,-11891.485678,-5024.940374,1076.549420,13313.861288,8302.935458,-14619.203164,8374.908075,11299.075043,-5209.766949,-11872.598454,4146.762687,0.004500,-0.013875,1.003125,192.000000,0.000000,16.000000,127.500000,80.000000,15.500000,48.000000,0.000000,0.000000,0.000000,1769696339.688012,0.000000
146.000000,8116.365447,11524.671200,-2586.096833,-4580.967674,-349.536580,-12037.934308,-5202.346170,902.317572,13199.286246,8167.215665,-14748.552710,8245.938509,11185.371719,-5371.884152,-11991.867362,4056.819267,0.004500,-0.013875,1.003125,192.000000,0.000000,0.000000,0.000000,0.000000,0.000000,0.000000,0.000000,0.000000,0.000000,1769696339.688024,0.000000
148.000000,8288.764452,11700.825298,-2427.600614,-4404.925335,-167.816897,-11879.371033,-5042.553549,1072.168478,13216.385331,8194.842421,-14736.840396,8267.619701,11201.040292,-5331.047515,-11985.318301,4024.230423,0.004500,-0.013875,1.003125,192.000000,0.000000,0.000000,0.000000,0.000000,0.000000,0.000000,0.000000,0.000000,0.000000,1769696339.688035,0.000000
150.000000,8197.234058,11608.713759,-2530.217472,-4497.126281,-257.313282,-11954.584653,-5133.681611,978.157041,13306.149936,8283.869420,-14648.685115,8353.316290,11284.077023,-5246.021479,-11891.195105,4140.459495,0.004500,-0.013875,1.003125,192.000000,0.000000,0.000000,0.000000,0.000000,0.000000,0.000000,0.000000,0.000000,0.000000,1769696339.688047,0.000000
152.000000,8251.973480,11663.430829,-2476.103899,-4445.784324,-227.160779,-11926.823786,-5085.155974,1029.588405,13189.742051,8161.963005,-14764.489503,8241.088181,11174.352309,-5357.824905,-12011.380435,4033.037011,0.004500,-0.013875,1.003125,192.000000,0.000000,0.000000,0.000000,0.000000,0.000000,0.000000,0.000000,0.000000,0.000000,1769696339.688058,0.000000
154.000000,8287.333940,11698.210144,-2434.082619,-4404.768873,-191.420340,-11891.105698,-5039.714878,1070.693263,13342.940908,8318.671086,-14606.529725,8395.404624,11324.779549,-5203.955496,-11861.780210,4160.017271,0.006250,-0.010937,1.004563,192.000000,0.000000,32.000000,127.500000,96.000000,15.500000,56.000000,0.000000,0.000000,0.000000,1769696339.688070,0.000000
156.000000,8133.799807,11544.452494,-2581.022987,-4540.622776,-352.241141,-12040.907090,-5181.357882,922.858825,13207.176412,8179.263256,-14739.075570,8270.614835,11184.656463,-5310.506262,-11981.250284,4083.663712,0.006250,-0.010937,1.004563,192.000000,0.000000,0.000000,0.000000,0.000000,0.000000,0.000000,0.000000,0.000000,0.000000,1769696339.688082,0.000000
158.000000,8282.908295,11697.450185,-2427.488855,-4408.702780,-214.286174,-11884.243713,-5027.264956,1073.464879,13202.147270,8171.708366,-14736.929803,8275.979254,11174.441716,-5300.380921,-11978.143391,4048.012680,0.006250,-0.010937,1.004563,192.000000,0.000000,0.000000,0.000000,0.000000,0.000000,0.000000,0.000000,0.000000,0.000000,1769696339.688094,0.000000
160.000000,8144.550996,11554.644889,-2565.086194,-4521.690848,-351.190609,-12067.416259,-5152.188856,935.688726,13265.603872,8244.306832,-14668.019374,8338.206510,11235.216109,-5299.486852,-11913.658609,4139.297204,0.006250,-0.010937,1.004563,192.000000,0.000000,0.000000,0.000000,0.000000,0.000000,0.000000,0.000000,0.000000,0.000000,1769696339.688105,0.000000
162.000000,8179.196200,11590.362977,-2534.710173,-4487.827955,-316.523053,-12028.077189,-5124.919727,967.696424,13108.739329,8084.871839,-14827.566126,8183.398328,11085.906456,-5473.159906,-12071.417221,3992.982685,0.006250,-0.010937,1.004563,192.000000,0.000000,0.000000,0.000000,0.000000,0.000000,0.000000,0.000000,0.000000,0.000000,1769696339.688117,0.000000
164.000000,8248.643070,11658.781667,-2462.178762,-4430.763952,-240.728288,-11946.068638,-5059.205599,1034.505789,13280.758355,8263.037594,-14654.027182,8341.626327,11240.893452,-5280.867848,-11900.962818,4125.349715,0.004125,-0.010469,1.003281,192.000000,0.000000,8.000000,127.500000,88.000000,15.500000,40.000000,0.000000,0.000000,0.000000,1769696339.688129,0.000000
166.000000,8121.238127,11530.125026,-2594.277572,-4576.430270,-364.713414,-12067.326852,-5198.099339,905.603278,13159.723659,8133.263365,-14781.923864,8210.756863,11140.020030,-5383.015321,-12029.664162,4039.429610,0.004125,-0.010469,1.003281,192.000000,0.000000,0.000000,0.000000,0.000000,0.000000,0.000000,0.000000,0.000000,0.000000,1769696339.688140,0.000000
168.000000,8322.113254,11736.521034,-2395.391750,-4389.793204,-162.005444,-11851.856035,-5010.657610,1105.517281,13229.572860,8208.789910,-14713.549878,8290.306722,11211.366798,-5303.800738,-11967.660423,4054.472334,0.004125,-0.010469,1.003281,192.000000,0.000000,0.000000,0.000000,0.000000,0.000000,0.000000,0.000000,0.000000,0.000000,1769696339.688152,0.000000
170.000000,8193.009578,11604.019893,-2520.025077,-4503.787101,-287.264620,-11984.088955,-5131.334678,978.738186,13313.101329,8299.046254,-14627.249792,8363.173409,11277.706775,-5223.446217,-11871.927902,4154.719908,0.004125,-0.010469,1.003281,192.000000,0.000000,0.000000,0.000000,0.000000,0.000000,0.000000,0.000000,0.000000,0.000000,1769696339.688164,0.000000
172.000000,8206.018294,11618.101492,-2520.539167,-4503.764749,-289.253925,-11974.120077,-5128.428951,992.976247,13149.687725,8125.306144,-14788.629387,8215.160157,11113.242640,-5391.106652,-12039.811854,4000.649333,0.004125,-0.010469,1.003281,192.000000,0.000000,0.000000,0.000000,0.000000,0.000000,0.000000,0.000000,0.000000,0.000000,1769696339.688175,0.000000
174.000000,8287.021016,11700.020635,-2443.515056,-4414.536585,-209.435846,-11881.405041,-5048.610872,1074.090728,13307.446338,8291.469013,-14629.306153,8363.776906,11263.267548,-5232.498673,-11892.223286,4114.464416,0.006063,-0.009234,1.001641,192.000000,0.000000,32.000000,127.500000,96.000000,15.500000,32.000000,0.000000,0.000000,0.000000,1769696339.688187,0.000000
176.000000,8162.521799,11578.248331,-2569.377729,-4536.845331,-339.545350,-12050.920671,-5168.796202,952.966625,13207.824613,8177.028081,-14734.560518,8262.545855,11194.871210,-5373.404071,-12003.467918,4064.754136,0.006063,-0.009234,1.001641,192.000000,0.000000,0.000000,0.000000,0.000000,0.000000,0.000000,0.000000,0.000000,0.000000,1769696339.688199,0.000000
178.000000,8328.662315,11745.014697,-2397.649276,-4383.333550,-178.590438,-11858.069820,-5002.789796,1121.699944,13255.322070,8234.606175,-14681.341014,8326.158920,11230.142263,-5316.876509,-11949.868435,4084.490727,0.006063,-0.009234,1.001641,192.000000,0.000000,0.000000,0.000000,0.000000,0.000000,0.000000,0.000000,0.000000,0.000000,1769696339.688210,0.000000
180.000000,8162.387688,11574.470887,-2551.496333,-4522.093179,-343.948644,-12040.996497,-5154.021699,960.409756,13297.075128,8267.105611,-14636.570470,8356.937272,11267.872008,-5271.077784,-11903.913248,4150.875408,0.006063,-0.009234,1.001641,192.000000,0.000000,0.000000,0.000000,0.000000,0.000000,0.000000,0.000000,0.000000,0.000000,1769696339.688222,0.000000
182.000000,8208.253468,11620.359018,-2508.759798,-4472.405252,-303.089655,-11994.862496,-5116.359009,1000.486434,13118.976428,8088.671635,-14816.323199,8189.142727,11062.615938,-5441.062801,-12082.906018,4002.035141,0.006063,-0.009234,1.001641,192.000000,0.000000,0.000000,0.000000,0.000000,0.000000,0.000000,0.000000,0.000000,0.000000,1769696339.688233,0.000000
184.000000,8297.369873,11706.435586,-2417.162349,-4384.719358,-205.367828,-11889.809297,-5025.722686,1083.098481,13328.322867,8302.399016,-14607.580257,8388.408528,11294.157659,-5228.207139,-11866.675242,4182.883106,0.006063,-0.009234,1.001641,192.000000,0.000000,0.000000,0.000000,0.000000,0.000000,0.000000,0.000000,0.000000,0.000000,1769696339.688245,0.000000
186.000000,8143.008726,11553.728468,-2580.017159,-4558.034785,-350.274187,-12043.008154,-5181.603751,927.284470,13201.968456,8170.635482,-14738.539128,8256.332070,11181.214295,-5351.901692,-11988.760470,4094.593715,0.006000,-0.012000,1.002000,192.000000,0.000000,24.000000,127.500000,80.000000,15.500000,40.000000,0.000000,0.000000,0.000000,1769696339.688257,0.000000
188.000000,8298.822737,11714.884545,-2424.359611,-4404.992390,-190.034531,-11895.754861,-5024.046305,1087.680589,13215.714778,8198.575163,-14718.377855,8289.412652,11175.268731,-5305.722988,-11971.191999,4059.076793,0.006000,-0.012000,1.002000,192.000000,0.000000,0.000000,0.000000,0.000000,0.000000,0.000000,0.000000,0.000000,0.000000,1769696339.688268,0.000000
190.000000,8163.214703,11575.521419,-2559.855885,-4540.287499,-309.035219,-12025.596145,-5156.569798,947.468096,13272.644672,8257.047326,-14661.939700,8337.938289,11222.520318,-5300.023293,-11910.507013,4122.086361,0.006000,-0.012000,1.002000,192.000000,0.000000,0.000000,0.000000,0.000000,0.000000,0.000000,0.000000,0.000000,0.000000,1769696339.688280,0.000000
192.000000,8223.676172,11635.848777,-2501.540184,-4500.635505,-272.244247,-11986.413537,-5113.766207,1001.425207,13142.021077,8116.723075,-14797.972417,8204.252506,11121.021047,-5436.123065,-12038.761322,3986.679493,0.006000,-0.012000,1.002000,192.000000,0.000000,0.000000,0.000000,0.000000,0.000000,0.000000,0.000000,0.000000,0.000000,1769696339.688291,0.000000
194.000000,8305.684722,11716.315057,-2419.241061,-4405.148852,-195.890688,-11912.965705,-5035.691564,1084.886621,13319.963315,8303.538955,-14615.336313,8376.629159,11290.089642,-5221.993354,-11865.647062,4118.063047,0.006000,-0.012000,1.002000,192.000000,0.000000,0.000000,0.000000,0.000000,0.000000,0.000000,0.000000,0.000000,0.000000,1769696339.688303,0.000000
196.000000,8166.299244,11579.142401,-2568.081327,-4537.761752,-339.992385,-12049.087828,-5172.618350,949.390346,13211.400892,8194.797718,-14725.150433,8269.698414,11183.762393,-5343.542140,-11988.626360,4058.138020,0.004000,-0.016000,1.006000,192.000000,0.000000,16.000000,127.500000,64.000000,15.500000,56.000000,0.000000,0.000000,0.000000,1769696339.688314,0.000000
198.000000,8332.775036,11751.273185,-2407.819320,-4367.597922,-185.050092,-11863.210721,-5009.964706,1116.983726,13231.740979,8225.464311,-14699.848258,8308.433987,11212.350275,-5315.758922,-11976.511714,4063.033052,0.004000,-0.016000,1.006000,192.000000,0.000000,0.000000,0.000000,0.000000,0.000000,0.000000,0.000000,0.000000,0.000000,1769696339.688325,0.000000
200.000000,8207.918192,11621.856585,-2529.077533,-4492.857098,-305.704809,-11989.363967,-5125.456169,991.545736,13309.636809,8297.638094,-14621.661856,8381.300674,11253.164560,-5235.650269,-11905.522574,4167.080422,0.004000,-0.016000,1.006000,192.000000,0.000000,0.000000,0.000000,0.000000,0.000000,0.000000,0.000000,0.000000,0.000000,1769696339.688337,0.000000
202.000000,8236.818997,11651.472646,-2499.550879,-4461.631711,-293.523108,-11954.919929,-5098.432910,1021.988812,13160.371859,8146.585005,-14772.647890,8241.110532,11127.123073,-5382.322417,-12056.262738,4040.457790,0.004000,-0.016000,1.006000,192.000000,0.000000,0.000000,0.000000,0.000000,0.000000,0.000000,0.000000,0.000000,0.000000,1769696339.688348,0.000000
204.000000,8299.359178,11712.604667,-2432.160369,-4393.056559,-222.779837,-11872.039660,-5028.203729,1089.558135,13308.563925,8289.636170,-14617.437377,8385.189877,11267.492028,-5247.362584,-11904.807318,4166.029890,0.004000,-0.016000,1.006000,192.000000,0.000000,0.000000,0.000000,0.000000,0.000000,0.000000,0.000000,0.000000,0.000000,1769696339.688360,0.000000
206.000000,8135.699706,11548.721677,-2592.891764,-4551.552779,-381.656037,-12053.759343,-5185.023568,925.853959,13190.077327,8170.054337,-14737.913279,8261.495323,11156.269748,-5358.987195,-12013.749720,4113.212718,0.008000,-0.014000,1.006000,192.000000,0.000000,32.000000,127.500000,72.000000,15.500000,56.000000,0.000000,0.000000,0.000000,1769696339.688372,0.000000
208.000000,8300.566173,11716.248002,-2425.968936,-4389.457928,-218.242433,-11887.775289,-5025.588575,1089.289914,13195.821726,8169.853171,-14732.906489,8267.597350,11175.805172,-5380.713091,-12003.914953,4088.625799,0.008000,-0.014000,1.006000,192.000000,0.000000,0.000000,0.000000,0.000000,0.000000,0.000000,0.000000,0.000000,0.000000,1769696339.688401,0.000000
210.000000,8176.938674,11589.223038,-2541.505103,-4511.654915,-315.986611,-11998.572886,-5138.800161,965.237733,13295.108175,8270.972463,-14637.241022,8356.981976,11267.983767,-5247.809618,-11891.508030,4208.140577,0.008000,-0.014000,1.006000,192.000000,0.000000,0.000000,0.000000,0.000000,0.000000,0.000000,0.000000,0.000000,0.000000,1769696340.168230,0.000000
212.000000,8203.514898,11616.872146,-2516.247632,-4498.623848,-286.482309,-11963.570054,-5125.657335,985.667227,13128.073588,8100.451005,-14808.075405,8192.786061,11106.425358,-5434.469036,-12050.853616,4039.809589,0.008000,-0.014000,1.006000,192.000000,0.000000,0.000000,0.000000,0.000000,0.000000,0.000000,0.000000,0.000000,0.000000,1769696340.168292,0.000000
214.000000,8295.089995,11709.050740,-2421.140959,-4414.067199,-194.348418,-11899.129975,-5040.206616,1073.956618,13307.580448,8276.292178,-14628.456787,8363.508685,11281.215999,-5229.570595,-11868.597492,4147.679108,0.008000,-0.014000,1.006000,192.000000,0.000000,0.000000,0.000000,0.000000,0.000000,0.000000,0.000000,0.000000,0.000000,1769696340.168345,0.000000
216.000000,8143.455761,11557.081229,-2584.353397,-4574.798593,-345.535618,-12050.071305,-5204.558993,918.254366,13188.669168,8164.689918,-14751.771361,8247.279614,11170.910140,-5378.232047,-11994.527220,4050.493723,0.010000,-0.010000,1.004000,192.000000,0.000000,40.000000,127.500000,88.000000,15.500000,48.000000,0.000000,0.000000,0.000000,1769696340.168394,0.000000
218.000000,8338.005345,11753.977746,-2398.990381,-4383.445309,-155.746955,-11841.775398,-5021.118226,1109.473540,13231.897441,8215.383675,-14707.470203,8299.359178,11219.659295,-5299.911535,-11959.189112,4044.682270,0.010000,-0.010000,1.004000,192.000000,0.000000,0.000000,0.000000,0.000000,0.000000,0.000000,0.000000,0.000000,0.000000,1769696340.168458,0.000000
220.000000,8246.184378,11663.363774,-2494.342922,-4479.423699,-259.369643,-11951.813036,-5106.524242,1017.786684,13332.480291,8323.879042,-14609.010769,8390.263723,11327.037075,-5230.174092,-11868.217512,4158.564408,0.010000,-0.010000,1.004000,192.000000,0.000000,0.000000,0.000000,0.000000,0.000000,0.000000,0.000000,0.000000,0.000000,1769696340.168506,0.000000
222.000000,8217.216518,11638.329820,-2527.378801,-4491.650104,-306.040085,-11988.291083,-5134.352164,991.791605,13168.060859,8168.869694,-14768.557521,8242.563396,11132.554547,-5350.895864,-12038.224880,4019.782426,0.010000,-0.010000,1.004000,192.000000,0.000000,0.000000,0.000000,0.000000,0.000000,0.000000,0.000000,0.000000,0.000000,1769696340.168571,0.000000
224.000000,8305.036522,11728.697923,-2439.178817,-4407.093454,-226.400820,-11878.655777,-5040.251319,1081.265638,13275.170419,8281.567190,-14653.021354,8352.355165,11236.244289,-5263.634654,-11929.058961,4105.233145,0.010000,-0.010000,1.004000,192.000000,0.000000,0.000000,0.000000,0.000000,0.000000,0.000000,0.000000,0.000000,0.000000,1769696340.168589,0.000000
226.000000,8182.548962,11600.600076,-2561.040528,-4533.626680,-352.844638,-12004.093767,-5159.743745,962.555523,13213.501956,8211.807395,-14713.415767,8293.145394,11200.146222,-5326.867739,-11988.581656,4097.611201,0.004000,-0.010000,1.006000,192.000000,0.000000,16.000000,127.500000,88.000000,15.500000,56.000000,0.000000,0.000000,0.000000,1769696340.168606,0.000000
228.000000,8339.637022,11757.576377,-2403.773654,-4366.748556,-208.765293,-11869.603320,-5007.975400,1119.353011,13223.649648,8222.871509,-14697.814250,8312.278487,11201.688492,-5321.972707,-11972.041365,4079.372177,0.004000,-0.010000,1.006000,192.000000,0.000000,0.000000,0.000000,0.000000,0.000000,0.000000,0.000000,0.000000,0.000000,1769696340.168622,0.000000
230.000000,8178.190372,11591.726433,-2558.358319,-4531.771485,-362.187667,-12023.003343,-5161.084850,955.090041,13278.143201,8272.246512,-14642.896014,8354.858560,11259.445400,-5248.681336,-11906.394292,4158.966739,0.004000,-0.010000,1.006000,192.000000,0.000000,0.000000,0.000000,0.000000,0.000000,0.000000,0.000000,0.000000,0.000000,1769696340.168634,0.000000
232.000000,8233.533291,11646.063524,-2501.540184,-4472.047624,-296.115911,-11957.691545,-5105.451358,1008.398951,13125.391379,8114.398493,-14800.632274,8205.101872,11093.573105,-5400.092053,-12051.479465,4034.199302,0.004000,-0.010000,1.006000,192.000000,0.000000,0.000000,0.000000,0.000000,0.000000,0.000000,0.000000,0.000000,0.000000,1769696340.168646,0.000000
234.000000,8282.282446,11693.896257,-2457.730765,-4435.189597,-227.898386,-11894.838440,-5061.664291,1051.604873,13305.457032,8289.949094,-14624.701694,8370.236560,11271.627101,-5266.830953,-11870.564445,4177.853963,0.004000,-0.010000,1.006000,192.000000,0.000000,0.000000,0.000000,0.000000,0.000000,0.000000,0.000000,0.000000,0.000000,1769696340.168663,0.000000
236.000000,8124.479130,11534.058933,-2620.652630,-4611.991896,-373.721167,-12057.536788,-5226.843682,889.130043,13145.954984,8118.265345,-14790.216361,8200.922096,11133.359210,-5405.300010,-12034.648601,4050.963110,0.006000,-0.012000,1.008000,192.000000,0.000000,24.000000,127.500000,80.000000,15.500000,64.000000,0.000000,0.000000,0.000000,1769696340.168679,0.000000
238.000000,8332.037429,11743.584185,-2421.252718,-4400.589097,-184.692464,-11856.549902,-5031.936471,1096.375417,13205.030645,8175.843439,-14732.034770,8263.305815,11188.746832,-5361.624701,-11988.022862,4057.355709,0.006000,-0.012000,1.008000,192.000000,0.000000,0.000000,0.000000,0.000000,0.000000,0.000000,0.000000,0.000000,0.000000,1769696340.168703,0.000000
240.000000,8246.921986,11656.501789,-2512.760760,-4507.005752,-259.235532,-11938.893728,-5121.879890,1010.187091,13323.427835,8293.838298,-14613.637580,8377.925560,11305.132366,-5235.873787,-11881.919132,4165.068765,0.006000,-0.012000,1.008000,192.000000,0.000000,0.000000,0.000000,0.000000,0.000000,0.000000,0.000000,0.000000,0.000000,1769696340.168719,0.000000
242.000000,8253.158123,11667.543550,-2510.257365,-4483.134089,-277.966294,-11956.395144,-5125.344411,1014.232756,13160.841246,8135.856168,-14778.302882,8228.884128,11154.503960,-5374.767527,-12055.748648,4011.020543,0.006000,-0.012000,1.008000,192.000000,0.000000,0.000000,0.000000,0.000000,0.000000,0.000000,0.000000,0.000000,0.000000,1769696340.168735,0.000000
244.000000,8373.634025,11791.148697,-2388.172136,-4360.221846,-151.455420,-11831.270079,-5003.370941,1134.596900,13360.755248,8345.649641,-14575.974891,8425.154796,11322.052636,-5214.103188,-11859.612091,4177.697501,0.006000,-0.012000,1.008000,192.000000,0.000000,0.000000,0.000000,0.000000,0.000000,0.000000,0.000000,0.000000,0.000000,1769696340.168752,0.000000
246.000000,8189.366244,11607.395006,-2572.641083,-4559.062965,-344.798010,-12015.157880,-5183.838926,951.357299,13230.064598,8216.501262,-14708.028997,8297.056949,11203.722501,-5297.318732,-11986.547647,4093.654942,0.002000,-0.018000,1.008000,192.000000,0.000000,8.000000,127.500000,56.000000,15.500000,64.000000,0.000000,0.000000,0.000000,1769696340.168769,0.000000
248.000000,8359.284205,11782.163296,-2404.600669,-4384.339378,-192.940258,-11860.349698,-5014.345648,1125.678554,13231.070427,8232.661573,-14698.685968,8316.458263,11218.407597,-5263.031156,-11982.725499,4062.429555,0.002000,-0.018000,1.008000,192.000000,0.000000,0.000000,0.000000,0.000000,0.000000,0.000000,0.000000,0.000000,0.000000,1769696340.168783,0.000000
250.000000,8224.391428,11642.509597,-2523.221376,-4495.762825,-317.841806,-12009.927572,-5127.624289,994.272649,13319.069245,8315.385379,-14609.211935,8401.663113,11297.488069,-5246.602624,-11892.133879,4169.337948,0.002000,-0.018000,1.008000,192.000000,0.000000,0.000000,0.000000,0.000000,0.000000,0.000000,0.000000,0.000000,0.000000,1769696340.168804,0.000000
252.000000,8218.579974,11635.759370,-2522.215548,-4495.449900,-318.154731,-11998.192906,-5129.144207,990.137576,13135.226147,8123.450950,-14795.312559,8216.054227,11114.069654,-5444.147342,-12058.386154,4019.514205,0.002000,-0.018000,1.008000,192.000000,0.000000,0.000000,0.000000,0.000000,0.000000,0.000000,0.000000,0.000000,0.000000,1769696340.168819,0.000000
254.000000,8290.641998,11706.390882,-2449.281806,-4425.019553,-238.627224,-11925.303867,-5058.512695,1056.835181,13286.949788,8279.600236,-14644.907671,8364.760383,11288.212095,-5265.132220,-11897.028911,4137.889044,0.002000,-0.018000,1.008000,192.000000,0.000000,0.000000,0.000000,0.000000,0.000000,0.000000,0.000000,0.000000,0.000000,1769696340.168836,0.000000
0.000000,8138.247804,11553.504950,-2598.278534,-4585.080395,-373.520002,-12040.527110,-5209.252859,901.468206,13168.574949,8152.642328,-14769.965681,8231.968669,11143.819826,-5393.498289,-12006.060720,4064.552970,0.003000,-0.019000,1.009000,192.000000,0.000000,16.000000,127.500000,48.000000,15.500000,72.000000,0.000000,0.000000,0.000000,1769696340.168850,0.000000
2.000000,8331.948022,11750.736743,-2418.794026,-4396.118748,-180.088005,-11865.848227,-5028.874282,1091.994475,13216.295924,8203.693712,-14725.105730,8283.645902,11204.773033,-5327.739457,-11963.927682,4072.376081,0.003000,-0.019000,1.009000,192.000000,0.000000,0.000000,0.000000,0.000000,0.000000,0.000000,0.000000,0.000000,0.000000,1769696340.168867,0.000000
4.000000,8200.229192,11614.458157,-2549.551731,-4520.707371,-307.314135,-11991.286217,-5156.055707,964.634235,13289.564942,8280.382547,-14650.339145,8357.518418,11265.994461,-5248.569578,-11896.358358,4167.616864,0.003000,-0.019000,1.009000,192.000000,0.000000,0.000000,0.000000,0.000000,0.000000,0.000000,0.000000,0.000000,0.000000,1769696340.168884,0.000000
6.000000,8226.492492,11641.570823,-2526.954118,-4504.144729,-289.633905,-11962.318356,-5132.809893,995.501995,13129.615859,8119.070008,-14807.449556,8201.279724,11124.418512,-5431.876234,-12069.092640,4026.018563,0.003000,-0.019000,1.009000,192.000000,0.000000,0.000000,0.000000,0.000000,0.000000,0.000000,0.000000,0.000000,0.000000,1769696340.168900,0.000000
8.000000,8336.999516,11752.480179,-2414.457788,-4396.386969,-186.570011,-11853.644175,-5019.978287,1107.327772,13320.678570,8306.422330,-14611.268295,8388.006197,11304.215944,-5212.560917,-11889.786946,4170.008501,0.003000,-0.019000,1.009000,192.000000,0.000000,0.000000,0.000000,0.000000,0.000000,0.000000,0.000000,0.000000,0.000000,1769696340.168918,0.000000
10.000000,8161.940654,11574.359128,-2584.688674,-4557.073660,-357.896132,-12031.675819,-5188.465737,934.906415,13209.724511,8188.650988,-14725.150433,8275.934550,11194.915914,-5359.791858,-11999.623418,4109.390570,0.004500,-0.016500,1.011500,192.000000,0.000000,24.000000,127.500000,72.000000,15.500000,88.000000,0.000000,0.000000,0.000000,1769696340.168934,0.000000
12.000000,8331.948022,11748.032182,-2412.870814,-4387.110995,-192.068540,-11880.242751,-5019.061866,1108.825339,13211.155023,8195.088291,-14717.640247,8292.743062,11209.846879,-5361.088259,-11989.229857,4078.656921,0.004500,-0.016500,1.011500,192.000000,0.000000,0.000000,0.000000,0.000000,0.000000,0.000000,0.000000,0.000000,0.000000,1769696340.168952,0.000000
14.000000,8218.937602,11633.680658,-2529.099885,-4504.547060,-310.443379,-11995.600104,-5127.087847,997.200727,13307.356931,8287.848030,-14622.421816,8381.099508,11295.185840,-5243.652194,-11893.430280,4178.278646,0.004500,-0.016500,1.011500,192.000000,0.000000,0.000000,0.000000,0.000000,0.000000,0.000000,0.000000,0.000000,0.000000,1769696340.168966,0.000000
16.000000,8218.669381,11635.960536,-2531.983260,-4493.818223,-303.827262,-11982.010243,-5126.774922,995.501995,13131.426350,8127.675429,-14798.240638,8221.508053,11095.674169,-5425.863615,-12062.096544,4030.511264,0.004500,-0.016500,1.011500,192.000000,0.000000,0.000000,0.000000,0.000000,0.000000,0.000000,0.000000,0.000000,0.000000,1769696340.168983,0.000000
18.000000,8322.537937,11740.276127,-2420.850387,-4390.843736,-209.055866,-11887.909399,-5018.614831,1098.364723,13300.629056,8299.895620,-14624.634638,8384.519325,11274.398717,-5245.395630,-11884.713100,4158.810277,0.004500,-0.016500,1.011500,192.000000,0.000000,0.000000,0.000000,0.000000,0.000000,0.000000,0.000000,0.000000,0.000000,1769696340.169001,0.000000
20.000000,8130.156473,11547.313517,-2610.907270,-4589.103709,-396.721112,-12080.179105,-5206.280077,904.239822,13178.566179,8172.580084,-14750.117332,8257.337899,11181.013129,-5355.187399,-12002.551496,4086.457680,0.004250,-0.014250,1.011750,192.000000,0.000000,16.000000,127.500000,80.000000,15.500000,80.000000,0.000000,0.000000,0.000000,1769696340.169016,0.000000
22.000000,8300.208545,11721.455958,-2435.803704,-4406.177033,-224.947956,-11892.402100,-5041.950052,1075.521240,13178.096792,8181.140802,-14752.039582,8262.523504,11163.377603,-5340.032916,-12003.579677,4052.930063,0.004250,-0.014250,1.011750,192.000000,0.000000,0.000000,0.000000,0.000000,0.000000,0.000000,0.000000,0.000000,0.000000,1769696340.169034,0.000000
24.000000,8207.381750,11626.125768,-2525.456551,-4497.170984,-293.724274,-11955.769295,-5131.245271,980.101643,13288.559114,8287.535106,-14646.561700,8360.804124,11272.789392,-5252.771706,-11893.363225,4177.272818,0.004250,-0.014250,1.011750,192.000000,0.000000,0.000000,0.000000,0.000000,0.000000,0.000000,0.000000,0.000000,0.000000,1769696340.169050,0.000000
26.000000,8199.223363,11620.604887,-2537.370031,-4511.185528,-292.159652,-11950.471932,-5147.807914,969.462212,13134.712056,8138.046639,-14805.460251,8212.567355,11127.704218,-5380.377815,-12044.416314,4049.532598,0.004250,-0.014250,1.011750,192.000000,0.000000,0.000000,0.000000,0.000000,0.000000,0.000000,0.000000,0.000000,0.000000,1769696340.169068,0.000000
28.000000,8307.361103,11724.406388,-2433.903805,-4415.788283,-183.664284,-11848.391515,-5049.884921,1071.319112,13296.292817,8293.212449,-14643.588918,8360.915883,11291.184877,-5240.098267,-11897.230076,4162.654777,0.004250,-0.014250,1.011750,192.000000,0.000000,0.000000,0.000000,0.000000,0.000000,0.000000,0.000000,0.000000,0.000000,1769696340.169085,0.000000
30.000000,8168.042680,11583.679805,-2567.030795,-4558.638282,-329.576472,-12027.093712,-5184.241257,936.761610,13206.796432,8204.498375,-14735.476939,8265.920969,11200.660312,-5329.326430,-11995.935380,4087.396453,0.005125,-0.011125,1.010875,192.000000,0.000000,24.000000,127.500000,96.000000,15.500000,72.000000,0.000000,0.000000,0.000000,1769696340.169102,0.000000
32.000000,8319.453397,11735.470502,-2419.531634,-4412.346114,-198.930526,-11897.252428,-5034.976308,1089.647542,13224.431959,8217.931773,-14715.673294,8294.307684,11242.636888,-5315.334238,-11981.876133,4057.065136,0.005125,-0.011125,1.010875,192.000000,0.000000,0.000000,0.000000,0.000000,0.000000,0.000000,0.000000,0.000000,0.000000,1769696340.169119,0.000000
34.000000,8216.724779,11628.852681,-2514.370086,-4512.370171,-295.534765,-11998.103499,-5123.153940,990.428149,13315.761187,8299.739158,-14620.723083,8377.590284,11298.069215,-5222.932127,-11886.009501,4164.219399,0.005125,-0.011125,1.010875,192.000000,0.000000,0.000000,0.000000,0.000000,0.000000,0.000000,0.000000,0.000000,0.000000,1769696340.169133,0.000000
36.000000,8203.224326,11617.900326,-2529.949251,-4515.924098,-308.051742,-11993.521392,-5135.268585,977.911172,13130.219356,8105.100167,-14810.824670,8196.071767,11114.896669,-5453.713888,-12067.148038,3999.107063,0.005125,-0.011125,1.010875,192.000000,0.000000,0.000000,0.000000,0.000000,0.000000,0.000000,0.000000,0.000000,0.000000,1769696340.169150,0.000000
38.000000,8318.000533,11733.369438,-2409.987439,-4383.713530,-199.042284,-11892.066823,-5012.043418,1093.067359,13296.225762,8286.752795,-14638.537423,8369.342490,11277.349147,-5263.120563,-11884.131954,4145.131009,0.005125,-0.011125,1.010875,192.000000,0.000000,0.000000,0.000000,0.000000,0.000000,0.000000,0.000000,0.000000,0.000000,1769696340.169166,0.000000
40.000000,8121.372237,11537.545805,-2600.960744,-4577.927837,-401.191461,-12085.029433,-5200.692141,898.115444,13204.538906,8191.087328,-14734.247593,8271.508905,11182.756565,-5346.134942,-11968.688603,4108.183576,0.004563,-0.009562,1.009437,192.000000,0.000000,16.000000,127.500000,96.000000,15.500000,64.000000,0.000000,0.000000,0.000000,1769696340.169178,0.000000
42.000000,8275.107536,11694.164478,-2451.785201,-4437.245958,-241.756468,-11911.423434,-5054.198808,1048.520332,13150.693554,8142.695802,-14786.885951,8226.805416,11147.083181,-5392.850088,-12021.505776,4032.053534,0.004563,-0.009562,1.009437,192.000000,0.000000,0.000000,0.000000,0.000000,0.000000,0.000000,0.000000,0.000000,0.000000,1769696340.169191,0.000000
44.000000,8177.519819,11593.402814,-2547.897702,-4521.914366,-317.417123,-11979.260979,-5144.611614,952.340776,13280.959520,8266.993852,-14662.230273,8341.961603,11287.653302,-5256.504447,-11893.765556,4176.177582,0.004563,-0.009562,1.009437,192.000000,0.000000,0.000000,0.000000,0.000000,0.000000,0.000000,0.000000,0.000000,0.000000,1769696340.169208,0.000000
46.000000,8175.821087,11592.128765,-2554.446763,-4530.162159,-316.835978,-11988.536953,-5153.105277,949.770325,13096.110594,8083.083699,-14849.917871,8166.880389,11089.482735,-5435.161940,-12076.714584,4025.839749,0.004563,-0.009562,1.009437,192.000000,0.000000,0.000000,0.000000,0.000000,0.000000,0.000000,0.000000,0.000000,0.000000,1769696340.169224,0.000000
48.000000,8282.036577,11698.679530,-2447.627777,-4428.171149,-208.720590,-11889.675187,-5051.181322,1054.600007,13281.160686,8277.655635,-14659.883339,8351.908130,11263.535769,-5264.484020,-11890.233980,4169.762632,0.004563,-0.009562,1.009437,192.000000,0.000000,0.000000,0.000000,0.000000,0.000000,0.000000,0.000000,0.000000,0.000000,1769696340.169241,0.000000
50.000000,8145.378011,11558.556444,-2580.955932,-4578.866610,-351.503533,-12040.169482,-5193.159603,919.371953,13178.543827,8167.685052,-14765.785905,8242.496341,11172.363004,-5346.939605,-12001.836241,4079.863915,0.003281,-0.012781,1.007719,192.000000,0.000000,8.000000,127.500000,64.000000,15.500000,56.000000,0.000000,0.000000,0.000000,1769696340.169254,0.000000
52.000000,8315.072455,11733.235327,-2414.457788,-4414.894213,-191.174470,-11880.980358,-5026.370886,1094.274353,13213.032569,8209.169890,-14724.971619,8289.278542,11217.647638,-5326.666573,-11974.567112,4052.147752,0.003281,-0.012781,1.007719,192.000000,0.000000,0.000000,0.000000,0.000000,0.000000,0.000000,0.000000,0.000000,0.000000,1769696340.169271,0.000000
54.000000,8214.020218,11629.500881,-2517.253461,-4527.792874,-283.643637,-11972.622511,-5125.210300,995.345532,13293.498849,8287.132774,-14641.510205,8362.659319,11297.018683,-5234.979717,-11897.610056,4129.842416,0.003281,-0.012781,1.007719,192.000000,0.000000,0.000000,0.000000,0.000000,0.000000,0.000000,0.000000,0.000000,0.000000,1769696340.169288,0.000000
56.000000,8196.004712,11618.637934,-2527.982298,-4524.685982,-300.362742,-11986.927627,-5135.916786,985.108433,13139.718847,8143.299299,-14794.239675,8226.626602,11151.888806,-5418.286373,-12045.712715,3998.168289,0.003281,-0.012781,1.007719,192.000000,0.000000,0.000000,0.000000,0.000000,0.000000,0.000000,0.000000,0.000000,0.000000,1769696340.169304,0.000000
58.000000,8319.185176,11742.086618,-2398.923325,-4397.526908,-176.221153,-11855.365259,-5009.428264,1104.600859,13298.505640,8316.145339,-14630.557851,8386.419223,11285.596941,-5211.443330,-11877.985224,4125.729695,0.003281,-0.012781,1.007719,192.000000,0.000000,0.000000,0.000000,0.000000,0.000000,0.000000,0.000000,0.000000,0.000000,1769696340.169325,0.000000
60.000000,8118.242993,11537.568156,-2593.696427,-4590.690683,-363.886400,-12050.563043,-5200.200403,903.681028,13194.950008,8203.090215,-14737.130968,8277.655635,11188.188039,-5302.727855,-11970.856723,4084.960113,0.004641,-0.013391,1.008859,192.000000,0.000000,24.000000,127.500000,72.000000,15.500000,72.000000,0.000000,0.000000,0.000000,1769696340.169343,0.000000
62.000000,8269.541951,11689.291798,-2448.119515,-4435.703687,-229.172436,-11882.187352,-5051.807171,1055.985815,13154.806275,8163.549979,-14774.592492,8244.217425,11149.050134,-5366.966768,-12008.564116,4023.314002,0.004641,-0.013391,1.008859,192.000000,0.000000,0.000000,0.000000,0.000000,0.000000,0.000000,0.000000,0.000000,0.000000,1769696340.169357,0.000000
64.000000,8189.030968,11606.500936,-2530.798618,-4530.922119,-312.991478,-11983.261941,-5126.685515,979.095814,13271.862360,8273.654672,-14655.412991,8354.299766,11256.070287,-5263.120563,-11894.279646,4153.244692,0.004641,-0.013391,1.008859,192.000000,0.000000,0.000000,0.000000,0.000000,0.000000,0.000000,0.000000,0.000000,0.000000,1769696340.169370,0.000000
66.000000,8178.682110,11593.402814,-2539.761667,-4525.356534,-333.532731,-12004.429043,-5137.414353,968.478736,13126.285449,8112.319781,-14808.053053,8205.772424,11118.987038,-5424.634269,-12053.558177,4015.066208,0.004641,-0.013391,1.008859,192.000000,0.000000,0.000000,0.000000,0.000000,0.000000,0.000000,0.000000,0.000000,0.000000,1769696340.169381,0.000000
68.000000,8276.605103,11691.638731,-2438.664727,-4432.619146,-227.183131,-11896.783042,-5040.586596,1065.440603,13273.851666,8260.578902,-14658.050496,8350.790542,11277.170334,-5285.852288,-11902.728606,4128.970698,0.004641,-0.013391,1.008859,192.000000,0.000000,0.000000,0.000000,0.000000,0.000000,0.000000,0.000000,0.000000,0.000000,1769696340.169394,0.000000
70.000000,8098.864031,11510.500194,-2615.221157,-4610.427274,-393.278944,-12063.705869,-5219.489958,883.206830,13165.646871,8141.600566,-14775.285396,8229.599384,11162.818809,-5393.900620,-12015.582563,4061.535485,0.004641,-0.013391,1.008859,192.000000,0.000000,0.000000,0.000000,0.000000,0.000000,0.000000,0.000000,0.000000,0.000000,1769696340.169406,0.000000
72.000000,8275.465164,11695.036196,-2436.429553,-4425.086609,-211.559261,-11881.472097,-5040.072505,1066.759356,13176.085135,8164.220531,-14756.733448,8258.142562,11165.501018,-5336.099009,-11991.152107,4059.590883,0.006000,-0.016000,1.002000,192.000000,0.000000,24.000000,127.500000,64.000000,15.500000,40.000000,0.000000,0.000000,0.000000,1769696340.169418,0.000000
74.000000,8165.829857,11582.025776,-2547.562426,-4543.774372,-315.941908,-11989.006339,-5150.132495,956.587607,13263.323994,8252.912253,-14665.650089,8341.156941,11251.868159,-5281.873677,-11900.292265,4158.340890,0.006000,-0.016000,1.002000,192.000000,0.000000,0.000000,0.000000,0.000000,0.000000,0.000000,0.000000,0.000000,0.000000,1769696340.648113,0.000000
76.000000,8176.715157,11596.599114,-2544.947272,-4544.959014,-314.846672,-11973.650691,-5149.819571,966.422375,13101.586771,8091.152679,-14828.728417,8189.567410,11093.729567,-5419.962754,-12066.633948,4001.029313,0.006000,-0.016000,1.002000,192.000000,0.000000,0.000000,0.000000,0.000000,0.000000,0.000000,0.000000,0.000000,0.000000,1769696340.648186,0.000000
78.000000,8309.059836,11731.648354,-2412.244965,-4413.709571,-195.466005,-11861.132009,-5020.760598,1100.152862,13278.411422,8278.817925,-14646.516996,8370.258912,11291.922485,-5268.194409,-11894.704329,4123.226300,0.006000,-0.016000,1.002000,192.000000,0.000000,0.000000,0.000000,0.000000,0.000000,0.000000,0.000000,0.000000,0.000000,1769696340.648242,0.000000
80.000000,8141.377049,11563.697346,-2571.389386,-4573.457488,-353.626949,-12025.126758,-5178.005121,933.744125,13209.657456,8215.741302,-14720.657733,8297.548687,11206.270600,-5304.292477,-11967.079278,4093.274962,0.006000,-0.016000,1.002000,192.000000,0.000000,0.000000,0.000000,0.000000,0.000000,0.000000,0.000000,0.000000,0.000000,1769696340.648317,0.000000
82.000000,8274.034652,11702.389920,-2439.402335,-4424.997202,-208.541776,-11872.710213,-5043.402915,1070.022711,13176.398060,8189.612113,-14753.492445,8274.571094,11162.282367,-5337.350707,-11994.281351,4037.954395,0.012000,-0.012000,1.014000,192.000000,0.000000,48.000000,127.500000,80.000000,15.500000,88.000000,0.000000,0.000000,0.000000,1769696340.648371,0.000000
84.000000,8178.972683,11606.567992,-2533.100847,-4505.061150,-290.080940,-11952.841217,-5128.741876,978.648779,13274.835142,8299.336827,-14650.741476,8375.220999,11267.939063,-5231.470493,-11884.958969,4158.989091,0.012000,-0.012000,1.014000,192.000000,0.000000,0.000000,0.000000,0.000000,0.000000,0.000000,0.000000,0.000000,0.000000,1769696340.648426,0.000000
86.000000,8158.498485,11584.216247,-2554.737336,-4529.692773,-332.661013,-11992.046176,-5157.329757,956.006462,13111.980332,8128.033057,-14818.491318,8213.573183,11107.721759,-5379.953132,-12051.971203,4021.637621,0.012000,-0.012000,1.014000,192.000000,0.000000,0.000000,0.000000,0.000000,0.000000,0.000000,0.000000,0.000000,0.000000,1769696340.648443,0.000000
88.000000,8308.344580,11736.699848,-2403.281916,-4374.884590,-176.735243,-11852.303070,-5006.433130,1107.238365,13266.453238,8283.914123,-14660.576243,8364.872141,11282.512400,-5244.233339,-11895.553696,4142.381745,0.012000,-0.012000,1.014000,192.000000,0.000000,0.000000,0.000000,0.000000,0.000000,0.000000,0.000000,0.000000,0.000000,1769696340.648458,0.000000
90.000000,8117.415979,11541.300898,-2600.156081,-4576.854953,-358.857257,-12018.868270,-5200.401568,913.716962,13207.779909,8218.758788,-14726.312724,8299.001551,11221.469786,-5307.712294,-11961.938377,4130.490617,0.012000,-0.012000,1.014000,192.000000,0.000000,0.000000,0.000000,0.000000,0.000000,0.000000,0.000000,0.000000,0.000000,1769696340.648484,0.000000
92.000000,8265.183361,11689.023577,-2448.231274,-4424.796036,-217.750694,-11886.344777,-5052.053041,1063.451298,13156.236786,8162.812372,-14776.179466,8254.655690,11130.855814,-5368.084355,-12022.042217,4046.023374,0.008000,-0.012000,1.010000,192.000000,0.000000,32.000000,127.500000,80.000000,15.500000,72.000000,0.000000,0.000000,0.000000,1769696340.648501,0.000000
94.000000,8165.002843,11579.500029,-2545.282548,-4530.519787,-317.730047,-11985.228894,-5145.975071,960.901494,13278.791401,8276.873324,-14655.681211,8360.714717,11270.308348,-5247.697860,-11904.717911,4176.624617,0.008000,-0.012000,1.010000,192.000000,0.000000,0.000000,0.000000,0.000000,0.000000,0.000000,0.000000,0.000000,0.000000,1769696340.648515,0.000000
96.000000,8171.842476,11586.809049,-2545.036679,-4535.191302,-319.004097,-11963.838275,-5144.410449,965.081270,13107.800556,8084.402452,-14834.472815,8183.510087,11105.285419,-5445.957833,-12082.995425,4022.330525,0.008000,-0.012000,1.010000,192.000000,0.000000,0.000000,0.000000,0.000000,0.000000,0.000000,0.000000,0.000000,0.000000,1769696340.648534,0.000000
98.000000,8265.652748,11684.687338,-2444.230311,-4439.905815,-217.795398,-11844.681125,-5045.258110,1061.216123,13274.656329,8265.183361,-14662.319680,8353.070420,11281.372461,-5248.815447,-11909.322370,4155.122239,0.008000,-0.012000,1.010000,192.000000,0.000000,0.000000,0.000000,0.000000,0.000000,0.000000,0.000000,0.000000,0.000000,1769696340.648552,0.000000
100.000000,8101.769757,11519.619706,-2606.280459,-4602.671218,-374.905810,-12029.351238,-5211.957420,897.467243,13178.320310,8161.404212,-14763.506027,8248.307794,11169.747850,-5330.555776,-12006.775976,4104.339076,0.008000,-0.012000,1.010000,192.000000,0.000000,0.000000,0.000000,0.000000,0.000000,0.000000,0.000000,0.000000,0.000000,1769696340.648566,0.000000
102.000000,8275.174591,11695.952618,-2430.215768,-4427.902928,-211.626317,-11842.200082,-5042.262976,1069.978007,13165.401002,8153.245825,-14774.570140,8247.167855,11178.040347,-5382.210658,-12014.643790,4063.815363,0.004000,-0.012000,1.008000,192.000000,0.000000,16.000000,127.500000,80.000000,15.500000,64.000000,0.000000,0.000000,0.000000,1769696340.648584,0.000000
104.000000,8193.478965,11612.692370,-2513.744237,-4513.241889,-278.480384,-11924.007466,-5120.941117,988.327085,13297.075128,8288.809155,-14642.203110,8372.404679,11285.395775,-5230.934051,-11874.163076,4195.243620,0.004000,-0.012000,1.008000,192.000000,0.000000,0.000000,0.000000,0.000000,0.000000,0.000000,0.000000,0.000000,0.000000,1769696340.648600,0.000000
106.000000,8165.092250,11585.087965,-2549.819952,-4540.667479,-309.616364,-11955.769295,-5154.535789,961.572046,13118.261173,8107.402397,-14820.860603,8203.939581,11108.258201,-5410.843243,-12056.195683,4028.767828,0.004000,-0.012000,1.008000,192.000000,0.000000,0.000000,0.000000,0.000000,0.000000,0.000000,0.000000,0.000000,0.000000,1769696340.648617,0.000000
108.000000,8293.145394,11714.817490,-2421.096256,-4405.729998,-181.429110,-11829.213718,-5022.727552,1092.173289,13287.530933,8285.724614,-14646.137017,8378.327892,11276.298615,-5240.142970,-11886.791812,4152.842361,0.004000,-0.012000,1.008000,192.000000,0.000000,0.000000,0.000000,0.000000,0.000000,0.000000,0.000000,0.000000,0.000000,1769696340.648634,0.000000
110.000000,8096.204173,11518.479767,-2614.327087,-4597.575021,-373.542353,-12063.638814,-5212.247993,898.696589,13169.133743,8168.355604,-14763.237806,8265.384527,11172.407707,-5351.052326,-11996.449470,4085.630665,0.004000,-0.012000,1.008000,192.000000,0.000000,0.000000,0.000000,0.000000,0.000000,0.000000,0.000000,0.000000,0.000000,1769696340.648650,0.000000
112.000000,8280.740175,11704.200411,-2427.846483,-4410.155643,-190.123938,-11876.957044,-5033.054058,1083.545516,13161.690612,8164.891084,-14767.059954,8267.351480,11158.706088,-5360.663576,-12005.256057,4046.716278,0.010000,-0.006000,1.010000,192.000000,0.000000,40.000000,127.500000,104.000000,15.500000,72.000000,0.000000,0.000000,0.000000,1769696340.648665,0.000000
114.000000,8187.801622,11606.791509,-2517.834606,-4502.870679,-287.421082,-11961.379583,-5123.668030,989.981114,13293.364739,8289.412652,-14636.346952,8383.491145,11290.402566,-5204.648400,-11875.235960,4182.592533,0.010000,-0.006000,1.010000,192.000000,0.000000,0.000000,0.000000,0.000000,0.000000,0.000000,0.000000,0.000000,0.000000,1769696340.648682,0.000000
116.000000,8171.998939,11591.815840,-2536.252443,-4524.551871,-308.230556,-11959.859664,-5146.019774,973.351416,13122.955039,8116.968944,-14810.511745,8217.372980,11121.892765,-5389.452623,-12055.391020,4033.349935,0.010000,-0.006000,1.010000,192.000000,0.000000,0.000000,0.000000,0.000000,0.000000,0.000000,0.000000,0.000000,0.000000,1769696340.648699,0.000000
118.000000,8293.994760,11712.872888,-2412.736703,-4410.714437,-181.227944,-11821.927049,-5024.113360,1094.944906,13290.637826,8285.299931,-14639.096217,8379.467831,11284.859334,-5258.359642,-11888.065861,4163.034757,0.010000,-0.006000,1.010000,192.000000,0.000000,0.000000,0.000000,0.000000,0.000000,0.000000,0.000000,0.000000,0.000000,1769696340.648716,0.000000
120.000000,8099.556935,11515.439929,-2601.988924,-4607.275678,-374.034092,-12044.192796,-5215.019609,901.110578,13192.558371,8179.643235,-14744.730561,8269.899579,11231.371609,-5352.907521,-11994.974255,4095.890116,0.010000,-0.006000,1.010000,192.000000,0.000000,0.000000,0.000000,0.000000,0.000000,0.000000,0.000000,0.000000,0.000000,1769696340.648732,0.000000
122.000000,8278.460297,11697.517240,-2421.565643,-4429.825178,-205.233718,-11854.784114,-5036.585633,1079.030464,13169.446667,8154.452819,-14769.406887,8248.687774,11169.703146,-5360.305948,-12021.639886,4028.991345,0.006000,-0.006000,1.010000,192.000000,0.000000,24.000000,127.500000,104.000000,15.500000,72.000000,0.000000,0.000000,0.000000,1769696340.648751,0.000000
124.000000,8170.367261,11590.877067,-2521.433237,-4519.142749,-309.683419,-11951.164836,-5125.836149,977.262971,13295.666968,8289.166783,-14636.011676,8375.332758,11291.274284,-5217.947688,-11881.405041,4176.579914,0.006000,-0.006000,1.010000,192.000000,0.000000,0.000000,0.000000,0.000000,0.000000,0.000000,0.000000,0.000000,0.000000,1769696340.648768,0.000000
126.000000,8158.230264,11582.718680,-2545.014327,-4526.742342,-329.040030,-11938.826673,-5144.902187,961.840267,13108.336998,8101.367426,-14826.806167,8197.859907,11087.538134,-5419.649830,-12062.476523,4028.589014,0.006000,-0.006000,1.010000,192.000000,0.000000,0.000000,0.000000,0.000000,0.000000,0.000000,0.000000,0.000000,0.000000,1769696340.648785,0.000000
128.000000,8251.660556,11677.557132,-2448.611253,-4427.053562,-211.983944,-11847.899776,-5049.057907,1052.856571,13278.120849,8281.611893,-14658.430476,8365.877970,11283.562932,-5214.237298,-11885.115431,4161.313672,0.006000,-0.006000,1.010000,192.000000,0.000000,0.000000,0.000000,0.000000,0.000000,0.000000,0.000000,0.000000,0.000000,1769696340.648799,0.000000
130.000000,8087.777565,11508.041502,-2607.912136,-4593.082320,-361.852391,-12030.826453,-5214.751388,888.437139,13144.636231,8140.058296,-14796.810126,8226.939526,11155.219216,-5359.724803,-12003.199697,4078.478107,0.006000,-0.006000,1.010000,192.000000,0.000000,0.000000,0.000000,0.000000,0.000000,0.000000,0.000000,0.000000,0.000000,1769696340.648816,0.000000
132.000000,8260.914178,11682.698033,-2442.844503,-4430.428675,-192.672037,-11864.551826,-5054.914064,1060.836144,13176.912150,8165.002843,-14763.081344,8261.741193,11153.721649,-5347.185474,-11981.987891,4060.529656,0.002000,-0.006000,1.000000,192.000000,0.000000,8.000000,127.500000,104.000000,15.500000,32.000000,0.000000,0.000000,0.000000,1769696340.648832,0.000000
134.000000,8211.159195,11629.791454,-2502.858937,-4482.619999,-243.097573,-11921.057036,-5108.245326,1009.114207,13298.170364,8288.138603,-14642.493682,8373.924598,11284.233485,-5223.446217,-11881.874428,4168.756803,0.002000,-0.006000,1.000000,192.000000,0.000000,0.000000,0.000000,0.000000,0.000000,0.000000,0.000000,0.000000,0.000000,1769696340.648850,0.000000
136.000000,8203.537250,11624.047056,-2521.209719,-4497.618019,-242.561131,-11905.813146,-5125.567928,1001.849890,13172.195932,8159.280796,-14771.932634,8256.689698,11172.541818,-5363.099916,-12029.552404,4056.104011,0.002000,-0.006000,1.000000,192.000000,0.000000,0.000000,0.000000,0.000000,0.000000,0.000000,0.000000,0.000000,0.000000,1769696340.648865,0.000000
138.000000,8298.509812,11719.824281,-2428.137055,-4411.295582,-146.806258,-11845.709305,-5035.468046,1094.296705,13292.269503,8279.823754,-14653.066057,8373.119935,11313.961305,-5256.213874,-11915.983190,4125.059143,0.002000,-0.006000,1.000000,192.000000,0.000000,0.000000,0.000000,0.000000,0.000000,0.000000,0.000000,0.000000,0.000000,1769696340.648881,0.000000
140.000000,8127.518967,11548.028773,-2589.136671,-4580.297122,-315.740742,-12040.080075,-5197.473490,923.797598,13223.247316,8206.733549,-14726.469186,8295.984065,11215.904202,-5270.429584,-11987.173496,4097.074759,0.002000,-0.006000,1.000000,192.000000,0.000000,0.000000,0.000000,0.000000,0.000000,0.000000,0.000000,0.000000,0.000000,1769696340.648896,0.000000
142.000000,8285.322283,11706.592048,-2424.828997,-4431.769780,-177.651665,-11884.847210,-5040.608947,1080.304513,13183.952950,8168.713232,-14759.080381,8262.322338,11172.318300,-5353.041631,-12022.958639,4014.306249,0.004000,-0.006000,0.997000,192.000000,0.000000,24.000000,127.500000,104.000000,15.500000,8.000000,0.000000,0.000000,0.000000,1769696340.648912,0.000000
144.000000,8220.189300,11638.352172,-2484.821079,-4494.935810,-250.026613,-11936.792664,-5098.477614,1014.568033,13335.318963,8310.043312,-14603.132260,8400.612581,11331.887404,-5214.863147,-11867.725774,4158.586759,0.004000,-0.006000,0.997000,192.000000,0.000000,0.000000,0.000000,0.000000,0.000000,0.000000,0.000000,0.000000,0.000000,1769696340.648928,0.000000
146.000000,8181.789003,11602.857602,-2529.725734,-4536.912386,-302.284992,-11959.747906,-5136.855559,978.537021,13147.586661,8125.842586,-14794.843172,8217.574146,11143.171626,-5423.337868,-12057.156808,3992.110967,0.004000,-0.006000,0.997000,192.000000,0.000000,0.000000,0.000000,0.000000,0.000000,0.000000,0.000000,0.000000,0.000000,1769696340.648942,0.000000
148.000000,8290.440832,11716.002132,-2422.392657,-4414.558937,-188.849889,-11860.841436,-5022.168758,1090.206336,13299.712634,8289.747928,-14634.134130,8377.702043,11285.932217,-5213.790263,-11888.825821,4121.058180,0.004000,-0.006000,0.997000,192.000000,0.000000,0.000000,0.000000,0.000000,0.000000,0.000000,0.000000,0.000000,0.000000,1769696340.648959,0.000000
150.000000,8099.646342,11523.441854,-2609.364999,-4599.027884,-374.995217,-12040.124779,-5207.688237,902.094054,13184.243522,8177.989206,-14754.230053,8261.651786,11183.270655,-5322.196224,-11988.514601,4061.468430,0.004000,-0.006000,0.997000,192.000000,0.000000,0.000000,0.000000,0.000000,0.000000,0.000000,0.000000,0.000000,0.000000,1769696340.648976,0.000000
152.000000,8259.193094,11685.134373,-2452.947492,-4436.642460,-207.200671,-11852.593643,-5055.495209,1062.736042,13167.099734,8163.773497,-14767.149361,8258.164913,11159.622509,-5360.685928,-12004.965485,4026.264432,0.005000,-0.007000,0.996500,192.000000,0.000000,24.000000,127.500000,96.000000,15.500000,16.000000,0.000000,0.000000,0.000000,1769696340.648991,0.000000
154.000000,8195.758843,11621.096625,-2511.777283,-4492.432415,-284.336541,-11955.501074,-5113.162710,998.005390,13290.794288,8284.048234,-14641.353743,8374.505743,11289.419089,-5246.557921,-11885.651873,4163.437088,0.005000,-0.007000,0.996500,192.000000,0.000000,0.000000,0.000000,0.000000,0.000000,0.000000,0.000000,0.000000,0.000000,1769696340.649010,0.000000
156.000000,8159.057279,11590.474736,-2549.507028,-4525.624755,-329.978803,-11982.971368,-5148.053783,968.590494,13130.062894,8122.623935,-14804.744995,8219.742265,11124.329105,-5394.057082,-12049.378401,4030.846540,0.005000,-0.007000,0.996500,192.000000,0.000000,0.000000,0.000000,0.000000,0.000000,0.000000,0.000000,0.000000,0.000000,1769696340.649027,0.000000
158.000000,8282.975350,11713.252868,-2430.260471,-4404.075969,-214.196767,-11864.775344,-5028.159026,1091.905068,13271.840009,8280.695472,-14651.054400,8370.281264,11270.643624,-5223.647383,-11912.853946,4139.520721,0.005000,-0.007000,0.996500,192.000000,0.000000,0.000000,0.000000,0.000000,0.000000,0.000000,0.000000,0.000000,0.000000,1769696340.649044,0.000000
160.000000,8114.934935,11539.646869,-2597.071540,-4582.487593,-366.926237,-12039.700096,-5195.975923,926.189235,13197.811031,8195.311808,-14733.442930,8286.261056,11197.285199,-5320.117512,-12000.226915,4096.515965,0.005000,-0.007000,0.996500,192.000000,0.000000,0.000000,0.000000,0.000000,0.000000,0.000000,0.000000,0.000000,0.000000,1769696340.649060,0.000000
162.000000,8274.168762,11701.294685,-2433.501474,-4433.289699,-204.585517,-11875.772402,-5039.692526,1086.473594,13169.960757,8159.347851,-14761.539073,8264.021070,11158.326108,-5363.278730,-12028.434816,4033.193473,0.005500,-0.008500,0.999250,192.000000,0.000000,24.000000,127.500000,88.000000,15.500000,40.000000,0.000000,0.000000,0.000000,1769696340.649075,0.000000
164.000000,8171.730718,11596.956741,-2528.496388,-4542.656784,-283.263657,-11965.827580,-5135.179178,981.621561,13292.381262,8282.215390,-14632.614211,8381.747709,11279.383156,-5261.399479,-11888.490544,4156.485695,0.005500,-0.008500,0.999250,192.000000,0.000000,0.000000,0.000000,0.000000,0.000000,0.000000,0.000000,0.000000,0.000000,1769696340.649091,0.000000
166.000000,8164.466401,11587.300788,-2535.023097,-4542.612081,-303.536690,-11999.511659,-5143.739896,971.071538,13118.462338,8103.244973,-14813.037492,8201.905573,11144.691544,-5389.363216,-12057.335622,3992.558002,0.005500,-0.008500,0.999250,192.000000,0.000000,0.000000,0.000000,0.000000,0.000000,0.000000,0.000000,0.000000,0.000000,1769696340.649104,0.000000
168.000000,8287.512754,11711.196507,-2415.284802,-4413.418998,-176.444671,-11864.931806,-5018.704238,1093.201470,13268.397840,8256.823809,-14660.151560,8352.489275,11252.382249,-5264.148744,-11904.717911,4098.862898,0.005500,-0.008500,0.999250,192.000000,0.000000,0.000000,0.000000,0.000000,0.000000,0.000000,0.000000,0.000000,0.000000,1769696340.649117,0.000000
170.000000,8103.423787,11524.760607,-2613.857700,-4608.907355,-385.500537,-12060.576625,-5205.028380,908.553709,13198.593342,8188.382767,-14731.475977,8281.053100,11216.373589,-5346.492570,-11980.982063,4066.229351,0.005500,-0.008500,0.999250,192.000000,0.000000,0.000000,0.000000,0.000000,0.000000,0.000000,0.000000,0.000000,0.000000,1769696340.649134,0.000000
172.000000,8273.274693,11696.265542,-2445.750230,-4441.068106,-231.899349,-11907.802452,-5042.307680,1082.696150,13159.924824,8151.681203,-14769.764515,8256.667347,11147.083181,-5384.512888,-12039.811854,3986.344217,0.003750,-0.010250,1.003625,192.000000,0.000000,8.000000,127.500000,80.000000,15.500000,64.000000,0.000000,0.000000,0.000000,1769696340.649145,0.000000
174.000000,8190.372073,11612.334742,-2519.712152,-4513.688924,-312.678553,-11968.241569,-5111.240460,1005.493224,13286.681567,8284.316454,-14636.414008,8385.905133,11267.223807,-5246.177941,-11911.781062,4122.421637,0.003750,-0.010250,1.003625,192.000000,0.000000,0.000000,0.000000,0.000000,0.000000,0.000000,0.000000,0.000000,0.000000,1769696340.649162,0.000000
176.000000,8144.595700,11570.559331,-2571.299979,-4549.719936,-363.461717,-12004.741967,-5160.101373,958.800430,13112.762643,8113.951458,-14809.930600,8222.424474,11115.254297,-5394.325303,-12080.067346,3996.916592,0.003750,-0.010250,1.003625,192.000000,0.000000,0.000000,0.000000,0.000000,0.000000,0.000000,0.000000,0.000000,0.000000,1769696340.649176,0.000000
178.000000,8282.483611,11709.989513,-2427.935890,-4406.735826,-220.276442,-11830.130140,-5024.694505,1094.408464,13251.119942,8263.484629,-14666.365345,8362.860484,11252.091676,-5251.743525,-11936.345629,4112.117483,0.003750,-0.010250,1.003625,192.000000,0.000000,0.000000,0.000000,0.000000,0.000000,0.000000,0.000000,0.000000,0.000000,1769696340.649192,0.000000
180.000000,8117.304220,11544.474845,-2590.768348,-4562.751003,-368.580266,-12024.433854,-5183.235429,933.677069,13188.959740,8189.098023,-14735.253422,8289.636170,11176.788649,-5345.799666,-11999.064624,4094.504308,0.003750,-0.010250,1.003625,192.000000,0.000000,0.000000,0.000000,0.000000,0.000000,0.000000,0.000000,0.000000,0.000000,1769696340.649204,0.000000
182.000000,8256.823809,11684.977911,-2442.039840,-4424.371353,-246.740907,-11903.108585,-5048.297947,1074.895391,13167.367955,8173.585912,-14750.609070,8283.534143,11156.269748,-5342.245739,-12014.286162,4064.977654,0.002875,-0.010125,1.002813,192.000000,0.000000,8.000000,127.500000,88.000000,15.500000,40.000000,0.000000,0.000000,0.000000,1769696340.649221,0.000000
184.000000,8163.929959,11588.686596,-2529.904548,-4520.550909,-330.492894,-11983.239589,-5130.082980,980.571029,13272.622320,8273.229989,-14642.694848,8373.075232,11286.267494,-5253.039927,-11904.181469,4166.543980,0.002875,-0.010125,1.002813,192.000000,0.000000,0.000000,0.000000,0.000000,0.000000,0.000000,0.000000,0.000000,0.000000,1769696340.649259,0.000000
186.000000,8130.089418,11549.571043,-2562.716909,-4558.794744,-359.348996,-11968.263920,-5163.565894,947.691613,13081.514905,8070.164391,-14839.569013,8177.273950,11071.757802,-5442.090981,-12091.287922,4002.772749,0.002875,-0.010125,1.002813,192.000000,0.000000,0.000000,0.000000,0.000000,0.000000,0.000000,0.000000,0.000000,0.000000,1769696340.649277,0.000000
188.000000,8283.400033,11706.189717,-2411.216785,-4403.919507,-203.713799,-11846.424561,-5009.875299,1105.204356,13260.306509,8250.475913,-14654.921252,8354.143304,11245.252042,-5276.509258,-11911.714007,4134.044544,0.002875,-0.010125,1.002813,192.000000,0.000000,0.000000,0.000000,0.000000,0.000000,0.000000,0.000000,0.000000,0.000000,1769696340.649289,0.000000
190.000000,8095.600676,11517.138662,-2606.839252,-4585.236858,-387.154566,-12042.583471,-5198.009932,913.985183,13187.350415,8183.577142,-14728.614954,8284.763489,11182.354234,-5319.044628,-11984.334825,4111.424579,0.002875,-0.010125,1.002813,192.000000,0.000000,0.000000,0.000000,0.000000,0.000000,0.000000,0.000000,0.000000,0.000000,1769696340.649305,0.000000
192.000000,8210.734512,11638.307469,-2491.705417,-4472.718176,-269.718500,-11872.665509,-5086.228858,1031.890635,13125.503138,8128.278926,-14792.362129,8234.516768,11121.736303,-5374.275789,-12049.221939,4016.139092,0.003438,-0.012063,1.000406,192.000000,0.000000,16.000000,127.500000,72.000000,15.500000,24.000000,0.000000,0.000000,0.000000,1769696340.649320,0.000000
194.000000,8176.402232,11602.768195,-2523.355487,-4500.456691,-303.469634,-11942.313545,-5118.750646,995.993733,13253.600985,8255.795629,-14667.035898,8350.969356,11260.630043,-5270.921322,-11919.335952,4131.675259,0.003438,-0.012063,1.000406,192.000000,0.000000,0.000000,0.000000,0.000000,0.000000,0.000000,0.000000,0.000000,0.000000,1769696341.129451,0.000000
196.000000,8135.386781,11564.770229,-2567.097851,-4533.514921,-330.090562,-12000.942171,-5163.834115,956.118221,13114.461376,8124.903813,-14810.020007,8223.720875,11118.897631,-5387.508021,-12055.234558,4033.484046,0.003438,-0.012063,1.000406,192.000000,0.000000,0.000000,0.000000,0.000000,0.000000,0.000000,0.000000,0.000000,0.000000,1769696341.129522,0.000000
198.000000,8273.542914,11700.579429,-2428.941718,-4396.029341,-187.888764,-11838.824968,-5031.534139,1090.586315,13249.108285,8261.070640,-14671.841523,8355.618519,11243.083923,-5261.354776,-11916.296114,4130.736486,0.003438,-0.012063,1.000406,192.000000,0.000000,0.000000,0.000000,0.000000,0.000000,0.000000,0.000000,0.000000,0.000000,1769696341.129577,0.000000
200.000000,8088.492821,11509.695531,-2614.729418,-4582.822869,-373.721167,-12021.438720,-5218.528833,899.970639,13188.177429,8189.746224,-14743.769436,8279.063795,11190.065585,-5307.622887,-11982.680796,4107.937706,0.003438,-0.012063,1.000406,192.000000,0.000000,0.000000,0.000000,0.000000,0.000000,0.000000,0.000000,0.000000,0.000000,1769696341.129640,0.000000
202.000000,8244.373887,11667.118867,-2459.697719,-4435.256652,-227.876035,-11856.572253,-5075.209448,1053.750641,13136.880176,8137.890177,-14793.189143,8232.750980,11165.836294,-5360.641224,-12035.207395,4032.142941,0.004719,-0.012031,1.000203,192.000000,0.000000,24.000000,127.500000,80.000000,15.500000,32.000000,0.000000,0.000000,0.000000,1769696341.129689,0.000000
204.000000,8215.204861,11635.625259,-2486.564515,-4468.381938,-252.150029,-11880.555675,-5100.735140,1027.017954,13303.177154,8305.908240,-14622.332409,8391.381310,11303.791261,-5167.209228,-11866.719945,4198.238754,0.004719,-0.012031,1.000203,192.000000,0.000000,0.000000,0.000000,0.000000,0.000000,0.000000,0.000000,0.000000,0.000000,1769696341.129793,0.000000
206.000000,8164.287587,11586.831401,-2538.197045,-4519.500377,-312.589146,-11941.978269,-5147.517341,979.587552,13139.629440,8138.940709,-14787.735318,8240.328221,11119.523480,-5380.802498,-12031.541709,4064.172991,0.004719,-0.012031,1.000203,192.000000,0.000000,0.000000,0.000000,0.000000,0.000000,0.000000,0.000000,0.000000,0.000000,1769696341.129812,0.000000
208.000000,8267.574998,11693.471574,-2430.573396,-4416.101207,-204.205537,-11826.665619,-5036.138598,1084.707807,13255.232663,8260.288329,-14665.650089,8358.703060,11234.277336,-5263.791116,-11912.004580,4149.199027,0.004719,-0.012031,1.000203,192.000000,0.000000,0.000000,0.000000,0.000000,0.000000,0.000000,0.000000,0.000000,0.000000,1769696341.129827,0.000000
210.000000,8101.747406,11526.168767,-2590.991866,-4583.001683,-372.000083,-11988.134621,-5196.042978,917.494406,13192.826592,8191.713177,-14733.621744,8282.505963,11205.153013,-5316.943564,-11976.087031,4126.981393,0.004719,-0.012031,1.000203,192.000000,0.000000,0.000000,0.000000,0.000000,0.000000,0.000000,0.000000,0.000000,0.000000,1769696341.129842,0.000000
212.000000,8250.587672,11678.495905,-2447.158390,-4437.491827,-230.468837,-11819.155433,-5053.952939,1061.976083,13150.514740,8150.362450,-14778.816972,8245.670288,11147.932547,-5359.344823,-12019.829395,4061.937816,0.004719,-0.012031,1.000203,192.000000,0.000000,0.000000,0.000000,0.000000,0.000000,0.000000,0.000000,0.000000,0.000000,1769696341.129858,0.000000
214.000000,8194.082462,11617.788567,-2507.016362,-4494.801699,-269.807907,-11836.366276,-5109.631134,1000.061750,13286.122773,8282.014225,-14645.779389,8367.531999,11275.739822,-5232.945708,-11886.747108,4199.065769,0.004000,-0.014000,1.006000,192.000000,0.000000,16.000000,127.500000,72.000000,15.500000,56.000000,0.000000,0.000000,0.000000,1769696341.129874,0.000000
216.000000,8131.095246,11555.449552,-2568.729528,-4547.171837,-326.357821,-11940.838330,-5174.004158,936.828665,13122.709170,8119.047656,-14815.205612,8206.018294,11127.726570,-5377.896771,-12052.552349,4080.936799,0.004000,-0.014000,1.006000,192.000000,0.000000,0.000000,0.000000,0.000000,0.000000,0.000000,0.000000,0.000000,0.000000,1769696341.129889,0.000000
218.000000,8262.903483,11689.716481,-2434.462599,-4412.077893,-203.512633,-11796.937799,-5045.481628,1066.178211,13248.817712,8257.024974,-14685.766659,8332.462112,11251.219958,-5227.514234,-11929.796568,4173.897704,0.004000,-0.014000,1.006000,192.000000,0.000000,0.000000,0.000000,0.000000,0.000000,0.000000,0.000000,0.000000,0.000000,1769696341.129914,0.000000
220.000000,8106.553031,11528.292182,-2592.198860,-4565.299102,-343.054574,-11940.011315,-5202.413225,904.418636,13196.447575,8194.261276,-14749.782056,8264.758678,11215.971257,-5306.102968,-11983.418403,4155.658681,0.004000,-0.014000,1.006000,192.000000,0.000000,0.000000,0.000000,0.000000,0.000000,0.000000,0.000000,0.000000,0.000000,1769696341.129930,0.000000
222.000000,8251.437038,11674.517295,-2448.566550,-4421.644440,-192.023837,-11776.351842,-5066.000529,1046.419268,13171.257159,8166.008671,-14777.073536,8246.117323,11168.719669,-5344.972652,-12008.564116,4106.037808,0.004000,-0.014000,1.006000,192.000000,0.000000,0.000000,0.000000,0.000000,0.000000,0.000000,0.000000,0.000000,0.000000,1769696341.129946,0.000000
224.000000,8192.428433,11612.155928,-2506.368161,-4480.049548,-244.461029,-11837.729733,-5121.499911,986.874221,13301.366663,8289.613818,-14647.299307,8365.520342,11327.819386,-5213.142063,-11868.999823,4227.184263,0.006000,-0.012000,1.008000,192.000000,0.000000,24.000000,127.500000,80.000000,15.500000,64.000000,0.000000,0.000000,0.000000,1769696341.129961,0.000000
226.000000,8136.057333,11558.310575,-2561.241694,-4531.391505,-301.994419,-11907.713045,-5179.413280,935.196988,13124.586716,8126.893118,-14825.956801,8203.872526,11134.074466,-5354.494495,-12043.410485,4084.513078,0.006000,-0.012000,1.008000,192.000000,0.000000,0.000000,0.000000,0.000000,0.000000,0.000000,0.000000,0.000000,0.000000,1769696341.129977,0.000000
228.000000,8270.659539,11697.383129,-2427.265337,-4396.185803,-155.456383,-11760.616214,-5044.073468,1072.883734,13257.601947,8267.150315,-14685.833715,8344.889682,11271.716508,-5199.216926,-11905.030835,4177.228114,0.006000,-0.012000,1.008000,192.000000,0.000000,0.000000,0.000000,0.000000,0.000000,0.000000,0.000000,0.000000,0.000000,1769696341.129993,0.000000
230.000000,8105.234278,11532.449607,-2588.577877,-4561.342843,-325.933138,-11927.516690,-5202.122653,909.850110,13199.845040,8206.822956,-14745.870500,8287.177478,11206.650580,-5275.861058,-11957.669193,4163.951178,0.006000,-0.012000,1.008000,192.000000,0.000000,0.000000,0.000000,0.000000,0.000000,0.000000,0.000000,0.000000,0.000000,1769696341.130010,0.000000
232.000000,8241.155236,11670.426925,-2450.175875,-4428.037039,-204.741979,-11802.838660,-5068.816849,1046.620434,13150.738257,8159.683127,-14791.132783,8250.677079,11137.896614,-5338.155370,-12004.361988,4091.375064,0.006000,-0.012000,1.008000,192.000000,0.000000,0.000000,0.000000,0.000000,0.000000,0.000000,0.000000,0.000000,0.000000,1769696341.130027,0.000000
234.000000,8169.897875,11592.955779,-2516.493501,-4498.020351,-270.009073,-11881.270931,-5128.428951,975.363073,13287.374471,8289.457356,-14656.731743,8368.515476,11306.339360,-5219.780531,-11868.932768,4216.321315,0.004000,-0.012000,1.004000,192.000000,0.000000,16.000000,127.500000,80.000000,15.500000,48.000000,0.000000,0.000000,0.000000,1769696341.130043,0.000000
236.000000,8111.984505,11535.757665,-2572.752842,-4560.851104,-335.343222,-11949.913138,-5181.737862,918.254366,13103.330207,8093.097281,-14843.793493,8185.767613,11125.849024,-5414.240708,-12052.328831,4061.781354,0.004000,-0.012000,1.004000,192.000000,0.000000,0.000000,0.000000,0.000000,0.000000,0.000000,0.000000,0.000000,0.000000,1769696341.130058,0.000000
238.000000,8253.046364,11678.808830,-2428.651146,-4424.796036,-195.242488,-11795.261418,-5042.106514,1063.004263,13236.434845,8226.805416,-14703.066910,8316.145339,11250.571758,-5275.771651,-11919.760635,4143.521684,0.004000,-0.012000,1.004000,192.000000,0.000000,0.000000,0.000000,0.000000,0.000000,0.000000,0.000000,0.000000,0.000000,1769696341.130073,0.000000
240.000000,8094.863068,11517.272772,-2592.645895,-4587.650846,-351.548237,-11950.337821,-5203.530813,900.730598,13187.506877,8176.491639,-14760.823817,8260.243626,11180.454335,-5323.827901,-11985.675929,4119.001820,0.004000,-0.012000,1.004000,192.000000,0.000000,0.000000,0.000000,0.000000,0.000000,0.000000,0.000000,0.000000,0.000000,1769696341.130088,0.000000
242.000000,8242.451637,11671.097478,-2442.173951,-4432.507388,-203.132654,-11801.050520,-5060.211427,1051.068431,13175.012252,8165.896912,-14777.833495,8252.331108,11187.316321,-5324.431398,-12006.843031,4073.963055,0.004000,-0.012000,1.004000,192.000000,0.000000,0.000000,0.000000,0.000000,0.000000,0.000000,0.000000,0.000000,0.000000,1769696341.130104,0.000000
244.000000,8166.276892,11594.252180,-2512.984277,-4496.992170,-259.034366,-11883.595512,-5130.284146,975.810108,13282.613550,8279.153201,-14667.125305,8354.545636,11295.655226,-5208.649362,-11895.039606,4182.458422,0.006000,-0.008000,1.004000,192.000000,0.000000,24.000000,127.500000,96.000000,15.500000,48.000000,0.000000,0.000000,0.000000,1769696341.130121,0.000000
246.000000,8128.927127,11557.818837,-2553.016252,-4533.179645,-288.449262,-11913.926830,-5172.774812,936.091058,13139.629440,8136.079685,-14817.083158,8211.740340,11186.556362,-5364.463373,-12035.945003,4069.425651,0.006000,-0.008000,1.004000,192.000000,0.000000,0.000000,0.000000,0.000000,0.000000,0.000000,0.000000,0.000000,0.000000,1769696341.130137,0.000000
248.000000,8269.184323,11697.450185,-2402.477253,-4389.435576,-136.323289,-11757.174046,-5029.746000,1076.415309,13263.234587,8259.036631,-14695.400261,8330.003420,11297.309255,-5233.996240,-11906.059016,4155.658681,0.006000,-0.008000,1.004000,192.000000,0.000000,0.000000,0.000000,0.000000,0.000000,0.000000,0.000000,0.000000,0.000000,1769696341.130153,0.000000
250.000000,8100.205135,11529.029790,-2574.406871,-4555.598444,-300.452149,-11934.959821,-5200.446272,908.576060,13225.303677,8217.372980,-14739.053218,8283.131812,11256.874950,-5275.458726,-11935.719780,4162.699480,0.006000,-0.008000,1.004000,192.000000,0.000000,0.000000,0.000000,0.000000,0.000000,0.000000,0.000000,0.000000,0.000000,1769696341.130174,0.000000
252.000000,8250.118285,11685.112022,-2433.501474,-4408.322800,-148.393231,-11777.402374,-5060.680814,1057.796306,13178.387365,8183.599494,-14785.611902,8257.293195,11208.528126,-5288.780366,-11982.054947,4098.237049,0.006000,-0.008000,1.004000,192.000000,0.000000,0.000000,0.000000,0.000000,0.000000,0.000000,0.000000,0.000000,0.000000,1769696341.130186,0.000000
254.000000,8168.310901,11602.656436,-2513.140740,-4487.246810,-222.913947,-11861.333175,-5133.212225,978.268800,13302.216029,8322.023847,-14654.250700,8384.631084,11352.160436,-5165.711661,-11848.190349,4219.338801,0.004000,-0.008000,1.004000,192.000000,0.000000,16.000000,127.500000,96.000000,15.500000,48.000000,0.000000,0.000000,0.000000,1769696341.130198,0.000000
0.000000,8133.039848,11565.463134,-2558.403022,-4533.961956,-270.545515,-11907.534231,-5175.211152,938.862674,13124.966696,8137.063162,-14828.594307,8208.029951,11168.965539,-5330.153445,-12026.333752,4066.676386,0.004000,-0.008000,1.004000,192.000000,0.000000,0.000000,0.000000,0.000000,0.000000,0.000000,0.000000,0.000000,0.000000,1769696341.130219,0.000000
2.000000,8279.108498,11709.274257,-2408.109892,-4388.653265,-129.081324,-11743.807703,-5025.745037,1085.691283,13263.905139,8279.399071,-14686.616026,8343.459170,11310.295619,-5235.113828,-11888.490544,4154.965777,0.004000,-0.008000,1.004000,192.000000,0.000000,0.000000,0.000000,0.000000,0.000000,0.000000,0.000000,0.000000,0.000000,1769696341.130238,0.000000
4.000000,8089.811574,11514.903488,-2591.327142,-4577.614913,-324.010888,-11969.605025,-5200.714493,897.646057,13215.133633,8220.591631,-14736.102788,8286.976312,11216.887679,-5272.038909,-11928.567222,4139.833646,0.004000,-0.008000,1.004000,192.000000,0.000000,0.000000,0.000000,0.000000,0.000000,0.000000,0.000000,0.000000,0.000000,1769696341.130256,0.000000
6.000000,8230.359343,11660.949786,-2458.088393,-4440.486960,-213.235642,-11846.469265,-5065.665253,1035.086934,13145.709115,8158.587892,-14802.129841,8233.823864,11158.191998,-5328.298250,-11997.768223,4042.469447,0.004000,-0.008000,1.004000,192.000000,0.000000,0.000000,0.000000,0.000000,0.000000,0.000000,0.000000,0.000000,0.000000,1769696341.130270,0.000000
8.000000,8164.712270,11595.101547,-2520.293298,-4502.267182,-279.396806,-11910.886992,-5121.164634,971.987959,13263.882788,8280.606065,-14680.603407,8349.561197,11272.878799,-5214.527871,-11891.083347,4147.701460,0.002000,-0.010000,1.004000,192.000000,0.000000,8.000000,127.500000,88.000000,15.500000,48.000000,0.000000,0.000000,0.000000,1769696341.130287,0.000000
10.000000,8120.768740,11550.666279,-2563.074537,-4547.037726,-325.977841,-11940.257185,-5166.739841,933.297090,13115.802481,8120.992258,-14831.723551,8203.716064,11124.440864,-5379.595504,-12049.691325,4022.039953,0.002000,-0.010000,1.004000,192.000000,0.000000,0.000000,0.000000,0.000000,0.000000,0.000000,0.000000,0.000000,0.000000,1769696341.130304,0.000000
12.000000,8255.549759,11682.675681,-2422.415009,-4407.160509,-201.188052,-11814.908602,-5036.451523,1071.207353,13257.892520,8262.501152,-14683.442078,8344.621461,11268.609615,-5250.223607,-11911.557545,4116.118445,0.002000,-0.010000,1.004000,192.000000,0.000000,0.000000,0.000000,0.000000,0.000000,0.000000,0.000000,0.000000,0.000000,1769696341.130318,0.000000
14.000000,8090.102147,11515.708150,-2591.282438,-4575.603256,-363.081737,-11986.122964,-5204.916621,904.440988,13190.949046,8186.393462,-14754.699439,8266.926797,11207.924629,-5307.600535,-11987.017034,4089.162241,0.002000,-0.010000,1.004000,192.000000,0.000000,0.000000,0.000000,0.000000,0.000000,0.000000,0.000000,0.000000,0.000000,1769696341.130335,0.000000
16.000000,8230.046419,11660.480399,-2457.909579,-4438.028269,-218.778875,-11851.788980,-5076.058814,1047.067469,13155.186254,8160.219569,-14785.634254,8245.357364,11156.917948,-5358.227236,-12017.840090,4037.283842,0.002000,-0.010000,1.004000,192.000000,0.000000,0.000000,0.000000,0.000000,0.000000,0.000000,0.000000,0.000000,0.000000,1769696341.130352,0.000000
18.000000,8198.016369,11624.851719,-2492.554783,-4481.234191,-245.042174,-11878.365204,-5110.100521,1009.985925,13288.693224,8292.676007,-14654.340107,8370.996519,11292.280113,-5203.061426,-11883.439050,4160.486658,0.010000,-0.008000,1.006000,192.000000,0.000000,40.000000,127.500000,96.000000,15.500000,56.000000,0.000000,0.000000,0.000000,1769696341.130365,0.000000
20.000000,8133.799807,11559.897549,-2557.508952,-4543.617909,-316.143074,-11957.870359,-5172.148963,944.182389,13152.638156,8143.120485,-14805.169678,8227.788893,11177.816829,-5366.922065,-12028.725389,4042.134171,0.010000,-0.008000,1.006000,192.000000,0.000000,0.000000,0.000000,0.000000,0.000000,0.000000,0.000000,0.000000,0.000000,1769696341.130382,0.000000
22.000000,8283.936475,11714.392807,-2393.827128,-4387.423919,-151.321310,-11792.981540,-5011.126996,1099.348199,13279.618416,8274.191114,-14670.701584,8355.238540,11282.870028,-5220.764008,-11900.761652,4125.506178,0.010000,-0.008000,1.006000,192.000000,0.000000,0.000000,0.000000,0.000000,0.000000,0.000000,0.000000,0.000000,0.000000,1769696341.130399,0.000000
24.000000,8068.599769,11497.893810,-2605.967534,-4601.531279,-367.082699,-11999.936342,-5220.764008,885.665522,13201.454365,8192.808413,-14750.586718,8269.676062,11210.651542,-5293.697750,-11970.633205,4081.875572,0.010000,-0.008000,1.006000,192.000000,0.000000,0.000000,0.000000,0.000000,0.000000,0.000000,0.000000,0.000000,0.000000,1769696341.130412,0.000000
26.000000,8252.264053,11682.139240,-2429.098180,-4426.539472,-192.716741,-11836.790959,-5048.789686,1066.558190,13169.424316,8166.455706,-14780.403945,8245.513826,11187.182210,-5350.895864,-12007.379473,4018.709543,0.010000,-0.008000,1.006000,192.000000,0.000000,0.000000,0.000000,0.000000,0.000000,0.000000,0.000000,0.000000,0.000000,1769696341.130432,0.000000
28.000000,8173.809430,11600.398910,-2498.433292,-4501.976609,-269.830259,-11916.810205,-5113.855614,995.189070,13307.580448,8297.459280,-14638.358609,8376.919732,11327.461759,-5217.679467,-11871.234998,4137.062029,0.009000,-0.008000,1.009000,192.000000,0.000000,32.000000,127.500000,96.000000,15.500000,80.000000,0.000000,0.000000,0.000000,1769696341.130450,0.000000
30.000000,8112.297429,11541.569119,-2560.951121,-4568.137773,-331.521074,-11974.410650,-5177.111051,937.007479,13116.048350,8106.396569,-14824.079254,8200.765634,11156.180341,-5421.750894,-12059.526093,3973.670778,0.009000,-0.008000,1.009000,192.000000,0.000000,0.000000,0.000000,0.000000,0.000000,0.000000,0.000000,0.000000,0.000000,1769696341.130509,0.000000
32.000000,8272.425326,11703.216935,-2403.371323,-4409.753312,-168.845078,-11844.547015,-5023.398104,1091.390978,13262.362869,8259.394259,-14675.127229,8349.114162,11255.422086,-5255.968005,-11919.179490,4067.078718,0.009000,-0.008000,1.009000,192.000000,0.000000,0.000000,0.000000,0.000000,0.000000,0.000000,0.000000,0.000000,0.000000,1769696341.130524,0.000000
34.000000,8116.231336,11548.185235,-2558.246560,-4562.773354,-330.604652,-12005.792499,-5175.412318,935.241691,13219.156947,8214.131977,-14724.524584,8295.425271,11221.290972,-5314.283706,-11961.670156,4060.552008,0.009000,-0.008000,1.009000,192.000000,0.000000,0.000000,0.000000,0.000000,0.000000,0.000000,0.000000,0.000000,0.000000,1769696341.130540,0.000000
36.000000,8252.129942,11690.141164,-2435.334317,-4435.033135,-207.446540,-11839.115541,-5052.120096,1069.374510,13181.561313,8186.795793,-14762.075515,8269.497248,11204.929495,-5334.422628,-12004.294932,4008.628906,0.009000,-0.008000,1.009000,192.000000,0.000000,0.000000,0.000000,0.000000,0.000000,0.000000,0.000000,0.000000,0.000000,1769696341.130556,0.000000
38.000000,8189.679168,11627.511576,-2489.783167,-4494.265258,-253.804058,-11867.345794,-5104.914916,1009.963573,13307.893373,8321.800330,-14634.268240,8395.203459,11335.106055,-5189.426862,-11874.721870,4128.300146,0.008500,-0.008000,1.004500,192.000000,0.000000,32.000000,127.500000,96.000000,15.500000,32.000000,0.000000,0.000000,0.000000,1769696341.130574,0.000000
40.000000,8144.305127,11581.578741,-2542.153304,-4535.347764,-295.333599,-11974.477705,-5156.882722,964.276608,13133.326248,8139.298336,-14812.948085,8228.392390,11161.365946,-5368.844315,-12049.266642,4002.660990,0.008500,-0.008000,1.004500,192.000000,0.000000,0.000000,0.000000,0.000000,0.000000,0.000000,0.000000,0.000000,0.000000,1769696341.130590,0.000000
42.000000,8291.983103,11730.150787,-2389.200317,-4384.518192,-158.764441,-11776.016566,-5003.102720,1117.766037,13278.545532,8288.026844,-14660.688002,8378.350243,11288.435613,-5248.547226,-11897.610056,4107.893003,0.008500,-0.008000,1.004500,192.000000,0.000000,0.000000,0.000000,0.000000,0.000000,0.000000,0.000000,0.000000,0.000000,1769696341.130607,0.000000
44.000000,8091.197382,11523.866537,-2586.297999,-4577.838430,-370.882496,-12033.285145,-5197.093510,916.846206,13233.573822,8230.560509,-14705.547953,8325.555423,11232.153920,-5295.687055,-11945.331031,4108.340038,0.008500,-0.008000,1.004500,192.000000,0.000000,0.000000,0.000000,0.000000,0.000000,0.000000,0.000000,0.000000,0.000000,1769696341.130624,0.000000
46.000000,8222.849157,11656.948824,-2455.495591,-4450.478190,-260.576637,-11908.450652,-5074.695358,1051.716632,13144.457417,8132.592813,-14799.514687,8240.529387,11171.133658,-5403.936553,-12043.298726,3984.869001,0.008500,-0.008000,1.004500,192.000000,0.000000,0.000000,0.000000,0.000000,0.000000,0.000000,0.000000,0.000000,0.000000,1769696341.130641,0.000000
48.000000,8188.069843,11619.397893,-2478.875515,-4479.200182,-265.136393,-11930.958859,-5097.717654,1023.016992,13309.569753,8298.129833,-14633.374170,8396.879840,11326.992372,-5199.485147,-11881.762669,4124.723867,0.007250,-0.011000,1.003250,192.000000,0.000000,24.000000,127.500000,72.000000,15.500000,40.000000,0.000000,0.000000,0.000000,1769696341.130657,0.000000
50.000000,8139.611261,11566.692479,-2533.860807,-4545.406049,-313.550271,-12002.707959,-5159.229655,962.443765,13156.125028,8135.297374,-14789.165829,8239.680021,11170.083126,-5388.737367,-12029.641811,3992.379188,0.007250,-0.011000,1.003250,192.000000,0.000000,0.000000,0.000000,0.000000,0.000000,0.000000,0.000000,0.000000,0.000000,1769696341.130673,0.000000
52.000000,8276.247475,11705.094481,-2404.310096,-4416.794111,-171.728453,-11862.808390,-5030.841235,1094.162595,13271.392974,8257.494361,-14669.271072,8351.349336,11276.544485,-5283.035968,-11917.950144,4047.923273,0.007250,-0.011000,1.003250,192.000000,0.000000,0.000000,0.000000,0.000000,0.000000,0.000000,0.000000,0.000000,0.000000,1769696341.130690,0.000000
54.000000,8116.678371,11546.777075,-2564.907380,-4584.365140,-323.094466,-12004.026711,-5190.924429,932.626537,13225.437787,8207.337047,-14717.528488,8297.235763,11246.503740,-5309.835709,-11964.888807,4035.696868,0.007250,-0.011000,1.003250,192.000000,0.000000,0.000000,0.000000,0.000000,0.000000,0.000000,0.000000,0.000000,0.000000,1769696341.130707,0.000000
56.000000,8262.679966,11697.517240,-2420.358648,-4432.976774,-212.721552,-11870.676204,-5051.829523,1082.338522,13181.583665,8167.975625,-14758.789809,8268.960806,11210.293914,-5368.777259,-12008.005322,3972.083804,0.007250,-0.011000,1.003250,192.000000,0.000000,0.000000,0.000000,0.000000,0.000000,0.000000,0.000000,0.000000,0.000000,1769696341.130724,0.000000
58.000000,8213.997866,11647.426980,-2476.685044,-4475.780365,-259.682567,-11910.417606,-5097.203564,1035.310451,13330.938021,8330.137531,-14606.708539,8421.287944,11327.685276,-5196.199441,-11861.288471,4129.507140,0.007625,-0.010500,1.007625,192.000000,0.000000,32.000000,127.500000,88.000000,15.500000,80.000000,0.000000,0.000000,0.000000,1769696341.610216,0.000000
60.000000,8164.779325,11599.169564,-2535.336022,-4532.822017,-317.014792,-11962.027784,-5152.390021,988.640009,13149.128932,8146.339136,-14790.462230,8248.508960,11142.054038,-5369.179591,-12051.121837,3995.933115,0.007625,-0.010500,1.007625,192.000000,0.000000,0.000000,0.000000,0.000000,0.000000,0.000000,0.000000,0.000000,0.000000,1769696341.610296,0.000000
62.000000,8300.700283,11734.330563,-2399.571526,-4388.921486,-179.395101,-11809.030093,-5016.334953,1126.416162,13290.682529,8295.604085,-14638.313906,8399.919677,11272.856447,-5229.861168,-11907.891859,4106.618954,0.007625,-0.010500,1.007625,192.000000,0.000000,0.000000,0.000000,0.000000,0.000000,0.000000,0.000000,0.000000,0.000000,1769696341.610359,0.000000
64.000000,8114.778473,11547.492331,-2577.156136,-4566.260227,-362.791164,-12001.836241,-5189.382158,942.617767,13223.940220,8222.536233,-14706.129099,8326.784769,11235.976068,-5308.159328,-11966.006394,4086.792956,0.007625,-0.010500,1.007625,192.000000,0.000000,0.000000,0.000000,0.000000,0.000000,0.000000,0.000000,0.000000,0.000000,1769696341.610415,0.000000
66.000000,8242.518692,11676.193676,-2453.103954,-4432.842664,-247.076183,-11876.577065,-5061.329014,1071.453222,13160.528321,8155.749220,-14768.803390,8267.329129,11157.789666,-5362.809344,-12029.194776,4009.522976,0.007625,-0.010500,1.007625,192.000000,0.000000,0.000000,0.000000,0.000000,0.000000,0.000000,0.000000,0.000000,0.000000,1769696341.610469,0.000000
68.000000,8190.103852,11622.080102,-2500.891984,-4480.921266,-291.489099,-11921.973458,-5104.244364,1015.216233,13307.468689,8307.137586,-14620.253696,8403.205383,11321.940878,-5218.148854,-11880.533323,4155.233998,0.008813,-0.010250,1.007812,192.000000,0.000000,40.000000,127.500000,88.000000,15.500000,64.000000,0.000000,0.000000,0.000000,1769696341.610524,0.000000
70.000000,8135.967926,11565.351375,-2556.391365,-4550.770468,-357.404394,-12001.568020,-5166.404565,955.648834,13129.280583,8119.718208,-14805.773175,8219.094064,11105.821861,-5393.945324,-12059.257872,4001.655162,0.008813,-0.010250,1.007812,192.000000,0.000000,0.000000,0.000000,0.000000,0.000000,0.000000,0.000000,0.000000,0.000000,1769696341.610553,0.000000
72.000000,8296.408748,11728.720275,-2396.665799,-4400.611448,-196.471834,-11849.196178,-5014.971496,1116.246118,13261.200578,8253.001660,-14671.618005,8351.371688,11262.731107,-5263.075860,-11934.892766,4067.346939,0.008813,-0.010250,1.007812,192.000000,0.000000,0.000000,0.000000,0.000000,0.000000,0.000000,0.000000,0.000000,0.000000,1769696341.610575,0.000000
74.000000,8119.829967,11550.688630,-2570.696482,-4578.933666,-357.046766,-12024.947944,-5188.689254,939.622633,13242.067485,8228.280631,-14692.360424,8328.081170,11242.212205,-5305.030084,-11954.741115,4066.072889,0.008813,-0.010250,1.007812,192.000000,0.000000,0.000000,0.000000,0.000000,0.000000,0.000000,0.000000,0.000000,0.000000,1769696341.610593,0.000000
76.000000,8239.098875,11671.522161,-2447.292500,-4457.943673,-228.256014,-11884.422527,-5071.163782,1056.186981,13152.571100,8135.543243,-14781.163905,8251.392335,11170.574864,-5393.699455,-12038.716619,3957.309301,0.008813,-0.010250,1.007812,192.000000,0.000000,0.000000,0.000000,0.000000,0.000000,0.000000,0.000000,0.000000,0.000000,1769696341.610611,0.000000
78.000000,8198.463404,11628.785626,-2485.245762,-4492.365359,-259.079070,-11929.953030,-5106.568945,1012.109341,13304.674721,8296.989894,-14630.870775,8388.497935,11302.070177,-5228.564766,-11875.973567,4099.488747,0.011406,-0.010125,1.009906,192.000000,0.000000,56.000000,127.500000,88.000000,15.500000,80.000000,0.000000,0.000000,0.000000,1769696341.610629,0.000000
80.000000,8148.663717,11580.505858,-2541.862731,-4540.645127,-325.016716,-11988.581656,-5160.570760,962.086137,13142.266946,8123.160377,-14800.945199,8223.609117,11157.432038,-5384.624646,-12043.678706,3982.030330,0.011406,-0.010125,1.009906,192.000000,0.000000,0.000000,0.000000,0.000000,0.000000,0.000000,0.000000,0.000000,0.000000,1769696341.610693,0.000000
82.000000,8297.973370,11733.950583,-2398.498642,-4398.242163,-184.446595,-11809.588886,-5018.972459,1106.567813,13285.184000,8280.851934,-14654.474217,8372.248217,11284.054671,-5265.936883,-11906.863678,4097.521794,0.011406,-0.010125,1.009906,192.000000,0.000000,0.000000,0.000000,0.000000,0.000000,0.000000,0.000000,0.000000,0.000000,1769696341.610714,0.000000
84.000000,8115.873708,11547.961718,-2585.470985,-4581.615875,-352.822286,-11999.332845,-5202.882612,920.646002,13230.399874,8225.061980,-14717.483785,8312.502004,11227.281240,-5301.297343,-11964.151199,4102.841509,0.011406,-0.010125,1.009906,192.000000,0.000000,0.000000,0.000000,0.000000,0.000000,0.000000,0.000000,0.000000,0.000000,1769696341.610732,0.000000
86.000000,8235.008506,11668.817600,-2469.711300,-4452.311033,-236.101477,-11869.536265,-5089.648675,1037.143294,13151.878196,8148.708421,-14800.386405,8245.670288,11159.555454,-5384.825812,-12043.991631,4010.349990,0.011406,-0.010125,1.009906,192.000000,0.000000,0.000000,0.000000,0.000000,0.000000,0.000000,0.000000,0.000000,0.000000,1769696341.610750,0.000000
88.000000,8193.590724,11626.863376,-2500.735521,-4483.044682,-260.464878,-11897.006559,-5111.508681,1002.721608,13301.411367,8308.545745,-14643.432455,8397.371578,11321.404436,-5223.312107,-11875.504181,4157.826800,0.008703,-0.010062,1.007953,192.000000,0.000000,24.000000,127.500000,88.000000,15.500000,56.000000,0.000000,0.000000,0.000000,1769696341.610768,0.000000
90.000000,8138.180749,11573.599168,-2556.279606,-4534.923081,-317.417123,-11956.439848,-5162.269492,949.367994,13114.394321,8122.936859,-14828.571955,8221.508053,11123.055056,-5369.447812,-12052.194721,4013.970973,0.008703,-0.010062,1.007953,192.000000,0.000000,0.000000,0.000000,0.000000,0.000000,0.000000,0.000000,0.000000,0.000000,1769696341.610797,0.000000
92.000000,8284.696434,11719.958391,-2410.389770,-4385.971056,-188.112281,-11817.546107,-5014.524462,1098.521185,13260.999413,8278.035614,-14676.401279,8369.297787,11267.246159,-5250.178903,-11913.613905,4115.425541,0.008703,-0.010062,1.007953,192.000000,0.000000,0.000000,0.000000,0.000000,0.000000,0.000000,0.000000,0.000000,0.000000,1769696341.610815,0.000000
94.000000,8110.643400,11543.670183,-2584.219287,-4563.622721,-369.608446,-12003.534973,-5182.989560,929.519645,13215.357150,8228.325335,-14720.300105,8321.643868,11206.941152,-5317.189433,-11965.224083,4101.098073,0.008703,-0.010062,1.007953,192.000000,0.000000,0.000000,0.000000,0.000000,0.000000,0.000000,0.000000,0.000000,0.000000,1769696341.610834,0.000000
96.000000,8240.395277,11673.645577,-2457.417841,-4441.693955,-256.754489,-11882.097945,-5060.837276,1059.740908,13134.108559,8144.506293,-14795.759594,8249.760658,11127.413646,-5385.965751,-12051.054782,3985.114871,0.008703,-0.010062,1.007953,192.000000,0.000000,0.000000,0.000000,0.000000,0.000000,0.000000,0.000000,0.000000,0.000000,1769696341.610851,0.000000
98.000000,8208.722855,11639.134483,-2480.596600,-4475.243923,-273.205372,-11913.345684,-5087.681721,1029.007259,13300.025558,8302.577830,-14627.607420,8401.864279,11301.824308,-5223.736790,-11886.344777,4125.237957,0.008703,-0.010062,1.007953,192.000000,0.000000,0.000000,0.000000,0.000000,0.000000,0.000000,0.000000,0.000000,0.000000,1769696341.610869,0.000000
100.000000,8137.286679,11566.424259,-2551.339871,-4551.105744,-331.297556,-11991.152107,-5164.437612,956.721718,13124.765530,8119.204118,-14808.343626,8228.660611,11115.947201,-5407.557536,-12061.738916,3975.682435,0.008000,-0.006000,1.014000,192.000000,0.000000,32.000000,127.500000,104.000000,15.500000,88.000000,0.000000,0.000000,0.000000,1769696341.610888,0.000000
102.000000,8311.160900,11741.527825,-2380.125508,-4383.333550,-161.491354,-11801.855183,-5001.180470,1128.226653,13272.622320,8270.570132,-14658.095200,8378.082022,11295.901095,-5253.330499,-11909.188260,4073.292503,0.008000,-0.006000,1.014000,192.000000,0.000000,0.000000,0.000000,0.000000,0.000000,0.000000,0.000000,0.000000,0.000000,1769696341.610906,0.000000
104.000000,8126.714304,11554.264910,-2568.215438,-4568.897732,-337.645452,-11995.018958,-5187.482260,940.181427,13235.160796,8232.348649,-14700.004721,8330.517510,11242.905109,-5287.863945,-11949.421400,4082.926104,0.008000,-0.006000,1.014000,192.000000,0.000000,0.000000,0.000000,0.000000,0.000000,0.000000,0.000000,0.000000,0.000000,1769696341.610924,0.000000
106.000000,8252.085239,11682.385109,-2453.729803,-4446.298414,-200.338686,-11837.193291,-5075.634131,1056.701071,13157.712002,8156.263310,-14780.873332,8258.477838,11156.180341,-5378.790841,-12019.382360,4009.187699,0.008000,-0.006000,1.014000,192.000000,0.000000,0.000000,0.000000,0.000000,0.000000,0.000000,0.000000,0.000000,0.000000,1769696341.610942,0.000000
108.000000,8218.892898,11642.934280,-2483.703492,-4481.435356,-217.147197,-11838.959079,-5104.534936,1019.731286,13321.393826,8318.358161,-14624.478176,8400.701988,11347.019535,-5188.108109,-11853.599471,4175.104699,0.008000,-0.006000,1.014000,192.000000,0.000000,0.000000,0.000000,0.000000,0.000000,0.000000,0.000000,0.000000,0.000000,1769696341.610960,0.000000
110.000000,8128.725961,11554.108447,-2577.513764,-4556.157238,-322.133341,-11956.037516,-5196.691179,929.430238,13130.152301,8124.859110,-14823.721626,8211.338009,11116.684808,-5386.345731,-12035.542671,4037.619118,0.008000,-0.010000,1.014000,192.000000,0.000000,32.000000,127.500000,88.000000,15.500000,88.000000,0.000000,0.000000,0.000000,1769696341.610978,0.000000
112.000000,8300.342655,11728.139130,-2407.595802,-4385.814594,-153.087098,-11775.368366,-5022.235813,1106.590164,13256.372602,8258.231969,-14689.633511,8351.394040,11272.252950,-5277.760956,-11906.818975,4121.885195,0.008000,-0.010000,1.014000,192.000000,0.000000,0.000000,0.000000,0.000000,0.000000,0.000000,0.000000,0.000000,0.000000,1769696341.610996,0.000000
114.000000,8112.923278,11537.992840,-2593.361150,-4577.614913,-351.972920,-11973.293063,-5201.183880,920.914223,13229.461101,8229.621736,-14714.466299,8324.594298,11223.503795,-5292.982494,-11938.022010,4120.477035,0.008000,-0.010000,1.014000,192.000000,0.000000,0.000000,0.000000,0.000000,0.000000,0.000000,0.000000,0.000000,0.000000,1769696341.611015,0.000000
116.000000,8246.653765,11676.372489,-2460.636492,-4436.508350,-235.341517,-11858.762724,-5066.335805,1058.757431,13133.549766,8141.913491,-14804.342664,8242.116361,11151.419419,-5361.758812,-12040.437703,4001.386941,0.008000,-0.010000,1.014000,192.000000,0.000000,0.000000,0.000000,0.000000,0.000000,0.000000,0.000000,0.000000,0.000000,1769696341.611032,0.000000
118.000000,8190.573238,11619.420245,-2514.727713,-4487.358569,-277.094576,-11914.038588,-5112.670971,999.570012,13283.328805,8292.050158,-14649.556833,8387.603866,11279.383156,-5253.084630,-11890.837478,4134.670393,0.008000,-0.010000,1.014000,192.000000,0.000000,0.000000,0.000000,0.000000,0.000000,0.000000,0.000000,0.000000,0.000000,1769696341.611051,0.000000
120.000000,8136.303203,11568.324157,-2564.415641,-4542.656784,-343.434554,-11980.512676,-5168.751498,944.629424,13103.330207,8118.332400,-14830.449501,8211.807395,11097.216439,-5415.157129,-12066.924520,3993.206202,0.006000,-0.004000,1.004000,192.000000,0.000000,24.000000,127.500000,112.000000,15.500000,48.000000,0.000000,0.000000,0.000000,1769696341.611068,0.000000
122.000000,8303.024865,11735.738723,-2405.450035,-4386.418091,-183.194898,-11809.655942,-5014.949145,1105.114949,13250.002354,8271.598312,-14682.570360,8359.083040,11241.519301,-5266.853305,-11931.249432,4077.740500,0.006000,-0.004000,1.004000,192.000000,0.000000,0.000000,0.000000,0.000000,0.000000,0.000000,0.000000,0.000000,0.000000,1769696341.611099,0.000000
124.000000,8125.797883,11554.644889,-2578.832517,-4571.356424,-356.152696,-11965.000566,-5193.852507,925.608090,13216.966476,8232.482759,-14721.283581,8320.191004,11232.131568,-5255.923302,-11963.972385,4074.052462,0.006000,-0.004000,1.004000,192.000000,0.000000,0.000000,0.000000,0.000000,0.000000,0.000000,0.000000,0.000000,0.000000,1769696341.611124,0.000000
126.000000,8241.758733,11673.690280,-2474.293408,-4468.739565,-248.014956,-11874.051317,-5095.035445,1037.523274,13141.685801,8153.044659,-14801.794565,8246.653765,11158.862550,-5395.711112,-12043.857520,3979.750452,0.006000,-0.004000,1.004000,192.000000,0.000000,0.000000,0.000000,0.000000,0.000000,0.000000,0.000000,0.000000,0.000000,1769696341.611142,0.000000
128.000000,8235.276727,11666.358908,-2478.562591,-4477.546153,-237.152009,-11865.870579,-5098.209393,1031.644765,13303.400672,8319.475748,-14633.865909,8398.779738,11286.401604,-5215.243127,-11877.135858,4136.369125,0.006000,-0.004000,1.004000,192.000000,0.000000,0.000000,0.000000,0.000000,0.000000,0.000000,0.000000,0.000000,0.000000,1769696341.611160,0.000000
130.000000,8165.271063,11594.833326,-2545.774286,-4541.941529,-298.082864,-11925.259164,-5170.249065,956.364090,13139.495330,8143.969851,-14805.572010,8232.169835,11137.963669,-5371.995911,-12036.414389,4013.859214,0.004000,-0.004000,1.004000,192.000000,0.000000,16.000000,127.500000,112.000000,15.500000,48.000000,0.000000,0.000000,0.000000,1769696341.611178,0.000000
132.000000,8321.062722,11749.708563,-2387.523936,-4378.617332,-138.558464,-11753.262490,-5013.742151,1111.731066,13294.862306,8299.046254,-14649.534482,8383.334682,11316.084721,-5233.549205,-11868.888064,4147.097963,0.004000,-0.004000,1.004000,192.000000,0.000000,0.000000,0.000000,0.000000,0.000000,0.000000,0.000000,0.000000,0.000000,1769696341.611196,0.000000
134.000000,8119.539394,11545.637136,-2589.784871,-4579.805384,-328.481237,-11949.264938,-5205.900098,912.241746,13223.806110,8220.658686,-14721.909430,8311.116196,11234.344391,-5314.015486,-11931.137673,4137.687878,0.004000,-0.004000,1.004000,192.000000,0.000000,0.000000,0.000000,0.000000,0.000000,0.000000,0.000000,0.000000,0.000000,1769696341.611214,0.000000
136.000000,8245.312660,11674.986681,-2469.018396,-4447.103077,-210.039343,-11836.500387,-5081.065605,1040.943091,13126.263097,8127.161339,-14821.799376,8225.509015,11134.722666,-5393.610048,-12031.876985,4028.611365,0.004000,-0.004000,1.004000,192.000000,0.000000,0.000000,0.000000,0.000000,0.000000,0.000000,0.000000,0.000000,0.000000,1769696341.611233,0.000000
138.000000,8231.767503,11659.653385,-2480.417786,-4462.168153,-236.459105,-11841.663640,-5085.334788,1030.214254,13322.109082,8331.500987,-14617.862060,8419.008067,11312.597848,-5178.854487,-11838.087361,4202.105606,0.004000,-0.004000,1.004000,192.000000,0.000000,0.000000,0.000000,0.000000,0.000000,0.000000,0.000000,0.000000,0.000000,1769696341.611250,0.000000
140.000000,8129.776493,11556.298918,-2582.453499,-4565.969654,-339.232426,-11948.370868,-5185.939990,928.335002,13115.310742,8117.371275,-14830.382446,8215.674247,11112.147404,-5420.543900,-12053.088791,4014.328601,0.004000,-0.012000,1.004000,192.000000,0.000000,16.000000,127.500000,80.000000,15.500000,48.000000,0.000000,0.000000,0.000000,1769696341.611268,0.000000
142.000000,8317.709961,11744.299441,-2394.721197,-4382.841812,-167.302807,-11787.550066,-5005.360246,1115.732028,13256.193788,8258.656652,-14685.207866,8356.780810,11252.717525,-5247.921377,-11927.717856,4087.977599,0.004000,-0.012000,1.004000,192.000000,0.000000,0.000000,0.000000,0.000000,0.000000,0.000000,0.000000,0.000000,0.000000,1769696341.611286,0.000000
144.000000,8121.104016,11544.877177,-2595.126938,-4590.511869,-364.445193,-12004.607857,-5205.162490,916.019191,13218.888726,8213.416721,-14724.055198,8314.692475,11206.561173,-5324.364343,-11967.392202,4077.740500,0.004000,-0.012000,1.004000,192.000000,0.000000,0.000000,0.000000,0.000000,0.000000,0.000000,0.000000,0.000000,0.000000,1769696341.611304,0.000000
146.000000,8274.951074,11700.490022,-2453.282768,-4458.301301,-226.445523,-11857.175750,-5071.208486,1061.886676,13146.178501,8147.367316,-14798.307693,8241.714030,11168.451448,-5378.477917,-12044.237500,3977.850554,0.004000,-0.012000,1.004000,192.000000,0.000000,0.000000,0.000000,0.000000,0.000000,0.000000,0.000000,0.000000,0.000000,1769696341.611322,0.000000
148.000000,8262.791725,11686.341368,-2467.789050,-4471.041795,-234.447448,-11875.101849,-5084.686587,1046.911007,13352.373344,8352.399868,-14595.756185,8434.140198,11333.027343,-5173.892400,-11847.966832,4150.651890,0.004000,-0.012000,1.004000,192.000000,0.000000,0.000000,0.000000,0.000000,0.000000,0.000000,0.000000,0.000000,0.000000,1769696341.611340,0.000000
150.000000,8156.620938,11582.450459,-2573.289284,-4571.825811,-337.466638,-11968.845066,-5188.130461,945.188218,13138.176577,8136.459665,-14811.383463,8225.509015,11138.500111,-5419.292202,-12061.470695,3977.895257,0.002000,-0.008000,0.998000,192.000000,0.000000,8.000000,127.500000,96.000000,15.500000,24.000000,0.000000,0.000000,0.000000,1769696341.611358,0.000000
152.000000,8337.245385,11764.326604,-2390.496718,-4388.519155,-169.917961,-11790.522848,-5006.857813,1127.421990,13276.556227,8278.147373,-14669.069906,8367.353185,11248.962432,-5271.301302,-11920.744112,4081.182668,0.002000,-0.008000,0.998000,192.000000,0.000000,0.000000,0.000000,0.000000,0.000000,0.000000,0.000000,0.000000,0.000000,1769696341.611375,0.000000
154.000000,8141.488807,11565.731354,-2580.397139,-4575.580904,-366.814478,-11973.315415,-5191.706740,933.989994,13238.670020,8235.969631,-14709.034825,8324.795464,11247.710734,-5295.083558,-11951.813036,4094.616067,0.002000,-0.008000,0.998000,192.000000,0.000000,0.000000,0.000000,0.000000,0.000000,0.000000,0.000000,0.000000,0.000000,1769696341.611393,0.000000
156.000000,8259.975405,11688.330673,-2456.054384,-4443.593853,-255.033404,-11824.899831,-5068.325110,1055.114097,13165.758630,8163.997014,-14779.576931,8261.540027,11164.115210,-5375.013396,-12016.029598,4034.959261,0.002000,-0.008000,0.998000,192.000000,0.000000,0.000000,0.000000,0.000000,0.000000,0.000000,0.000000,0.000000,0.000000,1769696341.611411,0.000000
158.000000,8212.634410,11641.481416,-2497.650981,-4475.512144,-287.175213,-11886.858867,-5103.976143,1010.120035,13290.995454,8295.581734,-14647.075790,8386.039243,11278.354976,-5233.817426,-11880.488620,4174.970588,0.002000,-0.008000,0.998000,192.000000,0.000000,0.000000,0.000000,0.000000,0.000000,0.000000,0.000000,0.000000,0.000000,1769696341.611429,0.000000
160.000000,8120.299354,11553.057915,-2594.031703,-4560.985215,-367.820307,-11970.655557,-5199.440443,914.588680,13104.157222,8117.728903,-14837.669115,8210.153366,11086.778174,-5412.318458,-12060.040183,4041.418915,0.005000,-0.008000,1.001000,192.000000,0.000000,32.000000,127.500000,96.000000,15.500000,48.000000,0.000000,0.000000,0.000000,1769696341.611447,0.000000
162.000000,8312.390245,11743.628889,-2408.802796,-4383.937047,-176.779947,-11783.571456,-5015.887918,1103.617382,13233.730284,8255.862684,-14705.659712,8345.336717,11213.289048,-5278.833840,-11926.466158,4114.710285,0.005000,-0.008000,1.001000,192.000000,0.000000,0.000000,0.000000,0.000000,0.000000,0.000000,0.000000,0.000000,0.000000,1769696341.611465,0.000000
164.000000,8133.911566,11559.294052,-2587.773214,-4573.770413,-352.419955,-11962.027784,-5190.276228,926.435104,13222.822633,8226.492492,-14722.267058,8317.441740,11247.509569,-5297.274029,-11948.996717,4111.446930,0.005000,-0.008000,1.001000,192.000000,0.000000,0.000000,0.000000,0.000000,0.000000,0.000000,0.000000,0.000000,0.000000,1769696341.611483,0.000000
166.000000,8261.092992,11686.207257,-2459.161277,-4456.267292,-237.867264,-11851.923090,-5069.934436,1049.436754,13140.299993,8137.979583,-14806.488431,8235.053210,11137.695448,-5392.805385,-12046.047991,3987.260638,0.005000,-0.008000,1.001000,192.000000,0.000000,0.000000,0.000000,0.000000,0.000000,0.000000,0.000000,0.000000,0.000000,1769696341.611501,0.000000
168.000000,8250.051230,11674.785516,-2465.017434,-4459.977682,-238.940148,-11873.917207,-5072.437831,1041.099553,13326.534727,8327.343563,-14616.409196,8410.357941,11308.395721,-5210.146929,-11861.154361,4148.819047,0.005000,-0.008000,1.001000,192.000000,0.000000,0.000000,0.000000,0.000000,0.000000,0.000000,0.000000,0.000000,0.000000,1769696341.611519,0.000000
170.000000,8150.720078,11578.516552,-2568.461307,-4566.684910,-348.486048,-11971.840199,-5177.200458,939.935558,13146.804350,8148.730773,-14796.921885,8239.344745,11131.794588,-5371.459469,-12037.733142,4008.763016,0.005500,-0.009000,1.002500,192.000000,0.000000,24.000000,127.500000,88.000000,15.500000,48.000000,0.000000,0.000000,0.000000,1769696341.611537,0.000000
172.000000,8329.332868,11758.761020,-2393.648314,-4388.094471,-172.153136,-11800.536430,-5005.606116,1118.682458,13245.643764,8248.441905,-14696.182572,8334.764342,11252.650470,-5310.998000,-11939.296060,4060.082622,0.005500,-0.009000,1.002500,192.000000,0.000000,0.000000,0.000000,0.000000,0.000000,0.000000,0.000000,0.000000,0.000000,1769696341.611556,0.000000
174.000000,8127.966002,11556.030697,-2586.856793,-4584.253381,-361.941798,-11995.465993,-5198.076987,919.126084,13243.296831,8239.747076,-14700.049424,8328.863481,11241.765170,-5300.246811,-11935.697429,4099.600506,0.005500,-0.009000,1.002500,192.000000,0.000000,0.000000,0.000000,0.000000,0.000000,0.000000,0.000000,0.000000,0.000000,1769696341.611574,0.000000
176.000000,8236.081390,11664.123734,-2483.077643,-4477.166173,-262.230666,-11876.979396,-5098.656428,1022.547605,13127.090112,8128.882424,-14819.564202,8221.440997,11124.753788,-5413.234879,-12046.942061,3979.392824,0.005500,-0.009000,1.002500,192.000000,0.000000,0.000000,0.000000,0.000000,0.000000,0.000000,0.000000,0.000000,0.000000,1769696341.611592,0.000000
178.000000,8250.453562,11680.328748,-2464.615102,-4452.825123,-247.702032,-11853.510064,-5072.102555,1037.322108,13303.110099,8311.987914,-14636.168139,8395.158755,11288.234447,-5223.066237,-11858.226282,4159.346719,0.005500,-0.009000,1.002500,192.000000,0.000000,0.000000,0.000000,0.000000,0.000000,0.000000,0.000000,0.000000,0.000000,1769696342.090334,0.000000
180.000000,8124.970868,11559.137590,-2592.958819,-4567.847200,-375.598714,-11972.980138,-5194.746577,913.605203,13123.200908,8130.178825,-14822.291115,8222.111550,11104.905439,-5420.700362,-12038.873081,4042.536502,0.005750,-0.008500,1.002250,192.000000,0.000000,24.000000,127.500000,96.000000,15.500000,40.000000,0.000000,0.000000,0.000000,1769696342.090405,0.000000
182.000000,8309.216298,11744.545310,-2412.848462,-4373.476431,-197.008276,-11780.039880,-5014.636220,1097.224784,13244.168549,8260.578902,-14700.205886,8344.129723,11253.298670,-5260.684223,-11928.991905,4134.491579,0.005750,-0.008500,1.002250,192.000000,0.000000,0.000000,0.000000,0.000000,0.000000,0.000000,0.000000,0.000000,0.000000,1769696342.090460,0.000000
184.000000,8110.665752,11542.820816,-2609.387351,-4574.239799,-386.327551,-11969.537970,-5207.308257,895.813214,13202.884877,8220.144596,-14741.534262,8301.884926,11197.285199,-5281.516049,-11968.934473,4136.369125,0.005750,-0.008500,1.002250,192.000000,0.000000,0.000000,0.000000,0.000000,0.000000,0.000000,0.000000,0.000000,0.000000,1769696342.090515,0.000000
186.000000,8242.384582,11677.490077,-2477.735576,-4450.187618,-252.664119,-11842.445951,-5083.479593,1028.917853,13124.273792,8133.419828,-14823.431054,8229.487625,11102.603209,-5399.399149,-12057.246215,4025.593880,0.005750,-0.008500,1.002250,192.000000,0.000000,0.000000,0.000000,0.000000,0.000000,0.000000,0.000000,0.000000,0.000000,1769696342.090569,0.000000
188.000000,8239.143579,11671.857437,-2479.948399,-4461.966987,-248.707861,-11857.622785,-5084.105442,1024.872187,13311.246134,8315.765359,-14634.983496,8406.625200,11299.723244,-5222.283926,-11871.458515,4170.634350,0.005750,-0.008500,1.002250,192.000000,0.000000,0.000000,0.000000,0.000000,0.000000,0.000000,0.000000,0.000000,0.000000,1769696342.090629,0.000000
190.000000,8151.055354,11581.198762,-2570.696482,-4563.130982,-349.268359,-11964.821752,-5174.741766,935.487561,13128.788844,8132.861034,-14822.112301,8225.732532,11118.987038,-5416.230013,-12053.312308,4013.255717,0.007875,-0.010250,1.005125,192.000000,0.000000,40.000000,127.500000,80.000000,15.500000,64.000000,0.000000,0.000000,0.000000,1769696342.090658,0.000000
192.000000,8325.756589,11756.525845,-2392.441320,-4383.244143,-175.505897,-11800.402319,-4995.592534,1113.183929,13250.605851,8255.907387,-14693.835639,8350.522322,11248.984784,-5274.341139,-11924.275687,4081.339131,0.007875,-0.010250,1.005125,192.000000,0.000000,0.000000,0.000000,0.000000,0.000000,0.000000,0.000000,0.000000,0.000000,1769696342.090701,0.000000
194.000000,8135.833816,11563.674994,-2582.162926,-4582.867573,-363.104089,-11985.184191,-5184.867106,921.137741,13238.290040,8235.813169,-14709.258343,8329.958717,11220.218089,-5293.496584,-11932.724647,4103.243840,0.007875,-0.010250,1.005125,192.000000,0.000000,0.000000,0.000000,0.000000,0.000000,0.000000,0.000000,0.000000,0.000000,1769696342.090734,0.000000
196.000000,8254.722745,11686.028443,-2469.443079,-4459.530647,-258.363814,-11856.393439,-5079.076300,1038.730268,13134.197966,8132.324592,-14814.177431,8231.633393,11140.355306,-5413.681914,-12041.555290,3982.678531,0.007875,-0.010250,1.005125,192.000000,0.000000,0.000000,0.000000,0.000000,0.000000,0.000000,0.000000,0.000000,0.000000,1769696342.090750,0.000000
198.000000,8242.742210,11671.320995,-2486.855088,-4475.534496,-266.969236,-11868.910416,-5094.901335,1027.912024,13308.139242,8314.826586,-14635.564641,8401.216078,11292.928313,-5198.725188,-11874.006614,4133.530454,0.007875,-0.010250,1.005125,192.000000,0.000000,0.000000,0.000000,0.000000,0.000000,0.000000,0.000000,0.000000,0.000000,1769696342.090766,0.000000
200.000000,8148.283738,11579.477677,-2585.068653,-4569.478878,-363.998158,-11974.433002,-5194.724225,932.224206,13132.186309,8133.173958,-14817.776062,8228.615907,11102.714968,-5424.187234,-12054.362840,4001.811624,0.008938,-0.011125,1.004563,192.000000,0.000000,40.000000,127.500000,80.000000,15.500000,48.000000,0.000000,0.000000,0.000000,1769696342.090782,0.000000
202.000000,8330.048124,11760.571511,-2395.145881,-4379.779623,-173.650703,-11782.587979,-5013.652744,1113.072170,13246.940165,8254.655690,-14698.305988,8343.883853,11245.900243,-5285.919343,-11929.505995,4092.872631,0.008938,-0.011125,1.004563,192.000000,0.000000,0.000000,0.000000,0.000000,0.000000,0.000000,0.000000,0.000000,0.000000,1769696342.090799,0.000000
204.000000,8131.430522,11557.997651,-2586.655627,-4567.243703,-354.096336,-11958.652670,-5200.692141,915.303935,13240.480511,8235.477893,-14706.978465,8324.639001,11229.494063,-5292.893087,-11929.371885,4140.615957,0.008938,-0.011125,1.004563,192.000000,0.000000,0.000000,0.000000,0.000000,0.000000,0.000000,0.000000,0.000000,0.000000,1769696342.090814,0.000000
206.000000,8248.128980,11676.931283,-2474.159297,-4449.271196,-249.914855,-11821.524718,-5087.502907,1029.767219,13125.525490,8131.028191,-14821.195879,8221.619811,11124.262050,-5397.521603,-12040.102427,4033.551101,0.008938,-0.011125,1.004563,192.000000,0.000000,0.000000,0.000000,0.000000,0.000000,0.000000,0.000000,0.000000,0.000000,1769696342.090830,0.000000
208.000000,8240.328221,11665.554245,-2486.810385,-4460.111792,-265.471669,-11829.794863,-5091.660332,1020.446541,13316.252925,8319.520452,-14630.244926,8404.121805,11295.252895,-5188.756310,-11858.248634,4204.832519,0.008938,-0.011125,1.004563,192.000000,0.000000,0.000000,0.000000,0.000000,0.000000,0.000000,0.000000,0.000000,0.000000,1769696342.090847,0.000000
210.000000,8158.923168,11582.942198,-2574.518630,-4544.802552,-340.752344,-11946.716839,-5176.127574,940.092020,13119.043484,8122.758046,-14829.421321,8214.757826,11114.494337,-5417.302897,-12063.817628,4042.692964,0.009469,-0.012563,1.003281,192.000000,0.000000,40.000000,127.500000,72.000000,15.500000,40.000000,0.000000,0.000000,0.000000,1769696342.090862,0.000000
212.000000,8323.856690,11749.507397,-2411.194433,-4387.155698,-185.273610,-11786.052500,-5016.737284,1104.287935,13255.858511,8253.515751,-14692.807459,8348.734182,11247.911900,-5269.870790,-11935.339801,4112.609221,0.009469,-0.012563,1.003281,192.000000,0.000000,0.000000,0.000000,0.000000,0.000000,0.000000,0.000000,0.000000,0.000000,1769696342.090878,0.000000
214.000000,8143.992203,11567.944177,-2586.923848,-4572.474011,-374.905810,-11968.398031,-5188.443385,924.468151,13239.340572,8232.169835,-14710.800613,8323.633173,11227.974144,-5278.252694,-11959.703202,4108.608259,0.009469,-0.012563,1.003281,192.000000,0.000000,0.000000,0.000000,0.000000,0.000000,0.000000,0.000000,0.000000,0.000000,1769696342.090893,0.000000
216.000000,8254.566283,11682.608626,-2470.962998,-4461.162324,-264.868172,-11870.072707,-5079.277465,1037.992661,13137.282507,8132.615165,-14810.712911,8231.141654,11111.074520,-5415.917088,-12060.062535,3989.629923,0.009469,-0.012563,1.003281,192.000000,0.000000,0.000000,0.000000,0.000000,0.000000,0.000000,0.000000,0.000000,0.000000,1769696342.090908,0.000000
218.000000,8249.581844,11673.042080,-2468.146678,-4469.097193,-249.266654,-11868.843361,-5076.416442,1033.924643,13319.382169,8312.434949,-14622.488871,8406.736959,11314.006008,-5236.454932,-11864.060088,4148.841399,0.009469,-0.012563,1.003281,192.000000,0.000000,0.000000,0.000000,0.000000,0.000000,0.000000,0.000000,0.000000,0.000000,1769696342.090925,0.000000
220.000000,8115.292563,11536.651735,-2603.978229,-4614.092960,-381.164298,-12002.149165,-5214.863147,896.819043,13112.405016,8102.708531,-14834.763388,8201.033855,11113.667323,-5426.891795,-12056.285090,3984.332560,0.008734,-0.009281,1.004641,192.000000,0.000000,32.000000,127.500000,104.000000,15.500000,56.000000,0.000000,0.000000,0.000000,1769696342.090941,0.000000
222.000000,8307.405806,11729.212013,-2415.307154,-4420.526853,-196.829462,-11817.344942,-5029.433075,1089.580487,13227.516499,8218.132939,-14716.701474,8313.038446,11216.351237,-5315.155424,-11940.547757,4052.460677,0.008734,-0.009281,1.004641,192.000000,0.000000,0.000000,0.000000,0.000000,0.000000,0.000000,0.000000,0.000000,0.000000,1769696342.090960,0.000000
224.000000,8158.096154,11581.466983,-2565.175601,-4559.889979,-341.221731,-11952.930624,-5172.707757,940.650814,13236.591308,8225.039628,-14710.711206,8320.593336,11222.185042,-5311.847366,-11929.707161,4102.126253,0.008734,-0.009281,1.004641,192.000000,0.000000,0.000000,0.000000,0.000000,0.000000,0.000000,0.000000,0.000000,0.000000,1769696342.090976,0.000000
226.000000,8255.952091,11687.570713,-2470.694777,-4457.004900,-256.419212,-11852.727753,-5078.092823,1039.110248,13140.456455,8137.867825,-14805.817879,8241.803436,11134.230928,-5409.546841,-12024.545613,4012.875737,0.008734,-0.009281,1.004641,192.000000,0.000000,0.000000,0.000000,0.000000,0.000000,0.000000,0.000000,0.000000,0.000000,1769696342.090991,0.000000
228.000000,8217.216518,11648.879844,-2504.244745,-4482.597647,-274.278256,-11864.797695,-5106.434835,1000.441730,13289.944922,8303.382492,-14652.954299,8393.884706,11284.524057,-5211.242165,-11870.944425,4157.089193,0.008734,-0.009281,1.004641,192.000000,0.000000,0.000000,0.000000,0.000000,0.000000,0.000000,0.000000,0.000000,0.000000,1769696342.091007,0.000000
230.000000,8122.154548,11551.001555,-2600.223136,-4578.866610,-365.473374,-11954.294080,-5205.743635,904.418636,13094.724786,8102.954400,-14851.862473,8199.379826,11101.127994,-5415.961792,-12059.771962,4013.680400,0.008734,-0.009281,1.004641,192.000000,0.000000,0.000000,0.000000,0.000000,0.000000,0.000000,0.000000,0.000000,0.000000,1769696342.091022,0.000000
232.000000,8318.112292,11748.389810,-2407.528747,-4379.511402,-177.182278,-11765.131267,-5018.123092,1100.175214,13232.411531,8238.629489,-14715.382721,8334.741990,11226.744798,-5287.841593,-11938.424341,4099.064064,0.006000,-0.008000,1.006000,192.000000,0.000000,24.000000,127.500000,96.000000,15.500000,56.000000,0.000000,0.000000,0.000000,1769696342.091044,0.000000
