Sample_index,EXG Channel 0,EXG Channel 1,EXG Channel 2,EXG Channel 3,EXG Channel 4,EXG Channel 5,EXG Channel 6,EXG Channel 7,EXG Channel 8,EXG Channel 9,EXG Channel 10,EXG Channel 11,EXG Channel 12,EXG Channel 13,EXG Channel 14,EXG Channel 15,Accel Channel 0,Accel Channel 1,Accel Channel 2,Not Used,Digital Channel 0 (D11),Digital Channel 1 (D12),Digital Channel 2 (D13),Digital Channel 3 (D17),Not Used,Digital Channel 4 (D18),Analog Channel 0,Analog Channel 1,Analog Channel 2,Timestamp,Marker Channel
90.000000,8741.364925,12201.549077,-2007.521928,-3827.825645,-639.997499,-16210.647370,-4184.447728,-566.259094,14471.480485,9378.523753,-14504.114032,8216.344800,13165.803333,-5331.941585,-11493.445813,4208.788777,0.006000,-0.012000,1.006000,192.000000,0.000000,0.000000,0.000000,0.000000,0.000000,0.000000,0.000000,0.000000,0.000000,1769695734.038701,101.000000
92.000000,8698.561334,12155.728001,-2052.292472,-3867.991730,-693.038189,-16276.540312,-4224.323240,-609.263850,14433.057837,9323.180833,-14549.108094,8170.970758,13121.256306,-5402.193117,-11543.133741,4183.486603,0.006000,-0.012000,1.006000,192.000000,0.000000,0.000000,0.000000,0.000000,0.000000,0.000000,0.000000,0.000000,0.000000,1769695734.038777,0.000000
94.000000,8744.225948,12204.074824,-2002.761007,-3813.833453,-646.948892,-16235.994248,-4171.886047,-557.743079,14462.964471,9352.528674,-14519.581439,8204.699541,13162.942310,-5389.519678,-11519.038560,4188.716911,0.010000,-0.016000,1.004000,192.000000,0.000000,40.000000,127.500000,64.000000,15.500000,48.000000,0.000000,0.000000,0.000000,1769695734.038824,0.000000
96.000000,8678.847096,12135.790245,-2053.544170,-3871.590361,-702.962363,-16293.929970,-4222.959783,-620.149150,14454.940194,9337.597708,-14526.286963,8191.891991,13139.741199,-5393.431234,-11517.585697,4192.159080,0.010000,-0.016000,1.004000,192.000000,0.000000,0.000000,0.000000,0.000000,0.000000,0.000000,0.000000,0.000000,0.000000,1769695734.038862,0.000000
98.000000,8697.846079,12155.437428,-2031.907681,-3850.579721,-680.744729,-16277.523789,-4208.408798,-601.910126,14403.709996,9289.228533,-14577.986548,8146.696764,13098.926914,-5436.547749,-11559.383459,4158.519704,0.010000,-0.016000,1.004000,192.000000,0.000000,0.000000,0.000000,0.000000,0.000000,0.000000,0.000000,0.000000,0.000000,1769695734.038900,0.000000
100.000000,8717.336800,12170.189580,-2011.724056,-3836.140494,-655.397851,-16244.018524,-4192.874335,-587.917934,14476.196703,9355.747325,-14507.153870,8205.012465,13180.242560,-5367.547913,-11481.979368,4208.609963,0.010000,-0.016000,1.004000,192.000000,0.000000,0.000000,0.000000,0.000000,0.000000,0.000000,0.000000,0.000000,0.000000,1769695734.038939,0.000000
102.000000,8674.644968,12121.865108,-2052.650100,-3879.927561,-688.321971,-16282.530580,-4231.341688,-633.202569,14426.888755,9295.844650,-14561.401553,8146.137970,13118.127062,-5428.791693,-11527.621630,4188.448690,0.010000,-0.016000,1.004000,192.000000,0.000000,0.000000,0.000000,0.000000,0.000000,0.000000,0.000000,0.000000,0.000000,1769695734.038983,0.000000
104.000000,8712.911154,12167.887350,-2012.752236,-3840.364974,-655.509610,-16238.363533,-4189.454518,-591.628324,14435.427122,9319.269278,-14544.369524,8169.204971,13129.705266,-5396.068739,-11505.560458,4193.634295,0.010000,-0.015000,1.002000,192.000000,0.000000,40.000000,127.500000,72.000000,15.500000,32.000000,0.000000,0.000000,0.000000,1769695734.039003,0.000000
106.000000,8660.585721,12115.472509,-2061.702557,-3893.606829,-696.212136,-16289.772545,-4231.565205,-638.164656,14430.800310,9319.738665,-14543.140178,8167.908569,13117.814138,-5393.408882,-11494.652807,4198.909306,0.010000,-0.015000,1.002000,192.000000,0.000000,0.000000,0.000000,0.000000,0.000000,0.000000,0.000000,0.000000,0.000000,1769695734.039022,0.000000
108.000000,8671.403965,12127.944783,-2052.538342,-3887.437747,-693.529927,-16294.578170,-4225.865510,-628.978089,14380.955920,9272.420022,-14591.911685,8125.686124,13077.513942,-5437.017135,-11536.964659,4156.865675,0.010000,-0.015000,1.002000,192.000000,0.000000,0.000000,0.000000,0.000000,0.000000,0.000000,0.000000,0.000000,0.000000,1769695734.039042,0.000000
110.000000,8689.710044,12145.088571,-2042.882388,-3871.188029,-677.950761,-16276.093277,-4216.231908,-615.030600,14430.196813,9326.623002,-14540.145044,8174.256465,13118.507042,-5413.011362,-11492.976426,4170.835515,0.010000,-0.015000,1.002000,192.000000,0.000000,0.000000,0.000000,0.000000,0.000000,0.000000,0.000000,0.000000,0.000000,1769695734.039060,0.000000
112.000000,8667.939445,12124.301448,-2064.496525,-3891.617524,-698.380256,-16283.938740,-4240.550606,-636.577682,14382.967577,9289.183830,-14588.111888,8127.630726,13084.442983,-5432.300917,-11548.453456,4153.267044,0.010000,-0.015000,1.002000,192.000000,0.000000,0.000000,0.000000,0.000000,0.000000,0.000000,0.000000,0.000000,0.000000,1769695734.039078,0.000000
114.000000,8752.831370,12211.182679,-1985.416053,-3806.077398,-623.166635,-16191.491925,-4172.109565,-556.580789,14445.865386,9354.808552,-14529.773835,8191.020273,13138.377743,-5349.934739,-11503.034711,4188.001655,0.010000,-0.017500,1.004000,192.000000,0.000000,40.000000,127.500000,48.000000,15.500000,56.000000,0.000000,0.000000,0.000000,1769695734.039097,0.000000
116.000000,8695.096814,12151.972908,-2039.194350,-3857.553465,-678.487203,-16240.218728,-4223.876205,-613.018943,14466.272529,9375.260398,-14512.540640,8205.928887,13165.043374,-5335.741381,-11491.300045,4216.477778,0.010000,-0.017500,1.004000,192.000000,0.000000,0.000000,0.000000,0.000000,0.000000,0.000000,0.000000,0.000000,0.000000,1769695734.039116,0.000000
118.000000,8716.129806,12175.285777,-2021.089437,-3840.812008,-670.708796,-16236.195414,-4202.239716,-590.913068,14412.270714,9322.845557,-14565.916606,8163.974662,13115.020170,-5392.917143,-11545.860654,4177.496335,0.010000,-0.017500,1.004000,192.000000,0.000000,0.000000,0.000000,0.000000,0.000000,0.000000,0.000000,0.000000,0.000000,1769695734.039134,0.000000
120.000000,8714.475776,12168.066164,-2018.049600,-3849.596244,-669.188877,-16256.401391,-4193.991923,-590.376626,14469.245311,9370.253607,-14502.236486,8215.920116,13152.705211,-5357.489628,-11489.020167,4203.938449,0.010000,-0.017500,1.004000,192.000000,0.000000,0.000000,0.000000,0.000000,0.000000,0.000000,0.000000,0.000000,0.000000,1769695734.039161,0.000000
122.000000,8656.182427,12109.549297,-2075.985322,-3910.638858,-734.567730,-16326.295296,-4243.098705,-645.317214,14398.032653,9282.232437,-14577.315995,8139.655964,13098.345768,-5449.668223,-11562.155075,4154.451687,0.010000,-0.017500,1.004000,192.000000,0.000000,0.000000,0.000000,0.000000,0.000000,0.000000,0.000000,0.000000,0.000000,1769695734.039181,0.000000
124.000000,8727.350381,12187.534533,-2005.376161,-3837.749819,-671.401700,-16251.104027,-4172.668358,-570.908257,14413.164784,9308.741606,-14552.885539,8171.104869,13086.856972,-5408.541013,-11534.014229,4161.336024,0.006000,-0.020750,1.006000,192.000000,0.000000,8.000000,127.500000,32.000000,15.500000,64.000000,0.000000,0.000000,0.000000,1769695734.039199,0.000000
126.000000,8660.228093,12117.730036,-2071.112641,-3898.747730,-729.337422,-16313.890077,-4235.208539,-637.739973,14435.829453,9334.624926,-14528.879765,8191.154384,13111.533297,-5414.173652,-11507.080377,4194.260144,0.006000,-0.020750,1.006000,192.000000,0.000000,0.000000,0.000000,0.000000,0.000000,0.000000,0.000000,0.000000,0.000000,1769695734.039217,0.000000
128.000000,8678.847096,12140.193539,-2056.762821,-3879.234657,-703.632915,-16300.613141,-4219.830539,-620.104446,14367.254301,9270.006033,-14598.907781,8126.647249,13050.893015,-5458.653624,-11564.077325,4146.762687,0.006000,-0.020750,1.006000,192.000000,0.000000,0.000000,0.000000,0.000000,0.000000,0.000000,0.000000,0.000000,0.000000,1769695734.039236,0.000000
130.000000,8675.650796,12135.209100,-2047.866827,-3876.574800,-704.839910,-16288.386737,-4210.085179,-616.796388,14417.255153,9328.925232,-14542.134350,8177.162192,13096.848201,-5394.615876,-11505.359293,4177.339873,0.006000,-0.020750,1.006000,192.000000,0.000000,0.000000,0.000000,0.000000,0.000000,0.000000,0.000000,0.000000,0.000000,1769695734.039254,0.000000
132.000000,8628.980354,12086.996387,-2091.363322,-3926.665059,-749.945730,-16336.957078,-4249.848932,-662.282188,14351.049286,9256.215007,-14608.675493,8108.877612,13024.316791,-5455.457324,-11564.859636,4137.173788,0.006000,-0.020750,1.006000,192.000000,0.000000,0.000000,0.000000,0.000000,0.000000,0.000000,0.000000,0.000000,0.000000,1769695734.039272,0.000000
134.000000,8699.343645,12161.047716,-2027.504388,-3868.796393,-692.121767,-16269.164237,-4190.706216,-592.522394,14384.643958,9295.911705,-14574.186751,8145.310956,13067.567416,-5426.131836,-11538.126950,4132.636384,0.006000,-0.018375,1.005000,192.000000,0.000000,24.000000,127.500000,64.000000,15.500000,48.000000,0.000000,0.000000,0.000000,1769695734.039291,0.000000
136.000000,8672.923884,12128.369466,-2057.299263,-3906.369675,-717.714514,-16310.604371,-4226.625470,-620.663240,14422.396055,9323.583165,-14537.954573,8166.813334,13092.467259,-5404.338885,-11520.312610,4151.121277,0.006000,-0.018375,1.005000,192.000000,0.000000,0.000000,0.000000,0.000000,0.000000,0.000000,0.000000,0.000000,0.000000,1769695734.039309,0.000000
138.000000,8719.996657,12179.242036,-2018.295469,-3855.497105,-679.537735,-16265.833827,-4190.505050,-578.105519,14400.893676,9305.388845,-14562.228568,8151.010651,13068.796762,-5421.817949,-11557.170636,4131.183521,0.006000,-0.018375,1.005000,192.000000,0.000000,0.000000,0.000000,0.000000,0.000000,0.000000,0.000000,0.000000,0.000000,1769695734.039327,0.000000
140.000000,8721.293059,12180.203161,-2012.193443,-3843.695384,-678.107223,-16261.676402,-4184.671245,-575.736234,14470.653471,9382.100032,-14490.278302,8219.228175,13142.959850,-5338.870625,-11491.680025,4178.725681,0.006000,-0.018375,1.005000,192.000000,0.000000,0.000000,0.000000,0.000000,0.000000,0.000000,0.000000,0.000000,0.000000,1769695734.039346,0.000000
142.000000,8670.398136,12128.704742,-2063.334234,-3885.537849,-725.157645,-16304.390586,-4232.235757,-624.910071,14400.916028,9312.787272,-14562.966175,8149.200159,13079.346785,-5408.071626,-11558.735258,4148.416716,0.006000,-0.018375,1.005000,192.000000,0.000000,0.000000,0.000000,0.000000,0.000000,0.000000,0.000000,0.000000,0.000000,1769695734.039364,0.000000
144.000000,8729.898480,12197.302246,-2006.694914,-3816.135683,-672.832212,-16239.257603,-4171.215495,-560.984082,14425.413540,9352.305156,-14534.244184,8188.606285,13092.757832,-5383.909390,-11528.403941,4169.852039,0.007000,-0.016188,1.005500,192.000000,0.000000,32.000000,127.500000,72.000000,15.500000,56.000000,0.000000,0.000000,0.000000,1769695734.039382,0.000000
146.000000,8658.417601,12123.519137,-2071.939656,-3884.040282,-734.590082,-16301.551914,-4232.034592,-633.090810,14424.474767,9353.333337,-14536.971097,8183.554790,13092.064928,-5373.359367,-11523.553613,4191.555582,0.007000,-0.016188,1.005500,192.000000,0.000000,0.000000,0.000000,0.000000,0.000000,0.000000,0.000000,0.000000,0.000000,1769695734.039400,0.000000
148.000000,8657.523532,12124.614373,-2073.459574,-3879.905210,-735.797076,-16293.058252,-4227.296022,-637.337641,14361.286385,9279.572580,-14607.736720,8118.354752,13030.888203,-5434.625499,-11580.237637,4155.993957,0.007000,-0.016188,1.005500,192.000000,0.000000,0.000000,0.000000,0.000000,0.000000,0.000000,0.000000,0.000000,0.000000,1769695734.039419,0.000000
150.000000,8669.012328,12136.885481,-2056.449897,-3865.778907,-702.425921,-16273.947510,-4207.872356,-626.720563,14403.084147,9326.511243,-14559.144027,8160.152514,13068.305024,-5390.749024,-11524.470034,4193.142556,0.007000,-0.016188,1.005500,192.000000,0.000000,0.000000,0.000000,0.000000,0.000000,0.000000,0.000000,0.000000,0.000000,1769695734.039437,0.000000
152.000000,8612.127139,12078.100393,-2109.848214,-3929.883710,-760.026367,-16337.381761,-4263.841124,-682.622276,14339.404027,9257.109077,-14623.405292,8094.617199,13031.134073,-5458.899493,-11572.012195,4163.705309,0.007000,-0.016188,1.005500,192.000000,0.000000,0.000000,0.000000,0.000000,0.000000,0.000000,0.000000,0.000000,0.000000,1769695734.039456,0.000000
154.000000,8702.495241,12172.067126,-2026.207987,-3850.400907,-687.986694,-16272.271129,-4184.760652,-591.181289,14361.018164,9280.578408,-14595.353853,8126.893118,13023.310962,-5448.170656,-11547.760552,4146.807390,0.006500,-0.014094,1.006750,192.000000,0.000000,24.000000,127.500000,80.000000,15.500000,64.000000,0.000000,0.000000,0.000000,1769695734.039475,0.000000
156.000000,8640.715020,12106.218887,-2091.899764,-3920.317164,-742.770820,-16335.370104,-4245.155066,-656.358976,14406.571019,9325.773636,-14546.269422,8170.881351,13070.450791,-5403.780091,-11503.392339,4177.205763,0.006500,-0.014094,1.006750,192.000000,0.000000,0.000000,0.000000,0.000000,0.000000,0.000000,0.000000,0.000000,0.000000,1769695734.039494,0.000000
158.000000,8687.832497,12157.136161,-2051.443106,-3881.156907,-709.198500,-16305.619932,-4210.509862,-613.041295,14333.570222,9250.917643,-14624.411121,8101.725054,13014.526727,-5472.176429,-11584.305654,4097.790014,0.006500,-0.014094,1.006750,192.000000,0.000000,0.000000,0.000000,0.000000,0.000000,0.000000,0.000000,0.000000,0.000000,1769695734.039512,0.000000
160.000000,8740.023820,12205.930019,-2006.918431,-3843.293052,-656.962473,-16259.664745,-4170.589646,-568.427213,14449.262851,9371.907636,-14509.009064,8207.851137,13120.138719,-5366.765602,-11484.236894,4160.687823,0.006500,-0.014094,1.006750,192.000000,0.000000,0.000000,0.000000,0.000000,0.000000,0.000000,0.000000,0.000000,0.000000,1769695734.039530,0.000000
162.000000,8660.898645,12123.876765,-2091.139804,-3934.376411,-740.759163,-16356.581909,-4260.287197,-653.028566,14387.035595,9298.303342,-14577.092478,8137.510197,13062.828846,-5445.421391,-11558.511741,4114.978506,0.006500,-0.014094,1.006750,192.000000,0.000000,0.000000,0.000000,0.000000,0.000000,0.000000,0.000000,0.000000,0.000000,1769695734.039548,0.000000
164.000000,8763.850780,12226.940659,-1992.054521,-3827.691534,-655.911941,-16248.846501,-4161.447783,-551.976329,14416.294028,9326.779464,-14548.348135,8162.275930,13099.865687,-5414.218356,-11536.763494,4115.716114,0.007250,-0.013047,1.004375,192.000000,0.000000,32.000000,127.500000,80.000000,15.500000,40.000000,0.000000,0.000000,0.000000,1769695734.039567,0.000000
166.000000,8692.302846,12154.722173,-2058.841534,-3883.727358,-726.319936,-16317.779281,-4218.668248,-618.785694,14450.313383,9362.743421,-14511.646570,8190.081500,13103.374911,-5377.293274,-11504.621685,4166.476925,0.007250,-0.013047,1.004375,192.000000,0.000000,0.000000,0.000000,0.000000,0.000000,0.000000,0.000000,0.000000,0.000000,1769695734.039585,0.000000
168.000000,8701.601172,12169.049641,-2057.478077,-3871.590361,-732.824294,-16319.053330,-4214.041437,-610.426141,14369.511827,9285.495792,-14592.828106,8124.210909,13027.826014,-5446.181350,-11583.635102,4122.019305,0.007250,-0.013047,1.004375,192.000000,0.000000,0.000000,0.000000,0.000000,0.000000,0.000000,0.000000,0.000000,0.000000,1769695734.039603,0.000000
170.000000,8743.622451,12212.300266,-2018.094303,-3828.205625,-696.078026,-16269.343051,-4174.747071,-571.712920,14452.973241,9375.729784,-14506.036282,8206.241811,13108.001722,-5357.199056,-11501.067758,4188.225173,0.007250,-0.013047,1.004375,192.000000,0.000000,0.000000,0.000000,0.000000,0.000000,0.000000,0.000000,0.000000,0.000000,1769695734.039622,0.000000
172.000000,8624.800578,12093.165468,-2135.329203,-3941.283100,-802.517033,-16374.485657,-4286.997531,-691.160642,14368.953034,9290.703749,-14596.493792,8122.020438,13023.378017,-5450.875217,-11582.383404,4155.748088,0.007250,-0.013047,1.004375,192.000000,0.000000,0.000000,0.000000,0.000000,0.000000,0.000000,0.000000,0.000000,0.000000,1769695734.039641,0.000000
174.000000,8725.718704,12195.938789,-2031.237129,-3838.733296,-689.908944,-16264.872702,-4187.420510,-593.550574,14366.024955,9296.984589,-14595.800888,8122.780397,13025.836709,-5436.592452,-11569.620558,4151.478905,0.007250,-0.013047,1.004375,192.000000,0.000000,0.000000,0.000000,0.000000,0.000000,0.000000,0.000000,0.000000,0.000000,1769695734.039659,0.000000
176.000000,8632.891909,12101.748538,-2114.095046,-3930.174283,-757.567675,-16350.345773,-4269.585522,-683.292828,14405.229915,9333.194415,-14559.568710,8153.692860,13074.384698,-5414.866557,-11512.377740,4205.592478,0.004000,-0.014000,1.002000,192.000000,0.000000,16.000000,127.500000,72.000000,15.500000,40.000000,0.000000,0.000000,0.000000,1769695734.039677,0.000000
178.000000,8670.755764,12142.652231,-2075.962970,-3901.832271,-736.780552,-16319.053330,-4240.014164,-645.965415,14310.525574,9234.086780,-14656.530578,8065.492876,12966.805752,-5524.300697,-11598.364901,4124.902681,0.004000,-0.014000,1.002000,192.000000,0.000000,0.000000,0.000000,0.000000,0.000000,0.000000,0.000000,0.000000,0.000000,1769695734.039696,0.000000
180.000000,8737.699239,12208.500470,-2016.328516,-3842.488389,-681.571744,-16265.677365,-4179.597399,-579.178402,14439.919822,9365.827962,-14521.257820,8190.461479,13101.854992,-5384.758757,-11476.950225,4199.512803,0.004000,-0.014000,1.002000,192.000000,0.000000,0.000000,0.000000,0.000000,0.000000,0.000000,0.000000,0.000000,0.000000,1769695734.039714,0.000000
182.000000,8668.922921,12136.930184,-2100.572240,-3923.401704,-766.977759,-16355.419619,-4264.824601,-654.012043,14384.375737,9300.247943,-14581.249902,8133.397476,13044.053381,-5449.221188,-11561.082192,4146.248596,0.004000,-0.014000,1.002000,192.000000,0.000000,0.000000,0.000000,0.000000,0.000000,0.000000,0.000000,0.000000,0.000000,1769695734.039733,0.000000
184.000000,8810.096539,12280.160162,-1974.463698,-3793.158089,-646.501857,-16231.926230,-4140.571253,-516.392352,14428.855709,9346.650165,-14537.909870,8180.537305,13087.460469,-5402.908373,-11548.453456,4134.469227,0.004000,-0.014000,1.002000,192.000000,0.000000,0.000000,0.000000,0.000000,0.000000,0.000000,0.000000,0.000000,0.000000,1769695734.039751,0.000000
186.000000,8724.131730,12190.842592,-2056.472249,-3881.067500,-734.746544,-16329.782168,-4220.322278,-602.088940,14486.567913,9404.317666,-14478.186009,8236.617832,13122.440949,-5356.997890,-11502.610028,4182.212553,0.004000,-0.014000,1.006000,192.000000,0.000000,16.000000,127.500000,72.000000,15.500000,56.000000,0.000000,0.000000,0.000000,1769695734.039770,0.000000
188.000000,8739.576786,12208.120490,-2036.713307,-3867.745861,-727.772799,-16316.438176,-4204.944277,-585.123966,14383.727537,9295.755243,-14582.479248,8137.264328,13037.437265,-5464.330967,-11605.316294,4095.331323,0.004000,-0.014000,1.006000,192.000000,0.000000,0.000000,0.000000,0.000000,0.000000,0.000000,0.000000,0.000000,0.000000,1769695734.039788,0.000000
190.000000,8777.932379,12243.279784,-1995.072007,-3829.457322,-682.734034,-16272.584054,-4164.375861,-546.366041,14488.311349,9401.657808,-14471.033450,8236.707239,13135.941402,-5340.301137,-11490.070699,4180.022082,0.004000,-0.014000,1.006000,192.000000,0.000000,0.000000,0.000000,0.000000,0.000000,0.000000,0.000000,0.000000,0.000000,1769695734.039806,0.000000
192.000000,8690.246486,12152.442295,-2082.847307,-3912.918736,-760.585160,-16346.568328,-4250.228912,-635.638909,14397.652673,9304.830051,-14564.575501,8141.846435,13039.515977,-5463.056918,-11572.123953,4142.202931,0.004000,-0.014000,1.006000,192.000000,0.000000,0.000000,0.000000,0.000000,0.000000,0.000000,0.000000,0.000000,0.000000,1769695734.039824,0.000000
194.000000,8790.605818,12255.305023,-1980.945704,-3805.675066,-658.616502,-16227.478233,-4148.886102,-536.553626,14432.722560,9339.117627,-14531.763140,8178.346834,13093.696605,-5414.307763,-11528.850976,4175.708196,0.004000,-0.014000,1.006000,192.000000,0.000000,0.000000,0.000000,0.000000,0.000000,0.000000,0.000000,0.000000,0.000000,1769695734.039843,0.000000
196.000000,8677.416584,12141.981678,-2092.033874,-3910.504748,-757.277102,-16329.491595,-4251.614720,-650.771040,14454.247290,9366.096183,-14512.965323,8196.071767,13094.747137,-5378.544972,-11494.853973,4220.635202,0.008000,-0.018000,1.002000,192.000000,0.000000,32.000000,127.500000,56.000000,15.500000,40.000000,0.000000,0.000000,0.000000,1769695734.039861,0.000000
198.000000,8714.252259,12181.186638,-2059.579141,-3867.209419,-717.535701,-16281.815324,-4218.444731,-616.505816,14350.356382,9268.307301,-14622.108891,8098.774624,13002.434433,-5471.416470,-11593.134593,4153.311748,0.008000,-0.018000,1.002000,192.000000,0.000000,0.000000,0.000000,0.000000,0.000000,0.000000,0.000000,0.000000,0.000000,1769695734.039879,0.000000
200.000000,8743.018954,12209.953333,-2031.862978,-3835.626404,-674.776813,-16234.764902,-4191.086196,-588.744949,14451.207453,9374.880418,-14517.368617,8196.071767,13099.105728,-5373.560533,-11484.929798,4239.410667,0.008000,-0.018000,1.002000,192.000000,0.000000,0.000000,0.000000,0.000000,0.000000,0.000000,0.000000,0.000000,0.000000,1769695734.039898,0.000000
202.000000,8665.212532,12132.705704,-2107.769502,-3914.751579,-749.319881,-16308.503307,-4269.809040,-664.606770,14377.625510,9294.771766,-14596.203219,8118.488862,13051.988250,-5442.560368,-11561.216302,4204.497243,0.008000,-0.018000,1.002000,192.000000,0.000000,0.000000,0.000000,0.000000,0.000000,0.000000,0.000000,0.000000,0.000000,1769695734.039916,0.000000
204.000000,8788.325940,12259.641261,-1990.735768,-3806.725598,-633.381383,-16199.292684,-4161.805411,-545.494323,14422.954848,9341.643374,-14551.633841,8163.326462,13071.322509,-5393.542992,-11527.711037,4199.602210,0.008000,-0.018000,1.002000,192.000000,0.000000,0.000000,0.000000,0.000000,0.000000,0.000000,0.000000,0.000000,0.000000,1769695734.039934,0.000000
206.000000,8713.894631,12182.997129,-2070.576199,-3890.343474,-711.232509,-16292.655920,-4239.455371,-622.339621,14474.453267,9388.582038,-14502.571762,8205.370093,13141.149359,-5349.353594,-11490.048348,4222.110417,0.012000,-0.016000,1.004000,192.000000,0.000000,48.000000,127.500000,64.000000,15.500000,48.000000,0.000000,0.000000,0.000000,1769695734.039953,0.000000
208.000000,8755.401821,12224.459615,-2029.426638,-3851.965529,-683.650456,-16263.062210,-4197.724664,-577.971408,14392.042386,9301.276124,-14589.631807,8127.496615,13046.042686,-5455.636138,-11588.105451,4133.150474,0.012000,-0.016000,1.004000,192.000000,0.000000,0.000000,0.000000,0.000000,0.000000,0.000000,0.000000,0.000000,0.000000,1769695734.039971,0.000000
210.000000,8799.457109,12267.620834,-1983.314989,-3807.239688,-648.424107,-16226.226536,-4150.897759,-529.959861,14518.866184,9433.307878,-14454.493160,8252.062887,13169.156095,-5313.210823,-11462.019260,4218.556490,0.012000,-0.016000,1.004000,192.000000,0.000000,0.000000,0.000000,0.000000,0.000000,0.000000,0.000000,0.000000,0.000000,1769695734.519660,0.000000
212.000000,8701.221192,12170.949539,-2079.963932,-3903.083969,-744.938939,-16325.401226,-4244.797438,-625.357106,14416.651656,9327.494720,-14557.221777,8154.944558,13068.617948,-5429.618708,-11564.546712,4150.182503,0.012000,-0.016000,1.004000,192.000000,0.000000,0.000000,0.000000,0.000000,0.000000,0.000000,0.000000,0.000000,0.000000,1769695734.519720,0.000000
214.000000,8794.696187,12268.872532,-1982.666788,-3806.278563,-662.036319,-16229.892222,-4151.367146,-528.842274,14443.630212,9357.066078,-14528.052751,8187.354587,13111.332132,-5404.875327,-11535.176520,4158.497352,0.012000,-0.016000,1.004000,192.000000,0.000000,0.000000,0.000000,0.000000,0.000000,0.000000,0.000000,0.000000,0.000000,1769695734.519768,0.000000
216.000000,8711.212422,12180.404327,-2057.969815,-3882.922695,-729.382125,-16307.028092,-4221.976307,-610.917879,14478.186009,9388.626741,-14493.899285,8215.048398,13117.925896,-5358.674271,-11495.122194,4204.653705,0.010000,-0.008000,0.998000,192.000000,0.000000,40.000000,127.500000,96.000000,15.500000,24.000000,0.000000,0.000000,0.000000,1769695734.519816,0.000000
218.000000,8727.775064,12198.486888,-2043.016498,-3866.136535,-710.047866,-16284.452830,-4205.123091,-591.538917,14388.913141,9295.241153,-14586.010824,8129.463569,13039.292459,-5456.373746,-11576.616654,4145.756858,0.010000,-0.008000,0.998000,192.000000,0.000000,0.000000,0.000000,0.000000,0.000000,0.000000,0.000000,0.000000,0.000000,1769695734.519874,0.000000
220.000000,8748.897463,12220.726874,-2017.870786,-3836.386363,-676.095566,-16238.475292,-4182.905457,-567.711957,14465.221997,9375.618026,-14504.873992,8203.671360,13114.953114,-5369.872495,-11489.981292,4207.872356,0.010000,-0.008000,0.998000,192.000000,0.000000,0.000000,0.000000,0.000000,0.000000,0.000000,0.000000,0.000000,0.000000,1769695734.519917,0.000000
222.000000,8677.282474,12144.529777,-2093.419682,-3903.374541,-741.474419,-16291.426574,-4257.470877,-642.098563,14399.843144,9313.927211,-14575.930187,8138.717191,13053.441114,-5419.403961,-11549.325174,4194.707178,0.010000,-0.008000,0.998000,192.000000,0.000000,0.000000,0.000000,0.000000,0.000000,0.000000,0.000000,0.000000,0.000000,1769695734.519934,0.000000
224.000000,8773.171457,12244.665592,-2004.392684,-3809.497214,-644.780772,-16182.551227,-4172.623655,-547.774201,14423.960677,9345.934909,-14551.477379,8169.182619,13088.443945,-5390.011417,-11531.063799,4216.589536,0.010000,-0.008000,0.998000,192.000000,0.000000,0.000000,0.000000,0.000000,0.000000,0.000000,0.000000,0.000000,0.000000,1769695734.519949,0.000000
226.000000,8727.238623,12197.391653,-2052.560693,-3858.067555,-677.146098,-16224.505451,-4218.891766,-595.673990,14477.291939,9402.283657,-14503.801108,8214.243736,13139.450626,-5339.921157,-11493.334054,4268.423232,0.014000,-0.008000,1.006000,192.000000,0.000000,56.000000,127.500000,96.000000,15.500000,56.000000,0.000000,0.000000,0.000000,1769695734.519966,0.000000
228.000000,8753.166646,12221.755054,-2029.717210,-3850.155038,-657.700081,-16212.457861,-4208.118225,-573.165783,14425.368837,9345.979613,-14561.133332,8163.997014,13099.262190,-5389.385568,-11555.896587,4218.377676,0.014000,-0.008000,1.006000,192.000000,0.000000,0.000000,0.000000,0.000000,0.000000,0.000000,0.000000,0.000000,0.000000,1769695734.519984,0.000000
230.000000,8777.015957,12244.665592,-1992.166280,-3824.294069,-620.484426,-16196.610474,-4175.529382,-540.085201,14500.113070,9412.163128,-14481.002329,8227.677134,13150.581795,-5327.046553,-11487.366138,4238.203673,0.014000,-0.008000,1.006000,192.000000,0.000000,0.000000,0.000000,0.000000,0.000000,0.000000,0.000000,0.000000,0.000000,1769695734.520000,0.000000
232.000000,8707.591439,12171.955368,-2051.487810,-3881.246314,-674.732110,-16268.180760,-4231.319336,-601.843071,14446.200662,9350.986403,-14531.181995,8174.077651,13119.065835,-5404.897678,-11534.528319,4200.764501,0.014000,-0.008000,1.006000,192.000000,0.000000,0.000000,0.000000,0.000000,0.000000,0.000000,0.000000,0.000000,0.000000,1769695734.520014,0.000000
234.000000,8768.812867,12234.383790,-1982.979713,-3814.951040,-617.981031,-16205.640579,-4166.409870,-537.648861,14459.187026,9365.112706,-14521.861317,8191.266142,13133.594469,-5375.303969,-11520.334961,4190.572106,0.014000,-0.008000,1.006000,192.000000,0.000000,0.000000,0.000000,0.000000,0.000000,0.000000,0.000000,0.000000,0.000000,1769695734.520032,0.000000
236.000000,8721.226003,12183.980606,-2020.105960,-3853.552503,-646.010118,-16245.583146,-4198.462272,-577.010283,14495.888590,9399.132061,-14482.902227,8221.865680,13177.537999,-5337.015431,-11474.446830,4230.604080,0.008000,-0.014000,1.006000,192.000000,0.000000,32.000000,127.500000,72.000000,15.500000,56.000000,0.000000,0.000000,0.000000,1769695734.520051,0.000000
238.000000,8710.027779,12172.245940,-2026.275042,-3860.503895,-665.254970,-16259.597690,-4207.537080,-586.263905,14424.854746,9324.633697,-14554.986603,8156.956215,13125.503138,-5406.886984,-11544.318383,4179.798565,0.008000,-0.014000,1.006000,192.000000,0.000000,0.000000,0.000000,0.000000,0.000000,0.000000,0.000000,0.000000,0.000000,1769695734.520065,0.000000
240.000000,8713.916983,12176.783344,-2010.651172,-3841.996651,-657.007177,-16231.367437,-4187.666379,-576.272676,14472.463962,9373.852238,-14502.482355,8203.626657,13161.489446,-5361.378832,-11487.790822,4208.341743,0.008000,-0.014000,1.006000,192.000000,0.000000,0.000000,0.000000,0.000000,0.000000,0.000000,0.000000,0.000000,0.000000,1769695734.520081,0.000000
242.000000,8641.877310,12103.067291,-2077.259371,-3902.793396,-714.853491,-16285.101030,-4245.937377,-644.490200,14405.989874,9313.480176,-14568.665870,8142.516988,13108.605219,-5398.750949,-11541.457360,4187.286399,0.008000,-0.014000,1.006000,192.000000,0.000000,0.000000,0.000000,0.000000,0.000000,0.000000,0.000000,0.000000,0.000000,1769695734.520097,0.000000
244.000000,8708.686675,12170.681318,-2013.668658,-3834.709982,-654.906113,-16222.538498,-4186.258219,-580.653617,14407.398034,9314.910688,-14571.817466,8147.277909,13081.157277,-5400.628495,-11532.337848,4186.437033,0.008000,-0.014000,1.006000,192.000000,0.000000,0.000000,0.000000,0.000000,0.000000,0.000000,0.000000,0.000000,0.000000,1769695734.520114,0.000000
246.000000,8656.227130,12118.266477,-2066.441127,-3880.888686,-697.486186,-16257.027239,-4238.136618,-635.214226,14436.187081,9347.320717,-14542.849605,8168.176790,13112.315609,-5369.872495,-11496.664464,4230.380563,0.007000,-0.013000,1.009000,192.000000,0.000000,24.000000,127.500000,80.000000,15.500000,80.000000,0.000000,0.000000,0.000000,1769695734.520127,0.000000
248.000000,8678.981206,12147.569614,-2050.794906,-3860.570951,-678.487203,-16222.426739,-4223.853853,-611.879004,14386.365042,9302.080786,-14593.789231,8129.374162,13058.447904,-5406.283487,-11550.956851,4207.626487,0.007000,-0.013000,1.009000,192.000000,0.000000,0.000000,0.000000,0.000000,0.000000,0.000000,0.000000,0.000000,0.000000,1769695734.520145,0.000000
250.000000,8730.278460,12201.325560,-2013.176920,-3821.857729,-635.437743,-16184.875808,-4185.654722,-564.515658,14456.080133,9381.898866,-14518.776777,8203.023160,13128.766492,-5327.180663,-11494.138717,4244.305699,0.007000,-0.013000,1.009000,192.000000,0.000000,0.000000,0.000000,0.000000,0.000000,0.000000,0.000000,0.000000,0.000000,1769695734.520166,0.000000
252.000000,8678.333006,12144.686239,-2063.937731,-3878.050015,-679.291866,-16243.750303,-4234.627394,-615.276470,14428.498081,9349.980575,-14548.370486,8169.339081,13096.222353,-5349.286538,-11537.121122,4220.657554,0.007000,-0.013000,1.009000,192.000000,0.000000,0.000000,0.000000,0.000000,0.000000,0.000000,0.000000,0.000000,0.000000,1769695734.520179,0.000000
254.000000,8752.496094,12218.446996,-1986.891268,-3808.871366,-626.206473,-16191.067242,-4166.186353,-543.460315,14432.230822,9350.025278,-14540.100341,8177.765689,13129.191176,-5372.018262,-11528.873328,4193.746053,0.007000,-0.013000,1.009000,192.000000,0.000000,0.000000,0.000000,0.000000,0.000000,0.000000,0.000000,0.000000,0.000000,1769695734.520196,0.000000
0.000000,8687.072538,12149.424809,-2044.916397,-3878.698215,-685.259782,-16264.962109,-4224.256185,-609.308554,14480.063555,9390.236067,-14493.698119,8215.271916,13138.198929,-5341.932814,-11480.057118,4227.653650,0.009500,-0.013500,1.007500,192.000000,0.000000,48.000000,127.500000,72.000000,15.500000,56.000000,0.000000,0.000000,0.000000,1769695734.520211,0.000000
2.000000,8702.942276,12163.394649,-2029.426638,-3871.746823,-666.953703,-16266.392620,-4208.118225,-596.523356,14401.608932,9299.510336,-14576.645443,8133.173958,13070.204922,-5435.608975,-11555.047221,4156.105716,0.009500,-0.013500,1.007500,192.000000,0.000000,0.000000,0.000000,0.000000,0.000000,0.000000,0.000000,0.000000,0.000000,1769695734.520228,0.000000
4.000000,8733.184187,12192.921304,-2001.576364,-3850.400907,-653.944988,-16259.508283,-4181.519649,-567.287274,14468.887683,9362.743421,-14506.528021,8196.854078,13134.421484,-5375.683948,-11489.042519,4182.078443,0.009500,-0.013500,1.007500,192.000000,0.000000,0.000000,0.000000,0.000000,0.000000,0.000000,0.000000,0.000000,0.000000,1769695734.520240,0.000000
6.000000,8683.228038,12139.344172,-2049.453801,-3899.686503,-699.699008,-16316.237011,-4227.698353,-611.856653,14444.881909,9328.455845,-14534.780626,8168.512066,13117.456510,-5426.087132,-11526.146415,4161.246617,0.009500,-0.013500,1.007500,192.000000,0.000000,0.000000,0.000000,0.000000,0.000000,0.000000,0.000000,0.000000,0.000000,1769695734.520258,0.000000
8.000000,8736.961631,12194.977664,-2000.816405,-3846.824628,-650.458115,-16268.918367,-4182.726643,-560.112364,14441.171520,9323.940793,-14535.518233,8171.596607,13115.914239,-5408.585716,-11535.534148,4137.240843,0.009500,-0.013500,1.007500,192.000000,0.000000,0.000000,0.000000,0.000000,0.000000,0.000000,0.000000,0.000000,0.000000,1769695734.520272,0.000000
10.000000,8688.346587,12145.580309,-2041.451876,-3881.358073,-685.304485,-16298.959112,-4219.517615,-611.834301,14466.987785,9352.260453,-14512.518288,8186.773442,13144.680935,-5381.048367,-11506.119252,4169.248542,0.007750,-0.015750,1.005750,192.000000,0.000000,24.000000,127.500000,56.000000,15.500000,48.000000,0.000000,0.000000,0.000000,1769695734.520290,0.000000
12.000000,8685.843192,12146.675545,-2046.056336,-3874.607846,-680.811784,-16281.010661,-4222.177472,-617.556348,14404.425252,9295.107042,-14579.774687,8130.894081,13100.625646,-5440.772228,-11550.912148,4152.417678,0.007750,-0.015750,1.005750,192.000000,0.000000,0.000000,0.000000,0.000000,0.000000,0.000000,0.000000,0.000000,0.000000,1769695734.520303,0.000000
14.000000,8711.055960,12173.855266,-2022.832873,-3846.087020,-649.094659,-16233.513204,-4201.658571,-598.602068,14456.214244,9359.345956,-14529.147986,8181.610189,13124.162033,-5360.149486,-11490.160106,4198.551678,0.007750,-0.015750,1.005750,192.000000,0.000000,0.000000,0.000000,0.000000,0.000000,0.000000,0.000000,0.000000,0.000000,1769695734.520320,0.000000
16.000000,8684.055052,12143.769818,-2060.070879,-3883.839117,-682.510517,-16251.707524,-4239.433019,-629.112199,14428.609840,9333.350877,-14563.212045,8152.061183,13098.658693,-5385.384606,-11525.587621,4205.212498,0.007750,-0.015750,1.005750,192.000000,0.000000,0.000000,0.000000,0.000000,0.000000,0.000000,0.000000,0.000000,0.000000,1769695734.520334,0.000000
18.000000,8764.990719,12223.476139,-1992.568611,-3819.086113,-620.059743,-16182.886503,-4175.842306,-552.468068,14452.637965,9354.115648,-14542.626088,8177.117488,13109.007550,-5360.350652,-11524.067703,4195.847117,0.007750,-0.015750,1.005750,192.000000,0.000000,0.000000,0.000000,0.000000,0.000000,0.000000,0.000000,0.000000,0.000000,1769695734.520351,0.000000
20.000000,8734.324126,12191.669606,-2023.682239,-3855.184180,-652.268607,-16230.674533,-4204.609001,-580.877135,14501.029492,9410.218526,-14490.770041,8223.832634,13161.556502,-5285.986398,-11486.650883,4225.843158,0.006875,-0.012875,1.005875,192.000000,0.000000,24.000000,127.500000,88.000000,15.500000,56.000000,0.000000,0.000000,0.000000,1769695734.520364,0.000000
22.000000,8753.792495,12217.217650,-2011.366428,-3838.710944,-651.642758,-16229.579297,-4194.550716,-564.716824,14454.493160,9361.782296,-14536.948745,8182.370148,13120.228126,-5375.661597,-11545.100694,4174.523553,0.006875,-0.012875,1.005875,192.000000,0.000000,0.000000,0.000000,0.000000,0.000000,0.000000,0.000000,0.000000,0.000000,1769695734.520382,0.000000
24.000000,8768.634053,12234.696714,-1993.596791,-3825.590471,-638.164656,-16210.580314,-4175.976417,-550.746983,14506.773890,9419.539204,-14481.494067,8232.952146,13166.518589,-5329.304079,-11495.323359,4193.410777,0.006875,-0.012875,1.005875,192.000000,0.000000,0.000000,0.000000,0.000000,0.000000,0.000000,0.000000,0.000000,0.000000,1769695734.520397,0.000000
26.000000,8710.743035,12172.625920,-2042.457705,-3880.419300,-688.433729,-16274.193379,-4221.283403,-602.893603,14459.365840,9365.693851,-14528.209213,8181.744299,13120.317533,-5373.158201,-11535.154168,4170.187315,0.006875,-0.012875,1.005875,192.000000,0.000000,0.000000,0.000000,0.000000,0.000000,0.000000,0.000000,0.000000,0.000000,1769695734.520415,0.000000
28.000000,8759.671004,12223.498490,-1994.535565,-3835.626404,-651.799220,-16235.569565,-4174.411794,-555.306739,14459.812875,9361.871703,-14520.453157,8190.483831,13115.668370,-5362.630530,-11526.302877,4161.023100,0.006875,-0.012875,1.005875,192.000000,0.000000,0.000000,0.000000,0.000000,0.000000,0.000000,0.000000,0.000000,0.000000,1769695734.520430,0.000000
30.000000,8711.972381,12173.609397,-2041.898911,-3881.045148,-696.525061,-16286.576246,-4216.433074,-603.385342,14470.698174,9364.397450,-14509.970189,8193.546020,13117.434158,-5362.965806,-11514.255287,4172.556600,0.008438,-0.012438,1.004938,192.000000,0.000000,40.000000,127.500000,80.000000,15.500000,48.000000,0.000000,0.000000,0.000000,1769695734.520446,0.000000
32.000000,8711.100663,12173.877618,-2041.809504,-3872.506782,-694.871032,-16285.793935,-4211.605097,-602.334810,14420.406749,9318.777540,-14560.015745,8155.726869,13077.379832,-5415.045370,-11549.079305,4155.949254,0.008438,-0.012438,1.004938,192.000000,0.000000,0.000000,0.000000,0.000000,0.000000,0.000000,0.000000,0.000000,0.000000,1769695734.520464,0.000000
34.000000,8726.411608,12190.686129,-2029.940728,-3859.319253,-683.583401,-16274.148676,-4199.959838,-594.981086,14448.391133,9346.739572,-14530.489091,8185.186468,13100.066853,-5374.432251,-11502.364159,4176.669321,0.008438,-0.012438,1.004938,192.000000,0.000000,0.000000,0.000000,0.000000,0.000000,0.000000,0.000000,0.000000,0.000000,1769695734.520477,0.000000
36.000000,8666.285415,12128.615335,-2090.245734,-3919.445445,-745.944768,-16337.337057,-4253.715784,-658.102412,14404.514659,9297.699845,-14579.327652,8131.676392,13058.112628,-5442.046278,-11532.896642,4169.516762,0.008438,-0.012438,1.004938,192.000000,0.000000,0.000000,0.000000,0.000000,0.000000,0.000000,0.000000,0.000000,0.000000,1769695734.520493,0.000000
38.000000,8733.295945,12198.151612,-2031.326536,-3854.692442,-687.405549,-16269.924196,-4194.058978,-594.131719,14410.259057,9299.890316,-14576.444277,8136.973755,13065.689870,-5433.373801,-11539.110427,4167.214533,0.008438,-0.012438,1.004938,192.000000,0.000000,0.000000,0.000000,0.000000,0.000000,0.000000,0.000000,0.000000,0.000000,1769695734.520508,0.000000
40.000000,8704.484547,12168.580254,-2072.632560,-3903.106320,-721.335497,-16307.430423,-4236.974327,-630.788580,14439.092808,9324.656048,-14545.554167,8161.024232,13073.133001,-5405.367065,-11518.345656,4189.432167,0.009219,-0.015219,1.004469,192.000000,0.000000,40.000000,127.500000,56.000000,15.500000,48.000000,0.000000,0.000000,0.000000,1769695734.520525,0.000000
42.000000,8759.760411,12225.823072,-2033.941690,-3868.349358,-680.856488,-16266.862007,-4209.436978,-584.609876,14414.483537,9296.537554,-14576.623091,8139.343040,13065.913387,-5443.767362,-11566.558369,4154.138762,0.009219,-0.015219,1.004469,192.000000,0.000000,0.000000,0.000000,0.000000,0.000000,0.000000,0.000000,0.000000,0.000000,1769695734.520538,0.000000
44.000000,8805.939115,12271.688851,-1992.903887,-3833.391229,-644.825476,-16227.008847,-4176.378748,-542.476838,14526.801053,9406.083453,-14466.540750,8238.495378,13153.733391,-5337.507169,-11482.269941,4204.407836,0.009219,-0.015219,1.004469,192.000000,0.000000,0.000000,0.000000,0.000000,0.000000,0.000000,0.000000,0.000000,0.000000,1769695734.520555,0.000000
46.000000,8758.866341,12221.129205,-2037.428562,-3877.379462,-681.907020,-16276.249740,-4219.987001,-588.610838,14468.351241,9346.717220,-14526.756349,8179.531476,13109.499289,-5396.247553,-11549.928671,4157.379765,0.009219,-0.015219,1.004469,192.000000,0.000000,0.000000,0.000000,0.000000,0.000000,0.000000,0.000000,0.000000,0.000000,1769695734.520570,0.000000
48.000000,8820.110121,12284.675215,-1983.203230,-3820.851901,-637.427048,-16225.734797,-4168.600341,-535.167817,14500.761271,9380.893037,-14495.441555,8217.462387,13139.875309,-5352.639300,-11521.743121,4167.259236,0.009219,-0.015219,1.004469,192.000000,0.000000,0.000000,0.000000,0.000000,0.000000,0.000000,0.000000,0.000000,0.000000,1769695734.520587,0.000000
50.000000,8771.003338,12232.819168,-2025.872710,-3865.533038,-690.355979,-16293.102955,-4208.341743,-583.134661,14509.701968,9392.270075,-14487.774907,8219.786968,13131.515757,-5358.540160,-11511.729540,4175.238809,0.009609,-0.012609,1.004234,192.000000,0.000000,40.000000,127.500000,88.000000,15.500000,48.000000,0.000000,0.000000,0.000000,1769695734.520613,0.000000
52.000000,8756.072373,12219.922211,-2038.836722,-3882.609771,-715.993430,-16312.057234,-4218.869414,-597.819757,14449.531072,9330.914537,-14547.968155,8165.829857,13087.214600,-5423.851958,-11565.977224,4135.519759,0.009609,-0.012609,1.004234,192.000000,0.000000,0.000000,0.000000,0.000000,0.000000,0.000000,0.000000,0.000000,0.000000,1769695734.520631,0.000000
54.000000,8785.531972,12250.164121,-2003.051579,-3849.909168,-689.841889,-16280.094240,-4182.056091,-566.437908,14492.133497,9371.550008,-14499.956608,8204.587782,13113.410844,-5385.228143,-11512.198926,4162.744184,0.009609,-0.012609,1.004234,192.000000,0.000000,0.000000,0.000000,0.000000,0.000000,0.000000,0.000000,0.000000,0.000000,1769695734.520663,0.000000
56.000000,8721.270707,12181.611321,-2062.507220,-3909.543623,-740.893273,-16351.843339,-4236.929624,-631.213263,14441.640907,9319.805720,-14547.945803,8155.212778,13059.744306,-5435.608975,-11548.855787,4149.042565,0.009609,-0.012609,1.004234,192.000000,0.000000,0.000000,0.000000,0.000000,0.000000,0.000000,0.000000,0.000000,0.000000,1769695734.520678,0.000000
58.000000,8765.348347,12230.248717,-2019.748332,-3861.934407,-693.261706,-16293.795859,-4194.371902,-587.336789,14437.304668,9319.179871,-14550.024515,8156.218607,13057.978518,-5439.341717,-11539.646869,4144.058126,0.009609,-0.012609,1.004234,192.000000,0.000000,0.000000,0.000000,0.000000,0.000000,0.000000,0.000000,0.000000,0.000000,1769695734.520697,0.000000
60.000000,8704.663361,12170.144876,-2082.042644,-3920.831254,-748.716384,-16347.797674,-4252.240569,-651.933331,14437.707000,9323.538461,-14544.727152,8158.140857,13065.667518,-5434.379629,-11524.738255,4166.655739,0.009609,-0.012609,1.004234,192.000000,0.000000,0.000000,0.000000,0.000000,0.000000,0.000000,0.000000,0.000000,0.000000,1769695734.520714,0.000000
62.000000,8728.087989,12194.083595,-2065.077670,-3898.323047,-734.321861,-16320.215621,-4230.425266,-627.525226,14392.020034,9277.247998,-14590.615283,8116.477205,13009.117604,-5475.350377,-11562.557407,4156.888027,0.010000,-0.008000,1.008000,192.000000,0.000000,40.000000,127.500000,96.000000,15.500000,64.000000,0.000000,0.000000,0.000000,1769695734.520727,0.000000
64.000000,8763.694318,12230.651048,-2033.315841,-3861.576779,-701.777721,-16278.686080,-4197.322333,-589.504908,14444.658392,9333.149711,-14532.590155,8174.323520,13053.754038,-5410.597373,-11513.517679,4190.750920,0.010000,-0.008000,1.008000,192.000000,0.000000,0.000000,0.000000,0.000000,0.000000,0.000000,0.000000,0.000000,0.000000,1769695734.520744,0.000000
66.000000,8731.798378,12195.737624,-2070.196220,-3895.864355,-732.779590,-16313.264228,-4234.582691,-622.339621,14431.359104,9315.849461,-14549.800998,8160.465438,13062.068887,-5428.992859,-11534.461264,4195.265972,0.010000,-0.008000,1.008000,192.000000,0.000000,0.000000,0.000000,0.000000,0.000000,0.000000,0.000000,0.000000,0.000000,1769695734.520759,0.000000
68.000000,8793.623304,12259.484799,-2015.814425,-3844.365936,-689.327799,-16256.379039,-4186.593495,-562.839277,14434.935383,9323.985496,-14543.922489,8173.697671,13037.817244,-5438.805275,-11543.021982,4164.107640,0.010000,-0.008000,1.008000,192.000000,0.000000,0.000000,0.000000,0.000000,0.000000,0.000000,0.000000,0.000000,0.000000,1769695734.520776,0.000000
70.000000,8760.386260,12224.370208,-2047.442144,-3881.738053,-728.577462,-16305.731691,-4215.159025,-595.182251,14478.990672,9365.447982,-14498.883724,8207.158233,13104.939533,-5392.425405,-11513.495328,4186.951123,0.010000,-0.008000,1.008000,192.000000,0.000000,0.000000,0.000000,0.000000,0.000000,0.000000,0.000000,0.000000,0.000000,1769695734.520789,0.000000
72.000000,8779.318187,12243.972688,-2033.315841,-3868.192895,-726.319936,-16303.362406,-4200.473929,-579.647789,14425.927630,9310.216821,-14549.063390,8163.885255,13031.581108,-5451.277548,-11570.402869,4139.163093,0.014000,-0.012000,1.016000,192.000000,0.000000,56.000000,127.500000,80.000000,15.500000,96.000000,0.000000,0.000000,0.000000,1769695734.520806,0.000000
74.000000,8805.894411,12272.180590,-2008.438350,-3843.784790,-704.750503,-16286.263321,-4175.261161,-551.238722,14481.002329,9364.777430,-14492.982864,8216.657724,13083.370099,-5395.107614,-11515.909316,4159.771402,0.014000,-0.012000,1.016000,192.000000,0.000000,0.000000,0.000000,0.000000,0.000000,0.000000,0.000000,0.000000,0.000000,1769695734.999138,0.000000
76.000000,8756.005318,12219.743397,-2062.507220,-3895.663189,-754.997224,-16343.081456,-4225.574938,-602.647734,14446.088904,9331.808607,-14528.186861,8182.727776,13049.641317,-5433.776132,-11550.800389,4154.675204,0.014000,-0.012000,1.016000,192.000000,0.000000,0.000000,0.000000,0.000000,0.000000,0.000000,0.000000,0.000000,0.000000,1769695734.999207,0.000000
78.000000,8807.213164,12274.035784,-2016.172053,-3848.456305,-710.696067,-16297.416842,-4180.960856,-551.976329,14448.189968,9339.184682,-14525.817576,8194.216573,13065.622814,-5438.045316,-11551.470941,4149.467248,0.014000,-0.012000,1.016000,192.000000,0.000000,0.000000,0.000000,0.000000,0.000000,0.000000,0.000000,0.000000,0.000000,1769695734.999264,0.000000
80.000000,8752.138466,12216.144766,-2063.937731,-3905.989695,-754.729003,-16355.509026,-4230.715839,-608.123911,14466.026660,9353.378040,-14507.645608,8202.307904,13073.155352,-5412.184347,-11529.365066,4165.471097,0.014000,-0.012000,1.016000,192.000000,0.000000,0.000000,0.000000,0.000000,0.000000,0.000000,0.000000,0.000000,0.000000,1769695734.999316,0.000000
82.000000,8760.654481,12224.549022,-2053.968853,-3897.004294,-741.362660,-16339.773397,-4222.825673,-604.413522,14399.798441,9283.394728,-14578.835914,8137.353735,13002.523840,-5484.402834,-11587.591361,4120.924070,0.008000,-0.014000,1.014000,192.000000,0.000000,32.000000,127.500000,72.000000,15.500000,88.000000,0.000000,0.000000,0.000000,1769695734.999371,0.000000
84.000000,8809.537746,12275.980386,-2007.745446,-3845.841151,-681.214116,-16272.427591,-4174.769422,-558.860667,14480.354128,9368.800744,-14498.213172,8214.668419,13086.119364,-5405.411769,-11492.931723,4187.778138,0.008000,-0.014000,1.014000,192.000000,0.000000,0.000000,0.000000,0.000000,0.000000,0.000000,0.000000,0.000000,0.000000,1769695734.999426,0.000000
86.000000,8720.622506,12184.852324,-2108.261241,-3938.042097,-767.223628,-16359.308822,-4273.430022,-651.530999,14416.182270,9299.443281,-14568.799981,8146.450895,13020.516994,-5466.946121,-11558.087058,4166.387518,0.008000,-0.014000,1.014000,192.000000,0.000000,0.000000,0.000000,0.000000,0.000000,0.000000,0.000000,0.000000,0.000000,1769695734.999445,0.000000
88.000000,8848.809761,12318.672218,-1986.555992,-3809.854842,-641.852694,-16210.356797,-4156.351585,-522.963765,14447.899395,9336.234252,-14537.507538,8181.207857,13051.697678,-5428.411714,-11537.322287,4189.566277,0.008000,-0.014000,1.014000,192.000000,0.000000,0.000000,0.000000,0.000000,0.000000,0.000000,0.000000,0.000000,0.000000,1769695734.999514,0.000000
90.000000,8782.805059,12249.158293,-2053.879446,-3882.430957,-709.109093,-16279.580150,-4225.306717,-592.254173,14516.251030,9405.234087,-14468.574759,8241.959899,13128.878251,-5353.712184,-11482.851086,4250.564188,0.008000,-0.014000,1.014000,192.000000,0.000000,0.000000,0.000000,0.000000,0.000000,0.000000,0.000000,0.000000,0.000000,1769695734.999542,0.000000
92.000000,8806.609667,12271.510037,-2033.025269,-3872.238561,-695.742750,-16269.924196,-4211.068655,-571.087071,14427.469901,9313.301362,-14562.899120,8154.743392,13052.569396,-5449.131781,-11588.194858,4152.015347,0.010000,-0.020000,1.004000,192.000000,0.000000,40.000000,127.500000,48.000000,15.500000,48.000000,0.000000,0.000000,0.000000,1769695734.999560,0.000000
94.000000,8863.226636,12326.763550,-1971.177992,-3819.644906,-648.379403,-16228.864041,-4154.384631,-513.084294,14541.374390,9426.959983,-14446.938270,8261.562379,13137.684838,-5349.957091,-11483.834563,4202.127958,0.010000,-0.020000,1.004000,192.000000,0.000000,0.000000,0.000000,0.000000,0.000000,0.000000,0.000000,0.000000,0.000000,1769695734.999576,0.000000
96.000000,8775.049004,12235.009639,-2064.742394,-3915.623297,-745.005994,-16342.343848,-4240.751772,-604.949964,14467.971261,9341.352801,-14521.347227,8186.281703,13069.690832,-5425.461283,-11555.807180,4144.683974,0.010000,-0.020000,1.004000,192.000000,0.000000,0.000000,0.000000,0.000000,0.000000,0.000000,0.000000,0.000000,0.000000,1769695734.999593,0.000000
98.000000,8856.275243,12322.784939,-1982.286809,-3828.451494,-679.649494,-16270.438286,-4154.742259,-517.107608,14471.033450,9347.186607,-14514.798166,8198.105776,13070.696660,-5421.281507,-11554.264910,4126.757875,0.010000,-0.020000,1.004000,192.000000,0.000000,0.000000,0.000000,0.000000,0.000000,0.000000,0.000000,0.000000,0.000000,1769695734.999609,0.000000
100.000000,8776.926550,12240.485816,-2055.824048,-3900.111187,-759.780498,-16348.669392,-4220.456388,-588.007341,14515.938105,9394.974636,-14462.316270,8247.816056,13114.796652,-5389.497327,-11499.525487,4179.910324,0.010000,-0.020000,1.004000,192.000000,0.000000,0.000000,0.000000,0.000000,0.000000,0.000000,0.000000,0.000000,0.000000,1769695734.999626,0.000000
102.000000,8786.135469,12250.611156,-2044.625824,-3882.095680,-759.780498,-16337.962906,-4206.486548,-575.333902,14401.541877,9281.606589,-14577.561865,8144.215720,13006.971837,-5496.092796,-11610.412492,4098.795843,0.006000,-0.008000,1.006000,192.000000,0.000000,24.000000,127.500000,96.000000,15.500000,56.000000,0.000000,0.000000,0.000000,1769695734.999642,0.000000
104.000000,8827.530900,12294.711148,-2006.136120,-3844.991785,-716.865148,-16290.107821,-4168.801507,-538.945262,14489.026605,9382.301197,-14480.532942,8235.142617,13101.095033,-5398.169803,-11510.075511,4172.042510,0.006000,-0.008000,1.006000,192.000000,0.000000,0.000000,0.000000,0.000000,0.000000,0.000000,0.000000,0.000000,0.000000,1769695734.999660,0.000000
106.000000,8734.033553,12198.173964,-2100.594592,-3940.545492,-793.598687,-16373.479828,-4265.651615,-637.203531,14421.971371,9312.049665,-14552.237338,8164.198180,12997.897029,-5461.224075,-11576.996634,4143.700498,0.006000,-0.008000,1.006000,192.000000,0.000000,0.000000,0.000000,0.000000,0.000000,0.000000,0.000000,0.000000,0.000000,1769695734.999677,0.000000
108.000000,8848.854464,12313.039579,-1987.047730,-3830.060819,-662.148078,-16245.873719,-4161.604245,-526.987079,14438.690476,9330.221633,-14536.367600,8181.476078,13030.552927,-5438.514702,-11550.867444,4151.434201,0.006000,-0.008000,1.006000,192.000000,0.000000,0.000000,0.000000,0.000000,0.000000,0.000000,0.000000,0.000000,0.000000,1769695734.999693,0.000000
110.000000,8790.181135,12248.666555,-2048.604435,-3895.462024,-709.265555,-16293.885266,-4226.625470,-591.695379,14511.490108,9398.550916,-14468.708869,8241.244643,13115.668370,-5376.622722,-11477.352557,4227.296022,0.006000,-0.008000,1.006000,192.000000,0.000000,0.000000,0.000000,0.000000,0.000000,0.000000,0.000000,0.000000,0.000000,1769695734.999710,0.000000
112.000000,8801.960504,12259.350688,-2040.244882,-3888.421224,-692.881726,-16277.344975,-4222.468045,-583.604048,14416.674008,9297.096347,-14571.079859,8145.802694,13017.767729,-5472.399947,-11578.158924,4161.157210,0.014000,-0.006000,1.002000,192.000000,0.000000,56.000000,127.500000,104.000000,15.500000,40.000000,0.000000,0.000000,0.000000,1769695734.999743,0.000000
114.000000,8864.143057,12320.952096,-1979.246972,-3830.284337,-632.464961,-16219.766881,-4166.275759,-522.762599,14527.672771,9415.113558,-14455.297822,8256.354422,13125.726655,-5356.953187,-11468.143638,4234.135656,0.014000,-0.006000,1.002000,192.000000,0.000000,0.000000,0.000000,0.000000,0.000000,0.000000,0.000000,0.000000,0.000000,1769695734.999761,0.000000
116.000000,8768.298777,12223.319676,-2080.589781,-3929.213158,-735.394744,-16323.411920,-4266.009243,-618.986859,14458.963508,9337.620060,-14531.696085,8183.644197,13061.621852,-5431.608013,-11552.342660,4173.316559,0.014000,-0.006000,1.002000,192.000000,0.000000,0.000000,0.000000,0.000000,0.000000,0.000000,0.000000,0.000000,0.000000,1769695734.999778,0.000000
118.000000,8893.200325,12350.992841,-1964.360710,-3814.794578,-630.945042,-16214.693035,-4150.361317,-495.180547,14472.486314,9353.445095,-14516.407492,8202.442015,13066.583939,-5438.402943,-11551.515645,4151.791829,0.014000,-0.006000,1.002000,192.000000,0.000000,0.000000,0.000000,0.000000,0.000000,0.000000,0.000000,0.000000,0.000000,1769695734.999794,0.000000
120.000000,8815.907993,12270.593616,-2040.446048,-3887.393044,-719.167378,-16296.746289,-4219.964650,-573.568114,14549.197501,9432.190291,-14438.109331,8275.755736,13147.988993,-5355.254454,-11486.069737,4209.369923,0.014000,-0.006000,1.002000,192.000000,0.000000,0.000000,0.000000,0.000000,0.000000,0.000000,0.000000,0.000000,0.000000,1769695734.999809,0.000000
122.000000,8813.784577,12270.884189,-2040.177827,-3884.152041,-731.013802,-16313.174822,-4215.941336,-572.070548,14425.927630,9304.315961,-14564.016707,8158.699651,13006.837726,-5471.014139,-11614.614620,4108.384741,0.006000,-0.008000,0.996000,192.000000,0.000000,24.000000,127.500000,96.000000,15.500000,16.000000,0.000000,0.000000,0.000000,1769695734.999830,0.000000
124.000000,8876.458869,12336.173634,-1977.727053,-3819.846072,-673.212191,-16253.719181,-4152.507085,-509.530367,14536.322896,9425.305954,-14446.267718,8271.106573,13132.990972,-5354.650957,-11497.916162,4194.260144,0.006000,-0.008000,0.996000,192.000000,0.000000,0.000000,0.000000,0.000000,0.000000,0.000000,0.000000,0.000000,0.000000,1769695734.999846,0.000000
126.000000,8789.443527,12249.605328,-2065.122374,-3907.196690,-757.142992,-16340.645115,-4238.695412,-598.870289,14464.126761,9353.154523,-14518.374445,8202.687884,13048.769599,-5440.436952,-11565.217264,4161.626597,0.006000,-0.008000,0.996000,192.000000,0.000000,0.000000,0.000000,0.000000,0.000000,0.000000,0.000000,0.000000,0.000000,1769695734.999862,0.000000
128.000000,8851.760191,12315.587677,-1995.653152,-3839.895587,-686.779700,-16265.632661,-4174.232981,-536.084239,14458.024735,9356.015546,-14523.805919,8204.610134,13053.485817,-5426.601222,-11557.371802,4152.663547,0.006000,-0.008000,0.996000,192.000000,0.000000,0.000000,0.000000,0.000000,0.000000,0.000000,0.000000,0.000000,0.000000,1769695734.999879,0.000000
130.000000,8782.134507,12243.346839,-2054.974682,-3901.184070,-741.362660,-16322.339037,-4228.927699,-603.340638,14499.643683,9397.947418,-14483.706890,8235.433189,13093.942475,-5380.109594,-11499.793708,4198.596382,0.006000,-0.008000,0.996000,192.000000,0.000000,0.000000,0.000000,0.000000,0.000000,0.000000,0.000000,0.000000,0.000000,1769695734.999894,0.000000
132.000000,8785.889600,12247.101932,-2054.013557,-3898.054826,-733.450143,-16312.079586,-4229.933528,-601.463092,14401.452470,9297.342217,-14582.255731,8143.142836,13008.581163,-5472.623464,-11588.194858,4140.683012,0.007000,-0.007000,0.994000,192.000000,0.000000,32.000000,127.500000,104.000000,15.500000,0.000000,0.000000,0.000000,0.000000,1769695734.999909,0.000000
134.000000,8846.865159,12309.463299,-1996.770739,-3844.432991,-672.228714,-16239.682286,-4181.206725,-543.862646,14485.875009,9390.325474,-14493.765175,8225.643125,13077.089259,-5400.963771,-11500.687778,4205.726588,0.007000,-0.007000,0.994000,192.000000,0.000000,0.000000,0.000000,0.000000,0.000000,0.000000,0.000000,0.000000,0.000000,1769695734.999938,0.000000
136.000000,8787.342463,12246.632546,-2068.877467,-3917.947879,-724.777666,-16311.341978,-4259.236665,-607.229842,14451.229805,9348.415953,-14535.741751,8185.521744,13045.752114,-5441.018098,-11550.599223,4179.887972,0.007000,-0.007000,0.994000,192.000000,0.000000,0.000000,0.000000,0.000000,0.000000,0.000000,0.000000,0.000000,0.000000,1769695734.999954,0.000000
138.000000,8900.643456,12363.800390,-1964.427765,-3816.627421,-620.305612,-16211.228515,-4157.111544,-493.682980,14485.092698,9380.691872,-14503.152907,8224.950221,13070.651957,-5405.635286,-11535.668258,4162.140687,0.007000,-0.007000,0.994000,192.000000,0.000000,0.000000,0.000000,0.000000,0.000000,0.000000,0.000000,0.000000,0.000000,1769695734.999969,0.000000
140.000000,8831.464807,12291.157221,-2027.258519,-3881.603942,-681.236468,-16286.039804,-4214.153196,-562.504001,14551.455027,9447.948271,-14431.604973,8286.395167,13144.747990,-5354.270977,-11473.373946,4206.821824,0.007000,-0.007000,0.994000,192.000000,0.000000,0.000000,0.000000,0.000000,0.000000,0.000000,0.000000,0.000000,0.000000,1769695734.999985,0.000000
142.000000,8808.263696,12267.956110,-2045.609301,-3901.899326,-710.517253,-16314.851202,-4230.447618,-586.554478,14425.994685,9316.765883,-14559.121675,8163.415869,13027.267221,-5473.361072,-11592.955779,4110.508157,0.005500,-0.007500,0.997000,192.000000,0.000000,16.000000,127.500000,96.000000,15.500000,32.000000,0.000000,0.000000,0.000000,1769695735.000001,0.000000
144.000000,8872.212037,12332.865576,-1978.598771,-3830.664316,-653.743822,-16253.316850,-4159.726698,-521.980288,14520.408454,9412.140776,-14460.215206,8254.700393,13130.375818,-5387.552725,-11490.070699,4179.597399,0.005500,-0.007500,0.997000,192.000000,0.000000,0.000000,0.000000,0.000000,0.000000,0.000000,0.000000,0.000000,0.000000,1769695735.000017,0.000000
146.000000,8760.118039,12218.424644,-2089.798700,-3933.236472,-767.223628,-16362.885101,-4262.298854,-630.028621,14444.166654,9337.329487,-14538.200443,8184.068881,13041.080599,-5459.748859,-11563.965567,4145.086306,0.005500,-0.007500,0.997000,192.000000,0.000000,0.000000,0.000000,0.000000,0.000000,0.000000,0.000000,0.000000,0.000000,1769695735.000032,0.000000
148.000000,8860.745592,12322.986105,-1997.977733,-3835.358183,-684.745691,-16259.642394,-4171.886047,-530.250434,14445.597165,9344.884377,-14535.562937,8192.607247,13041.594689,-5420.588603,-11570.961663,4135.273890,0.005500,-0.007500,0.997000,192.000000,0.000000,0.000000,0.000000,0.000000,0.000000,0.000000,0.000000,0.000000,0.000000,1769695735.000049,0.000000
150.000000,8807.503737,12266.123267,-2045.542246,-3883.772061,-732.019631,-16313.577153,-4218.780007,-581.011245,14507.511497,9407.156337,-14470.139381,8244.306832,13114.304914,-5384.736405,-11515.104653,4192.829632,0.005500,-0.007500,0.997000,192.000000,0.000000,0.000000,0.000000,0.000000,0.000000,0.000000,0.000000,0.000000,0.000000,1769695735.000066,0.000000
152.000000,8813.851632,12274.326357,-2038.859074,-3874.339625,-725.001183,-16300.926066,-4218.265917,-577.345559,14423.424235,9322.689095,-14558.853454,8159.258444,13025.568488,-5471.997615,-11600.354207,4144.751030,0.003750,-0.007750,1.000500,192.000000,0.000000,8.000000,127.500000,96.000000,15.500000,48.000000,0.000000,0.000000,0.000000,1769695735.000081,0.000000
154.000000,8866.758211,12328.797558,-1980.878649,-3816.962697,-666.663130,-16233.513204,-4165.940483,-526.651803,14512.942971,9421.953192,-14464.797314,8252.711088,13108.515812,-5343.743306,-11498.229086,4216.231908,0.003750,-0.007750,1.000500,192.000000,0.000000,0.000000,0.000000,0.000000,0.000000,0.000000,0.000000,0.000000,0.000000,1769695735.000110,0.000000
156.000000,8763.180228,12223.230269,-2082.914362,-3920.585384,-755.690128,-16330.922107,-4267.685624,-632.710830,14447.094732,9358.563645,-14537.731056,8187.622808,13070.003756,-5409.613897,-11552.342660,4186.146460,0.003750,-0.007750,1.000500,192.000000,0.000000,0.000000,0.000000,0.000000,0.000000,0.000000,0.000000,0.000000,0.000000,1769695735.000126,0.000000
158.000000,8869.105145,12332.262079,-1977.190611,-3824.562290,-654.459078,-16236.262469,-4168.510934,-527.478817,14445.463055,9355.948491,-14541.039114,8188.069843,13027.736608,-5421.795597,-11551.001555,4158.899684,0.003750,-0.007750,1.000500,192.000000,0.000000,0.000000,0.000000,0.000000,0.000000,0.000000,0.000000,0.000000,0.000000,1769695735.000142,0.000000
160.000000,8822.367647,12280.562494,-2028.979603,-3882.006274,-705.331648,-16295.069909,-4217.483606,-576.585600,14521.458986,9426.423541,-14465.400811,8248.844236,13123.200908,-5357.489628,-11486.159144,4199.937487,0.003750,-0.007750,1.000500,192.000000,0.000000,0.000000,0.000000,0.000000,0.000000,0.000000,0.000000,0.000000,0.000000,1769695735.000158,0.000000
162.000000,8824.580470,12285.189305,-2037.003879,-3887.214230,-712.640668,-16303.407109,-4223.317411,-579.245458,14451.006287,9341.106932,-14539.921527,8175.776383,13052.010602,-5441.733353,-11574.023852,4130.624727,0.004875,-0.009875,1.001250,192.000000,0.000000,24.000000,127.500000,80.000000,15.500000,40.000000,0.000000,0.000000,0.000000,1769695735.000174,0.000000
164.000000,8886.740671,12347.461265,-1970.485088,-3825.858691,-647.507685,-16242.588013,-4158.139725,-516.213538,14527.493957,9427.854053,-14456.817741,8256.265015,13129.057065,-5364.418669,-11501.850069,4165.135821,0.004875,-0.009875,1.001250,192.000000,0.000000,0.000000,0.000000,0.000000,0.000000,0.000000,0.000000,0.000000,0.000000,1769695735.000190,0.000000
166.000000,8777.261827,12232.260374,-2075.024197,-3933.214120,-749.632806,-16355.933709,-4262.075336,-627.435819,14466.808971,9354.383869,-14522.867146,8188.829802,13072.171875,-5451.031679,-11559.718735,4133.217529,0.004875,-0.009875,1.001250,192.000000,0.000000,0.000000,0.000000,0.000000,0.000000,0.000000,0.000000,0.000000,0.000000,1769695735.000206,0.000000
168.000000,8882.784412,12340.532224,-1967.601713,-3822.394171,-646.211284,-16250.075847,-4155.122239,-517.912271,14472.933349,9359.211845,-14516.832175,8199.960971,13074.049422,-5431.183330,-11546.330040,4131.094114,0.004875,-0.009875,1.001250,192.000000,0.000000,0.000000,0.000000,0.000000,0.000000,0.000000,0.000000,0.000000,0.000000,1769695735.000223,0.000000
170.000000,8804.039217,12258.188398,-2042.569464,-3892.153965,-720.173206,-16325.736502,-4225.753751,-594.288182,14521.347227,9409.167994,-14465.154942,8243.435114,13135.315554,-5375.102803,-11491.948246,4186.437033,0.004875,-0.009875,1.001250,192.000000,0.000000,0.000000,0.000000,0.000000,0.000000,0.000000,0.000000,0.000000,0.000000,1769695735.000240,0.000000
172.000000,8794.025635,12251.728744,-2055.958158,-3895.193803,-732.667832,-16336.577098,-4237.287252,-604.726446,14419.311514,9306.014694,-14571.348080,8146.450895,13020.740512,-5477.563200,-11592.665207,4122.555747,0.007437,-0.011938,0.999625,192.000000,0.000000,40.000000,127.500000,72.000000,15.500000,24.000000,0.000000,0.000000,0.000000,1769695735.000256,0.000000
174.000000,8842.908900,12302.936590,-2008.259536,-3846.399945,-679.671845,-16279.602501,-4189.834498,-557.899542,14491.865276,9384.469317,-14495.218038,8219.384637,13093.629550,-5404.115367,-11517.429235,4171.103736,0.007437,-0.011938,0.999625,192.000000,0.000000,0.000000,0.000000,0.000000,0.000000,0.000000,0.000000,0.000000,0.000000,1769695735.000272,0.000000
176.000000,8753.770143,12212.434377,-2093.263220,-3930.531911,-753.343195,-16354.972584,-4276.313397,-648.379403,14442.132645,9337.731819,-14551.879710,8167.305072,13061.152465,-5437.911205,-11560.992785,4165.404041,0.007437,-0.011938,0.999625,192.000000,0.000000,0.000000,0.000000,0.000000,0.000000,0.000000,0.000000,0.000000,0.000000,1769695735.000288,0.000000
178.000000,8854.710621,12317.018189,-1997.106015,-3828.786770,-658.370633,-16239.592879,-4186.325274,-548.780030,14447.966450,9340.034049,-14552.952594,8171.507200,13075.882265,-5425.394228,-11558.243520,4161.447783,0.007437,-0.011938,0.999625,192.000000,0.000000,0.000000,0.000000,0.000000,0.000000,0.000000,0.000000,0.000000,0.000000,1769695735.000304,0.000000
180.000000,8811.951734,12271.487686,-2037.674432,-3871.009215,-691.004180,-16264.895053,-4226.781932,-589.862536,14526.644591,9424.545994,-14469.200607,8244.306832,13119.468167,-5346.581977,-11480.593560,4244.171589,0.007437,-0.011938,0.999625,192.000000,0.000000,0.000000,0.000000,0.000000,0.000000,0.000000,0.000000,0.000000,0.000000,1769695735.000321,0.000000
182.000000,8816.042103,12276.025090,-2037.272100,-3870.562180,-696.122729,-16256.826074,-4228.480664,-584.162841,14431.917898,9334.513168,-14563.949652,8162.097116,13025.769654,-5434.491388,-11578.583608,4171.193143,0.010719,-0.015969,1.002813,192.000000,0.000000,56.000000,127.500000,48.000000,15.500000,56.000000,0.000000,0.000000,0.000000,1769695735.000337,0.000000
184.000000,8881.018624,12344.600242,-1983.583210,-3811.508871,-646.121877,-16200.253809,-4172.847172,-523.164931,14523.649457,9437.152378,-14464.819666,8257.807286,13120.719864,-5324.945489,-11493.803441,4210.867490,0.010719,-0.015969,1.002813,192.000000,0.000000,0.000000,0.000000,0.000000,0.000000,0.000000,0.000000,0.000000,0.000000,1769695735.000354,0.000000
186.000000,8797.445452,12258.724840,-2068.832763,-3899.328875,-732.690183,-16297.394490,-4252.754659,-607.095731,14471.525189,9390.526639,-14518.910887,8208.924020,13063.946434,-5373.784050,-11555.538959,4165.828725,0.010719,-0.015969,1.002813,192.000000,0.000000,0.000000,0.000000,0.000000,0.000000,0.000000,0.000000,0.000000,0.000000,1769695735.000376,0.000000
188.000000,8893.714415,12359.553559,-1974.307236,-3810.234822,-648.826438,-16214.201297,-4159.413774,-510.111512,14471.815762,9387.062119,-14518.106224,8213.304962,13057.084448,-5374.655768,-11563.429125,4134.022192,0.010719,-0.015969,1.002813,192.000000,0.000000,0.000000,0.000000,0.000000,0.000000,0.000000,0.000000,0.000000,0.000000,1769695735.000392,0.000000
190.000000,8823.507586,12287.268017,-2031.080667,-3881.447480,-703.476453,-16299.920237,-4217.796530,-574.752757,14544.525986,9452.999765,-14441.730314,8278.996739,13142.825740,-5334.199111,-11478.604255,4193.231963,0.010719,-0.015969,1.002813,192.000000,0.000000,0.000000,0.000000,0.000000,0.000000,0.000000,0.000000,0.000000,0.000000,1769695735.000407,0.000000
192.000000,8811.549403,12274.594578,-2040.557807,-3893.003332,-712.417151,-16326.384702,-4230.961708,-586.688588,14418.149223,9319.939830,-14568.196484,8157.336194,13013.520898,-5464.934464,-11592.396986,4090.816270,0.013359,-0.013984,1.002406,192.000000,0.000000,64.000000,127.500000,80.000000,15.500000,40.000000,0.000000,0.000000,0.000000,1769695735.000423,0.000000
194.000000,8869.216903,12331.323306,-1973.010835,-3819.399037,-641.696232,-16260.938795,-4166.812201,-528.037611,14519.469681,9418.063988,-14464.305575,8252.800495,13127.805367,-5363.837524,-11479.073641,4171.707233,0.013359,-0.013984,1.002406,192.000000,0.000000,0.000000,0.000000,0.000000,0.000000,0.000000,0.000000,0.000000,0.000000,1769695735.480798,0.000000
196.000000,8753.412515,12213.909592,-2082.221458,-3920.652440,-739.038079,-16363.332136,-4269.719633,-642.702060,14450.738067,9342.068057,-14537.842815,8183.331273,13065.421649,-5441.331022,-11534.170691,4156.306881,0.013359,-0.013984,1.002406,192.000000,0.000000,0.000000,0.000000,0.000000,0.000000,0.000000,0.000000,0.000000,0.000000,1769695735.480889,0.000000
198.000000,8837.522130,12303.271866,-1998.938858,-3833.570043,-648.602921,-16260.223539,-4188.269876,-562.615760,14439.852767,9339.207034,-14554.494864,8174.837610,13068.327375,-5432.569138,-11536.159997,4152.909416,0.013359,-0.013984,1.002406,192.000000,0.000000,0.000000,0.000000,0.000000,0.000000,0.000000,0.000000,0.000000,0.000000,1769695735.480941,0.000000
200.000000,8790.650522,12253.271014,-2045.899873,-3882.252143,-683.985732,-16293.326472,-4231.654612,-611.767246,14503.845811,9398.707378,-14493.765175,8224.726704,13116.249516,-5369.268998,-11471.049365,4220.925775,0.013359,-0.013984,1.002406,192.000000,0.000000,0.000000,0.000000,0.000000,0.000000,0.000000,0.000000,0.000000,0.000000,1769695735.480992,0.000000
202.000000,8764.834257,12226.024237,-2076.320598,-3914.863338,-710.427846,-16306.581057,-4265.718671,-639.438705,14400.893676,9290.882563,-14602.126432,8124.456778,13031.201128,-5478.166697,-11579.991767,4149.556655,0.013359,-0.013984,1.002406,192.000000,0.000000,0.000000,0.000000,0.000000,0.000000,0.000000,0.000000,0.000000,0.000000,1769695735.481045,0.000000
204.000000,8846.149903,12306.803442,-1995.697855,-3833.927671,-635.638909,-16211.295570,-4185.900591,-555.776126,14493.742823,9385.229276,-14505.902172,8216.657724,13103.084338,-5378.254399,-11494.764566,4215.516653,0.012000,-0.012000,1.008000,192.000000,0.000000,48.000000,127.500000,80.000000,15.500000,64.000000,0.000000,0.000000,0.000000,1769695735.481093,0.000000
206.000000,8766.823562,12224.929002,-2079.002807,-3911.845852,-731.036154,-16301.462507,-4260.935397,-632.688479,14460.282261,9349.041802,-14539.742713,8183.018349,13072.015413,-5423.024943,-11540.295069,4207.514728,0.012000,-0.012000,1.008000,192.000000,0.000000,0.000000,0.000000,0.000000,0.000000,0.000000,0.000000,0.000000,0.000000,1769695735.481141,0.000000
208.000000,8860.142095,12324.841300,-1992.747425,-3823.735276,-665.456136,-16229.020504,-4171.684882,-537.335937,14456.258947,9350.137037,-14538.066332,8191.400253,13047.964936,-5405.948210,-11554.153151,4175.059995,0.012000,-0.012000,1.008000,192.000000,0.000000,0.000000,0.000000,0.000000,0.000000,0.000000,0.000000,0.000000,0.000000,1769695735.481178,0.000000
210.000000,8810.744740,12274.438116,-2045.117562,-3878.988788,-729.538587,-16301.417804,-4220.881071,-585.325132,14516.116919,9416.454663,-14469.893512,8253.448695,13105.073643,-5368.710204,-11501.514793,4199.356341,0.012000,-0.012000,1.008000,192.000000,0.000000,0.000000,0.000000,0.000000,0.000000,0.000000,0.000000,0.000000,0.000000,1769695735.481190,0.000000
212.000000,8815.125682,12281.054232,-2050.504333,-3880.955742,-726.699916,-16305.396414,-4228.793589,-583.559344,14419.937363,9323.627868,-14565.871902,8167.260369,13023.735645,-5468.778964,-11605.271590,4107.937706,0.012000,-0.012000,1.008000,192.000000,0.000000,0.000000,0.000000,0.000000,0.000000,0.000000,0.000000,0.000000,0.000000,1769695735.481202,0.000000
214.000000,8884.326683,12348.847073,-1983.203230,-3817.789712,-663.355072,-16246.141940,-4166.387518,-517.442884,14526.063445,9429.150454,-14460.148151,8266.725632,13107.688797,-5346.649032,-11507.080377,4166.968664,0.012000,-0.016000,1.006000,192.000000,0.000000,48.000000,127.500000,64.000000,15.500000,56.000000,0.000000,0.000000,0.000000,1769695735.481215,0.000000
216.000000,8811.124720,12268.917235,-2054.035908,-3897.607791,-715.434637,-16322.897830,-4239.030688,-592.634152,14478.901265,9377.897904,-14510.394872,8214.444901,13069.534370,-5395.241725,-11551.403886,4144.706326,0.012000,-0.016000,1.006000,192.000000,0.000000,0.000000,0.000000,0.000000,0.000000,0.000000,0.000000,0.000000,0.000000,1769695735.481227,0.000000
218.000000,8886.025415,12347.394210,-1970.887419,-3822.595337,-631.079153,-16241.336315,-4163.347681,-514.067771,14484.220980,9376.266226,-14505.745710,8217.462387,13088.622759,-5409.055103,-11537.501101,4136.950271,0.012000,-0.016000,1.006000,192.000000,0.000000,0.000000,0.000000,0.000000,0.000000,0.000000,0.000000,0.000000,0.000000,1769695735.481247,0.000000
220.000000,8817.472615,12278.997872,-2027.057353,-3881.201611,-680.074177,-16301.015473,-4217.528310,-575.579771,14542.380219,9433.307878,-14446.357125,8270.190152,13143.339830,-5347.408992,-11464.343842,4200.004542,0.012000,-0.016000,1.006000,192.000000,0.000000,0.000000,0.000000,0.000000,0.000000,0.000000,0.000000,0.000000,0.000000,1769695735.481259,0.000000
222.000000,8811.348237,12273.253473,-2033.829931,-3878.139422,-683.203421,-16304.681159,-4222.937432,-581.301818,14430.174462,9317.570545,-14559.591062,8165.561636,13042.332297,-5477.451441,-11566.267796,4129.484788,0.012000,-0.016000,1.006000,192.000000,0.000000,0.000000,0.000000,0.000000,0.000000,0.000000,0.000000,0.000000,0.000000,1769695735.481271,0.000000
224.000000,8851.067287,12316.325285,-1994.781434,-3825.702229,-643.685537,-16259.642394,-4177.764556,-538.788800,14512.115957,9403.334189,-14473.268625,8247.771352,13116.048350,-5379.751966,-11475.027975,4197.590553,0.010000,-0.010000,1.010000,192.000000,0.000000,40.000000,127.500000,88.000000,15.500000,72.000000,0.000000,0.000000,0.000000,1769695735.481283,0.000000
226.000000,8755.826504,12220.168080,-2087.965857,-3913.365771,-730.231491,-16346.389514,-4265.852781,-631.302670,14449.866348,9343.766790,-14539.206271,8184.582971,13065.868684,-5432.837359,-11533.433084,4175.730547,0.010000,-0.010000,1.010000,192.000000,0.000000,0.000000,0.000000,0.000000,0.000000,0.000000,0.000000,0.000000,0.000000,1769695735.481295,0.000000
228.000000,8849.368554,12313.419558,-1993.932068,-3823.735276,-643.976110,-16241.269260,-4179.843268,-539.057021,14445.396000,9335.273127,-14543.408399,8183.353625,13048.411971,-5449.064726,-11542.440837,4163.973530,0.010000,-0.010000,1.010000,192.000000,0.000000,0.000000,0.000000,0.000000,0.000000,0.000000,0.000000,0.000000,0.000000,1769695735.481307,0.000000
230.000000,8810.029484,12267.620834,-2024.509254,-3864.102526,-672.608694,-16269.901844,-4219.808187,-583.402882,14521.615448,9411.514927,-14468.775924,8247.145503,13118.484690,-5345.799666,-11472.770449,4226.133731,0.010000,-0.010000,1.010000,192.000000,0.000000,0.000000,0.000000,0.000000,0.000000,0.000000,0.000000,0.000000,0.000000,1769695735.481319,0.000000
232.000000,8804.486251,12262.770505,-2023.726943,-3867.030605,-668.160697,-16257.720144,-4222.579804,-586.018036,14436.879985,9321.057418,-14557.311184,8166.768630,13050.311869,-5445.197874,-11551.962680,4172.467193,0.010000,-0.010000,1.010000,192.000000,0.000000,0.000000,0.000000,0.000000,0.000000,0.000000,0.000000,0.000000,0.000000,1769695735.481331,0.000000
234.000000,8857.415182,12320.259192,-1978.039977,-3814.504005,-623.501912,-16190.351986,-4178.680978,-532.373849,14513.859393,9411.984314,-14476.777849,8247.436076,13131.694571,-5366.407975,-11477.486667,4213.549699,0.008000,-0.014000,1.014000,192.000000,0.000000,32.000000,127.500000,72.000000,15.500000,88.000000,0.000000,0.000000,0.000000,1769695735.481343,0.000000
236.000000,8791.254019,12250.097066,-2051.867789,-3888.197707,-702.157700,-16270.058306,-4249.759525,-598.535013,14485.405622,9383.284674,-14506.080986,8215.763654,13085.940550,-5375.862762,-11520.714941,4199.803376,0.008000,-0.014000,1.014000,192.000000,0.000000,0.000000,0.000000,0.000000,0.000000,0.000000,0.000000,0.000000,0.000000,1769695735.481354,0.000000
238.000000,8880.325720,12345.449608,-1976.654169,-3799.997723,-638.410525,-16197.437489,-4164.599379,-503.607154,14482.075212,9381.876514,-14503.734053,8221.597460,13077.402184,-5393.051254,-11539.244537,4167.259236,0.008000,-0.014000,1.014000,192.000000,0.000000,0.000000,0.000000,0.000000,0.000000,0.000000,0.000000,0.000000,0.000000,1769695735.481366,0.000000
240.000000,8827.128569,12287.044500,-2027.526740,-3856.681747,-695.854508,-16267.331394,-4204.944277,-550.434059,14552.326745,9456.576044,-14426.084092,8289.367949,13136.813120,-5323.202052,-11476.771412,4219.629374,0.008000,-0.014000,1.014000,192.000000,0.000000,0.000000,0.000000,0.000000,0.000000,0.000000,0.000000,0.000000,0.000000,1769695735.481385,0.000000
242.000000,8817.874946,12278.752003,-2032.444123,-3862.873180,-707.611526,-16286.643301,-4209.839309,-557.206638,14443.943136,9337.910633,-14536.457007,8189.612113,13039.784198,-5447.924787,-11586.496125,4135.028021,0.008000,-0.014000,1.014000,192.000000,0.000000,0.000000,0.000000,0.000000,0.000000,0.000000,0.000000,0.000000,0.000000,1769695735.481397,0.000000
244.000000,8864.500685,12326.472977,-1980.565724,-3810.614802,-659.577627,-16244.398504,-4161.805411,-513.441922,14532.120768,9432.391457,-14446.826511,8279.354367,13106.638265,-5354.092163,-11491.255342,4196.741187,0.006000,-0.014000,1.008000,192.000000,0.000000,24.000000,127.500000,72.000000,15.500000,64.000000,0.000000,0.000000,0.000000,1769695735.481409,0.000000
246.000000,8755.312414,12220.771577,-2077.281723,-3905.117977,-752.337367,-16338.231127,-4253.313452,-615.030600,14451.050991,9364.285691,-14528.231565,8205.683017,13032.519881,-5427.964679,-11553.795523,4159.547884,0.006000,-0.014000,1.008000,192.000000,0.000000,0.000000,0.000000,0.000000,0.000000,0.000000,0.000000,0.000000,0.000000,1769695735.481421,0.000000
248.000000,8819.596031,12288.318549,-2012.439312,-3840.946119,-687.092625,-16268.426629,-4194.148385,-551.305777,14437.885813,9353.556854,-14539.340382,8195.512974,13038.040762,-5442.716830,-11557.215340,4145.712155,0.006000,-0.014000,1.008000,192.000000,0.000000,0.000000,0.000000,0.000000,0.000000,0.000000,0.000000,0.000000,0.000000,1769695735.481433,0.000000
250.000000,8769.170495,12233.020333,-2050.303167,-3882.766233,-708.974982,-16306.715167,-4230.984060,-596.255135,14485.450326,9399.020302,-14484.958587,8236.461370,13088.913332,-5380.601332,-11492.104708,4197.367036,0.006000,-0.014000,1.008000,192.000000,0.000000,0.000000,0.000000,0.000000,0.000000,0.000000,0.000000,0.000000,0.000000,1769695735.481446,0.000000
252.000000,8747.109323,12209.662760,-2073.884258,-3908.135463,-720.642593,-16314.538278,-4258.230836,-621.892586,14399.664330,9302.483118,-14576.936016,8146.495598,13010.279895,-5477.116165,-11570.179352,4151.747126,0.006000,-0.014000,1.008000,192.000000,0.000000,0.000000,0.000000,0.000000,0.000000,0.000000,0.000000,0.000000,0.000000,1769695735.481458,0.000000
254.000000,8837.365668,12298.443889,-1980.364559,-3824.696401,-618.338659,-16221.197393,-4173.763594,-536.643033,14490.412413,9387.889133,-14492.044090,8220.837500,13110.952152,-5404.025960,-11486.427365,4197.054112,0.006000,-0.012000,1.002000,192.000000,0.000000,24.000000,127.500000,80.000000,15.500000,40.000000,0.000000,0.000000,0.000000,1769695735.481470,0.000000
0.000000,8733.720628,12193.189525,-2073.794851,-3929.593137,-714.942898,-16322.003761,-4271.932456,-644.333737,14464.864369,9354.406220,-14528.432730,8182.973645,13077.536294,-5414.397170,-11518.591525,4180.267952,0.006000,-0.012000,1.002000,192.000000,0.000000,0.000000,0.000000,0.000000,0.000000,0.000000,0.000000,0.000000,0.000000,1769695735.481481,0.000000
2.000000,8841.277223,12307.250477,-1973.524925,-3826.775113,-615.768208,-16219.655123,-4177.362225,-541.560416,14454.806084,9353.400392,-14541.217928,8181.587837,13080.598483,-5408.138681,-11531.980220,4147.276777,0.006000,-0.012000,1.002000,192.000000,0.000000,0.000000,0.000000,0.000000,0.000000,0.000000,0.000000,0.000000,0.000000,1769695735.481493,0.000000
4.000000,8792.773937,12255.640299,-2023.637536,-3871.545657,-663.198610,-16273.254606,-4221.484568,-585.615705,14527.963344,9433.754913,-14467.792448,8253.336937,13158.941347,-5349.666518,-11468.277749,4197.590553,0.006000,-0.012000,1.002000,192.000000,0.000000,0.000000,0.000000,0.000000,0.000000,0.000000,0.000000,0.000000,0.000000,1769695735.481505,0.000000
6.000000,8781.508658,12244.285613,-2039.127295,-3881.648646,-687.427901,-16286.397432,-4231.095818,-588.297914,14432.342581,9332.814435,-14560.283966,8168.176790,13046.132093,-5427.428237,-11570.693442,4125.819102,0.006000,-0.012000,1.002000,192.000000,0.000000,0.000000,0.000000,0.000000,0.000000,0.000000,0.000000,0.000000,0.000000,1769695735.481517,0.000000
8.000000,8841.679554,12304.501212,-1975.737748,-3821.745970,-640.623348,-16240.151672,-4164.308806,-523.902538,14516.742768,9419.740369,-14468.708869,8252.979309,13127.023056,-5366.586788,-11491.814136,4172.824821,0.008000,-0.008000,1.010000,192.000000,0.000000,32.000000,127.500000,96.000000,15.500000,72.000000,0.000000,0.000000,0.000000,1769695735.481528,0.000000
10.000000,8742.706030,12202.107871,-2070.375034,-3923.781684,-741.474419,-16349.451703,-4255.615682,-620.976164,14463.970299,9349.779409,-14520.140233,8192.853116,13082.341919,-5424.991897,-11540.943270,4148.751992,0.008000,-0.008000,1.010000,192.000000,0.000000,0.000000,0.000000,0.000000,0.000000,0.000000,0.000000,0.000000,0.000000,1769695735.481540,0.000000
12.000000,8825.720409,12288.966750,-1987.315951,-3840.052049,-665.277322,-16257.563681,-4170.813164,-534.318451,14443.004363,9335.474293,-14533.059541,8184.091232,13057.062096,-5440.772228,-11549.749857,4128.501311,0.008000,-0.008000,1.010000,192.000000,0.000000,0.000000,0.000000,0.000000,0.000000,0.000000,0.000000,0.000000,0.000000,1769695735.481552,0.000000
14.000000,8763.224931,12225.376037,-2050.727850,-3898.457157,-723.995355,-16311.856069,-4230.067638,-595.673990,14497.967303,9396.203982,-14478.208360,8235.790817,13110.572172,-5386.189268,-11489.131926,4184.917114,0.008000,-0.008000,1.010000,192.000000,0.000000,0.000000,0.000000,0.000000,0.000000,0.000000,0.000000,0.000000,0.000000,1769695735.481564,0.000000
16.000000,8757.927568,12222.246793,-2055.354661,-3899.619448,-723.503616,-16313.979484,-4240.192978,-598.512661,14404.268790,9302.393711,-14577.450106,8146.786171,13015.689017,-5475.752708,-11585.847924,4125.059143,0.008000,-0.008000,1.010000,192.000000,0.000000,0.000000,0.000000,0.000000,0.000000,0.000000,0.000000,0.000000,0.000000,1769695735.481576,0.000000
18.000000,8818.612554,12289.547895,-1980.833945,-3827.266851,-646.948892,-16236.195414,-4173.741242,-536.911254,14487.953721,9402.216602,-14482.879875,8233.354477,13096.803498,-5380.131946,-11490.562438,4191.086196,0.007000,-0.009000,1.006000,192.000000,0.000000,24.000000,127.500000,88.000000,15.500000,40.000000,0.000000,0.000000,0.000000,1769695735.481588,0.000000
20.000000,8724.019971,12192.071938,-2065.703519,-3923.088780,-722.989526,-16327.859918,-4259.393127,-632.330851,14435.382418,9347.857159,-14536.904041,8174.345872,13065.645166,-5429.417542,-11528.225127,4169.427355,0.007000,-0.009000,1.006000,192.000000,0.000000,0.000000,0.000000,0.000000,0.000000,0.000000,0.000000,0.000000,0.000000,1769695735.481599,0.000000
22.000000,8801.200545,12270.526561,-1996.569573,-3851.339680,-650.435764,-16252.825111,-4189.588629,-554.323262,14435.985915,9334.446112,-14539.832120,8171.261331,13053.552872,-5446.248406,-11529.007438,4151.948291,0.007000,-0.009000,1.006000,192.000000,0.000000,0.000000,0.000000,0.000000,0.000000,0.000000,0.000000,0.000000,0.000000,1769695735.481611,0.000000
24.000000,8774.557266,12240.239947,-2033.315841,-3881.894515,-680.968247,-16291.717147,-4221.037533,-585.347484,14499.219000,9402.708340,-14478.968320,8229.420570,13128.744141,-5369.648977,-11472.256359,4195.221269,0.007000,-0.009000,1.006000,192.000000,0.000000,0.000000,0.000000,0.000000,0.000000,0.000000,0.000000,0.000000,0.000000,1769695735.481623,0.000000
26.000000,8770.355138,12232.886223,-2048.962062,-3895.305561,-701.442444,-16312.548973,-4232.481627,-589.884888,14430.889717,9323.091426,-14559.412248,8158.409078,13049.954242,-5451.143438,-11564.859636,4131.764666,0.007000,-0.009000,1.006000,192.000000,0.000000,0.000000,0.000000,0.000000,0.000000,0.000000,0.000000,0.000000,0.000000,1769695735.481636,0.000000
28.000000,8848.630947,12312.793709,-1978.241143,-3821.835377,-636.421220,-16241.828053,-4159.838457,-509.887995,14519.290867,9417.259326,-14463.545616,8250.922948,13134.868519,-5355.433268,-11492.395281,4172.534248,0.005500,-0.009500,1.005000,192.000000,0.000000,16.000000,127.500000,88.000000,15.500000,48.000000,0.000000,0.000000,0.000000,1769695735.481648,0.000000
30.000000,8752.294928,12215.541269,-2067.044624,-3915.466835,-730.678526,-16338.119368,-4244.663327,-601.932478,14473.805067,9366.140886,-14509.836079,8209.147538,13084.666501,-5398.818004,-11546.441799,4141.018288,0.005500,-0.009500,1.005000,192.000000,0.000000,0.000000,0.000000,0.000000,0.000000,0.000000,0.000000,0.000000,0.000000,1769695735.481660,0.000000
32.000000,8817.942002,12287.044500,-1997.888326,-3846.534055,-678.353092,-16274.819228,-4179.910324,-534.050230,14449.173444,9354.339165,-14527.605716,8200.989151,13067.902692,-5446.583682,-11562.400945,4110.821081,0.005500,-0.009500,1.005000,192.000000,0.000000,0.000000,0.000000,0.000000,0.000000,0.000000,0.000000,0.000000,0.000000,1769695735.481671,0.000000
34.000000,8789.756452,12253.606290,-2019.167187,-3871.590361,-700.526023,-16303.854144,-4205.748940,-563.599236,14514.395835,9414.398302,-14460.952814,8255.773277,13113.366141,-5373.448774,-11493.512868,4168.779155,0.005500,-0.009500,1.005000,192.000000,0.000000,0.000000,0.000000,0.000000,0.000000,0.000000,0.000000,0.000000,0.000000,1769695735.481683,0.000000
36.000000,8759.089858,12222.917345,-2047.978586,-3898.948896,-716.306355,-16319.701531,-4233.398048,-596.903336,14418.193927,9310.999133,-14565.134295,8158.766706,13027.848366,-5478.390214,-11576.504895,4113.369180,0.005500,-0.009500,1.005000,192.000000,0.000000,0.000000,0.000000,0.000000,0.000000,0.000000,0.000000,0.000000,0.000000,1769695735.481695,0.000000
38.000000,8813.941039,12278.483782,-1993.619143,-3837.705116,-657.878895,-16252.109856,-4178.300998,-543.795591,14498.928428,9404.049445,-14483.617483,8235.433189,13108.672274,-5367.346748,-11481.800554,4177.339873,0.003750,-0.010750,1.002500,192.000000,0.000000,8.000000,127.500000,80.000000,15.500000,32.000000,0.000000,0.000000,0.000000,1769695735.481706,0.000000
40.000000,8717.023875,12177.677414,-2086.021255,-3927.022687,-740.602701,-16339.728694,-4264.288159,-639.416354,14436.745874,9337.843578,-14551.477379,8167.640348,13048.747247,-5431.965641,-11541.658526,4154.809315,0.003750,-0.010750,1.002500,192.000000,0.000000,0.000000,0.000000,0.000000,0.000000,0.000000,0.000000,0.000000,0.000000,1769695735.481718,0.000000
42.000000,8800.082958,12262.032898,-1999.609411,-3839.225035,-660.717566,-16250.053495,-4181.162021,-554.189152,14429.280392,9332.255641,-14553.891367,8166.098078,13045.148616,-5436.793618,-11546.486502,4146.002727,0.003750,-0.010750,1.002500,192.000000,0.000000,0.000000,0.000000,0.000000,0.000000,0.000000,0.000000,0.000000,0.000000,1769695735.481730,0.000000
44.000000,8740.314393,12201.929057,-2048.582083,-3896.289038,-717.312183,-16295.695757,-4231.431095,-613.153054,14480.398831,9387.889133,-14494.569837,8212.500300,13107.778204,-5378.299103,-11488.148449,4200.317466,0.003750,-0.010750,1.002500,192.000000,0.000000,0.000000,0.000000,0.000000,0.000000,0.000000,0.000000,0.000000,0.000000,1769695735.481742,0.000000
46.000000,8737.408666,12195.849382,-2056.360490,-3907.263745,-729.583291,-16301.909542,-4241.087048,-616.841092,14392.400013,9294.034158,-14588.983606,8122.199252,13001.540363,-5460.084136,-11586.876105,4131.474093,0.003750,-0.010750,1.002500,192.000000,0.000000,0.000000,0.000000,0.000000,0.000000,0.000000,0.000000,0.000000,0.000000,1769695735.481754,0.000000
48.000000,8806.587315,12266.659709,-1997.374236,-3840.722601,-670.105299,-16236.553042,-4176.468155,-545.628434,14476.509628,9378.166125,-14502.907038,8204.341913,13089.226257,-5377.494440,-11515.194060,4167.348643,0.003875,-0.011375,1.001250,192.000000,0.000000,16.000000,127.500000,80.000000,15.500000,32.000000,0.000000,0.000000,0.000000,1769695735.481765,0.000000
50.000000,8728.713838,12186.372243,-2079.449842,-3920.719495,-747.531742,-16325.758854,-4248.999566,-619.389191,14448.368782,9347.946566,-14530.466739,8176.603398,13069.690832,-5414.598336,-11551.202721,4152.037698,0.003875,-0.011375,1.001250,192.000000,0.000000,0.000000,0.000000,0.000000,0.000000,0.000000,0.000000,0.000000,0.000000,1769695735.481777,0.000000
52.000000,8813.091673,12274.035784,-1997.955382,-3837.436895,-668.741842,-16250.858158,-4169.986149,-536.240701,14449.598128,9349.198264,-14529.840890,8182.638369,13056.615061,-5423.002591,-11556.388325,4128.657774,0.003875,-0.011375,1.001250,192.000000,0.000000,0.000000,0.000000,0.000000,0.000000,0.000000,0.000000,0.000000,0.000000,1769695735.481789,0.000000
54.000000,8756.742925,12215.049531,-2049.856132,-3892.377483,-715.546395,-16313.353635,-4219.428208,-592.187118,14489.183067,9389.923142,-14488.825439,8220.479872,13103.017283,-5392.715978,-11511.863650,4155.055184,0.003875,-0.011375,1.001250,192.000000,0.000000,0.000000,0.000000,0.000000,0.000000,0.000000,0.000000,0.000000,0.000000,1769695735.481801,0.000000
56.000000,8745.455294,12205.058301,-2060.696728,-3905.252088,-726.454047,-16320.573249,-4233.599214,-604.994667,14407.733310,9303.243077,-14576.958367,8144.394534,13036.207919,-5473.629293,-11589.111279,4102.059198,0.003875,-0.011375,1.001250,192.000000,0.000000,0.000000,0.000000,0.000000,0.000000,0.000000,0.000000,0.000000,0.000000,1769695735.481813,0.000000
58.000000,8826.614478,12288.318549,-1977.347073,-3817.432084,-641.562121,-16229.914573,-4155.055184,-523.746076,14498.973131,9396.852183,-14485.919712,8235.008506,13107.264114,-5375.974521,-11494.071662,4167.125126,0.003938,-0.009687,1.002625,192.000000,0.000000,16.000000,127.500000,96.000000,15.500000,48.000000,0.000000,0.000000,0.000000,1769695735.961044,0.000000
60.000000,8713.157024,12174.704632,-2084.277819,-3924.005201,-744.313090,-16337.471168,-4259.147258,-631.749705,14442.959659,9346.784275,-14538.491015,8186.907552,13067.567416,-5426.467112,-11537.165825,4150.584835,0.003938,-0.009687,1.002625,192.000000,0.000000,0.000000,0.000000,0.000000,0.000000,0.000000,0.000000,0.000000,0.000000,1769695735.961110,0.000000
62.000000,8797.177231,12260.468276,-2002.448082,-3840.834360,-666.931351,-16256.759019,-4177.384576,-549.629396,14420.473805,9325.952450,-14560.239263,8170.881351,13032.765750,-5445.376688,-11556.723601,4128.233090,0.003938,-0.009687,1.002625,192.000000,0.000000,0.000000,0.000000,0.000000,0.000000,0.000000,0.000000,0.000000,0.000000,1769695735.961163,0.000000
64.000000,8742.594271,12207.964028,-2052.717156,-3881.626294,-707.812692,-16296.545124,-4218.511786,-601.418388,14498.034358,9405.725826,-14481.181142,8243.323355,13114.461376,-5361.535294,-11473.396298,4204.273725,0.003938,-0.009687,1.002625,192.000000,0.000000,0.000000,0.000000,0.000000,0.000000,0.000000,0.000000,0.000000,0.000000,1769695735.961215,0.000000
66.000000,8706.473852,12172.916493,-2080.947409,-3917.970230,-739.798038,-16319.679179,-4259.102554,-640.109258,14367.924853,9279.349062,-14613.883449,8120.567575,12981.960235,-5478.613732,-11597.381425,4121.885195,0.003938,-0.009687,1.002625,192.000000,0.000000,0.000000,0.000000,0.000000,0.000000,0.000000,0.000000,0.000000,0.000000,1769695735.961273,0.000000
68.000000,8794.673836,12259.417744,-1983.627913,-3826.618651,-648.424107,-16220.839765,-4169.695576,-552.289254,14463.523264,9379.931912,-14518.508556,8206.912363,13073.669442,-5385.831640,-11497.647941,4194.617771,0.003969,-0.009844,1.004313,192.000000,0.000000,16.000000,127.500000,88.000000,15.500000,56.000000,0.000000,0.000000,0.000000,1769695735.961321,0.000000
70.000000,8689.374767,12145.535606,-2090.737473,-3937.170379,-750.817448,-16318.002798,-4275.061700,-661.052842,14424.608877,9326.064208,-14561.379202,8161.515970,13057.263262,-5434.849016,-11531.130854,4191.913210,0.003969,-0.009844,1.004313,192.000000,0.000000,0.000000,0.000000,0.000000,0.000000,0.000000,0.000000,0.000000,0.000000,1769695735.961360,0.000000
72.000000,8784.056757,12244.106799,-2003.766835,-3850.110334,-664.338549,-16223.901954,-4187.420510,-565.677949,14408.314456,9307.445205,-14578.701804,8144.171017,13038.599555,-5450.338775,-11553.683764,4154.116411,0.003969,-0.009844,1.004313,192.000000,0.000000,0.000000,0.000000,0.000000,0.000000,0.000000,0.000000,0.000000,0.000000,1769695735.961378,0.000000
74.000000,8748.919815,12205.684150,-2038.635557,-3889.203535,-700.324857,-16279.200170,-4216.410722,-596.456301,14486.478506,9379.484878,-14496.290922,8215.629544,13109.454585,-5379.684911,-11481.688795,4190.929734,0.003969,-0.009844,1.004313,192.000000,0.000000,0.000000,0.000000,0.000000,0.000000,0.000000,0.000000,0.000000,0.000000,1769695735.961396,0.000000
76.000000,8736.604004,12195.759975,-2058.796830,-3905.542660,-723.727134,-16316.013493,-4231.408743,-607.363952,14409.767319,9296.917534,-14577.114830,8139.834778,13034.710352,-5470.880028,-11574.381480,4111.961020,0.003969,-0.009844,1.004313,192.000000,0.000000,0.000000,0.000000,0.000000,0.000000,0.000000,0.000000,0.000000,0.000000,1769695735.961417,0.000000
78.000000,8810.141243,12273.968729,-1980.923352,-3825.746933,-650.033432,-16242.655068,-4154.965777,-528.775219,14482.477544,9382.167087,-14495.910942,8220.703390,13099.083376,-5385.026978,-11503.437043,4147.567349,0.006984,-0.006922,1.004156,192.000000,0.000000,40.000000,127.500000,112.000000,15.500000,48.000000,0.000000,0.000000,0.000000,1769695735.961433,0.000000
80.000000,8707.278515,12168.356737,-2081.282685,-3925.770989,-747.799962,-16342.902642,-4255.772144,-634.566025,14443.764322,9342.783313,-14536.747579,8182.571314,13060.861893,-5423.360219,-11538.998668,4140.504198,0.006984,-0.006922,1.004156,192.000000,0.000000,0.000000,0.000000,0.000000,0.000000,0.000000,0.000000,0.000000,0.000000,1769695735.961450,0.000000
82.000000,8790.851687,12253.919214,-1994.937896,-3837.749819,-663.377424,-16252.221614,-4173.182449,-549.607044,14423.156014,9323.314944,-14557.467646,8164.667566,13064.371117,-5443.901473,-11553.393192,4122.555747,0.006984,-0.006922,1.004156,192.000000,0.000000,0.000000,0.000000,0.000000,0.000000,0.000000,0.000000,0.000000,0.000000,1769695735.961467,0.000000
84.000000,8743.711858,12203.337217,-2040.423696,-3886.186050,-699.095511,-16288.722013,-4218.847062,-597.015094,14493.273436,9386.972712,-14487.417279,8226.023105,13114.819004,-5370.297178,-11477.911350,4184.000693,0.006984,-0.006922,1.004156,192.000000,0.000000,0.000000,0.000000,0.000000,0.000000,0.000000,0.000000,0.000000,0.000000,1769695735.961484,0.000000
86.000000,8725.741056,12182.483039,-2062.373109,-3907.755483,-716.351058,-16311.632551,-4244.417458,-620.484426,14397.607970,9286.211048,-14592.716347,8129.977659,13023.489776,-5469.918903,-11574.314424,4118.890061,0.006984,-0.006922,1.004156,192.000000,0.000000,0.000000,0.000000,0.000000,0.000000,0.000000,0.000000,0.000000,0.000000,1769695735.961502,0.000000
88.000000,8798.652446,12259.618909,-1987.517117,-3832.295994,-635.258929,-16229.847518,-4173.897704,-547.170704,14484.735070,9374.343976,-14507.869125,8211.807395,13098.993969,-5396.493423,-11487.902580,4174.165925,0.006984,-0.006922,1.004156,192.000000,0.000000,0.000000,0.000000,0.000000,0.000000,0.000000,0.000000,0.000000,0.000000,1769695735.961534,0.000000
90.000000,8705.758596,12164.892216,-2075.940618,-3926.799169,-708.773817,-16314.225354,-4262.052984,-641.360955,14438.913994,9329.595784,-14554.919547,8167.349776,13067.522713,-5444.974356,-11523.106578,4173.473021,0.014000,-0.004000,1.008000,192.000000,0.000000,56.000000,127.500000,112.000000,15.500000,64.000000,0.000000,0.000000,0.000000,1769695735.961560,0.000000
92.000000,8789.510583,12251.974613,-1989.148794,-3845.148247,-620.596185,-16214.737739,-4185.542963,-559.106536,14436.522357,9328.321734,-14559.434600,8169.070860,13068.662652,-5430.356315,-11516.892793,4176.669321,0.014000,-0.004000,1.008000,192.000000,0.000000,0.000000,0.000000,0.000000,0.000000,0.000000,0.000000,0.000000,0.000000,1769695735.961578,0.000000
94.000000,8744.672983,12203.896010,-2031.393591,-3889.203535,-656.001348,-16252.556891,-4232.414571,-605.553461,14485.763250,9386.592732,-14503.890515,8215.629544,13131.426350,-5371.682986,-11454.598481,4226.536063,0.014000,-0.004000,1.008000,192.000000,0.000000,0.000000,0.000000,0.000000,0.000000,0.000000,0.000000,0.000000,0.000000,1769695735.961594,0.000000
96.000000,8728.311506,12186.573408,-2047.419792,-3903.866280,-684.835098,-16265.297385,-4249.424249,-621.177330,14400.468993,9300.717330,-14592.090498,8132.168130,13038.018410,-5453.468019,-11546.330040,4172.154268,0.014000,-0.004000,1.008000,192.000000,0.000000,0.000000,0.000000,0.000000,0.000000,0.000000,0.000000,0.000000,0.000000,1769695735.961611,0.000000
98.000000,8804.933286,12263.843389,-1976.631817,-3823.176482,-628.285185,-16189.055585,-4170.276722,-542.678004,14488.154887,9386.570381,-14503.085852,8215.629544,13121.323362,-5375.885114,-11477.330205,4221.506920,0.014000,-0.004000,1.008000,192.000000,0.000000,0.000000,0.000000,0.000000,0.000000,0.000000,0.000000,0.000000,0.000000,1769695735.961629,0.000000
100.000000,8699.500108,12156.666774,-2083.026121,-3922.127655,-752.270311,-16308.637417,-4262.745889,-641.807990,14443.160825,9348.840636,-14543.028419,8179.732642,13068.170913,-5401.589620,-11534.058933,4200.496280,0.012000,-0.008000,1.006000,192.000000,0.000000,48.000000,127.500000,96.000000,15.500000,56.000000,0.000000,0.000000,0.000000,1769695735.961646,0.000000
102.000000,8801.111138,12260.557683,-1988.858222,-3827.624479,-677.079043,-16229.936925,-4166.856905,-538.162951,14422.820738,9332.725028,-14552.773780,8171.104869,13049.015468,-5434.625499,-11564.434953,4163.191219,0.012000,-0.008000,1.006000,192.000000,0.000000,0.000000,0.000000,0.000000,0.000000,0.000000,0.000000,0.000000,0.000000,1769695735.961662,0.000000
104.000000,8745.969384,12203.896010,-2040.893083,-3886.878954,-738.859265,-16303.854144,-4218.668248,-593.304705,14496.380329,9402.618933,-14473.425087,8239.389448,13110.438062,-5363.859876,-11498.653769,4206.732417,0.012000,-0.008000,1.006000,192.000000,0.000000,0.000000,0.000000,0.000000,0.000000,0.000000,0.000000,0.000000,0.000000,1769695735.961680,0.000000
106.000000,8716.018047,12173.676452,-2064.273007,-3916.763236,-756.695957,-16334.721903,-4247.703165,-625.535920,14385.269807,9287.261580,-14587.754260,8133.084551,13002.345026,-5480.088947,-11599.214268,4118.443026,0.012000,-0.008000,1.006000,192.000000,0.000000,0.000000,0.000000,0.000000,0.000000,0.000000,0.000000,0.000000,0.000000,1769695735.961697,0.000000
108.000000,8790.494059,12251.013488,-1987.159489,-3832.631270,-663.623293,-16254.523844,-4174.232981,-550.702280,14453.956718,9363.726898,-14518.016817,8203.470195,13085.605274,-5410.843243,-11509.650828,4160.844286,0.012000,-0.008000,1.006000,192.000000,0.000000,0.000000,0.000000,0.000000,0.000000,0.000000,0.000000,0.000000,0.000000,1769695735.961714,0.000000
110.000000,8700.081253,12155.280966,-2082.266162,-3920.495977,-737.182884,-16331.726769,-4266.500982,-643.394964,14439.338677,9337.150674,-14542.648440,8177.922151,13075.256416,-5430.155150,-11520.156147,4168.153306,0.012000,-0.014000,1.010000,192.000000,0.000000,48.000000,127.500000,72.000000,15.500000,72.000000,0.000000,0.000000,0.000000,1769695735.961731,0.000000
112.000000,8778.446469,12241.849272,-2001.174033,-3841.460209,-647.574740,-16244.689077,-4191.644989,-564.605065,14409.432043,9309.993304,-14571.906873,8152.083534,13043.516939,-5464.062746,-11545.570081,4134.357468,0.012000,-0.014000,1.010000,192.000000,0.000000,0.000000,0.000000,0.000000,0.000000,0.000000,0.000000,0.000000,0.000000,1769695735.961749,0.000000
114.000000,8751.110286,12216.815319,-2026.051524,-3867.343529,-656.157810,-16260.290594,-4218.869414,-593.170594,14494.882762,9409.033884,-14483.349262,8238.741248,13129.481748,-5353.667480,-11455.783123,4212.990905,0.012000,-0.014000,1.010000,192.000000,0.000000,0.000000,0.000000,0.000000,0.000000,0.000000,0.000000,0.000000,0.000000,1769695735.961765,0.000000
116.000000,8733.921794,12198.062205,-2051.666624,-3891.081082,-666.976055,-16264.358612,-4247.457295,-616.595223,14404.760528,9318.554022,-14584.468554,8147.791999,13043.583994,-5428.545824,-11545.413619,4162.028928,0.012000,-0.014000,1.010000,192.000000,0.000000,0.000000,0.000000,0.000000,0.000000,0.000000,0.000000,0.000000,0.000000,1769695735.961783,0.000000
118.000000,8796.998417,12261.697622,-1992.613315,-3824.897566,-593.483519,-16192.944788,-4186.280571,-554.747946,14488.288997,9408.586849,-14505.566896,8229.845253,13128.498272,-5351.678175,-11459.672327,4231.207577,0.012000,-0.014000,1.010000,192.000000,0.000000,0.000000,0.000000,0.000000,0.000000,0.000000,0.000000,0.000000,0.000000,1769695735.961800,0.000000
120.000000,8704.931582,12163.729926,-2077.840516,-3915.712704,-672.385177,-16271.108838,-4269.451412,-644.512551,14434.778921,9349.332374,-14563.860245,8170.814296,13095.507097,-5403.377760,-11503.638208,4212.767388,0.010000,-0.008000,1.004000,192.000000,0.000000,40.000000,127.500000,96.000000,15.500000,48.000000,0.000000,0.000000,0.000000,1769695735.961818,0.000000
122.000000,8789.108251,12247.839540,-1999.095321,-3838.263910,-605.195833,-16194.889390,-4190.035664,-558.346576,14432.230822,9341.375153,-14563.659080,8170.993110,13099.619818,-5396.895754,-11508.332075,4201.658571,0.010000,-0.008000,1.004000,192.000000,0.000000,0.000000,0.000000,0.000000,0.000000,0.000000,0.000000,0.000000,0.000000,1769695735.961838,0.000000
124.000000,8752.518446,12211.182679,-2043.307071,-3879.972265,-663.645645,-16258.658917,-4224.390295,-591.918897,14498.906076,9408.162166,-14491.842925,8229.957012,13141.238766,-5349.800628,-11461.393411,4223.965612,0.010000,-0.008000,1.004000,192.000000,0.000000,0.000000,0.000000,0.000000,0.000000,0.000000,0.000000,0.000000,0.000000,1769695735.961855,0.000000
126.000000,8737.341611,12199.895048,-2061.590798,-3897.317218,-708.259727,-16297.416842,-4238.762467,-604.860557,14407.643903,9317.570545,-14580.221722,8147.479075,13045.148616,-5452.372784,-11571.274587,4136.749105,0.010000,-0.008000,1.004000,192.000000,0.000000,0.000000,0.000000,0.000000,0.000000,0.000000,0.000000,0.000000,0.000000,1769695735.961873,0.000000
128.000000,8817.405560,12278.349671,-1979.269323,-3816.828587,-652.290958,-16228.238193,-4155.636329,-526.830617,14485.852657,9400.719035,-14495.776832,8229.889957,13115.534260,-5370.587751,-11502.610028,4171.751937,0.010000,-0.008000,1.004000,192.000000,0.000000,0.000000,0.000000,0.000000,0.000000,0.000000,0.000000,0.000000,0.000000,1769695735.961890,0.000000
130.000000,8702.718759,12161.450048,-2079.427490,-3922.172358,-766.150745,-16336.241822,-4252.262920,-638.656394,14446.245366,9355.009717,-14535.697047,8183.890067,13071.769544,-5417.325248,-11537.545805,4161.157210,0.006000,-0.010000,1.006000,192.000000,0.000000,24.000000,127.500000,88.000000,15.500000,56.000000,0.000000,0.000000,0.000000,1769695735.961906,0.000000
132.000000,8758.911044,12222.425607,-2017.736675,-3859.498067,-710.830177,-16282.351766,-4196.942353,-577.971408,14397.585618,9302.907801,-14582.948635,8142.248767,13028.138939,-5457.401926,-11578.449497,4115.134968,0.006000,-0.010000,1.006000,192.000000,0.000000,0.000000,0.000000,0.000000,0.000000,0.000000,0.000000,0.000000,0.000000,1769695735.961937,0.000000
134.000000,8741.610794,12202.934885,-2030.812446,-3874.965474,-711.724247,-16297.886228,-4210.956897,-591.851841,14477.157828,9398.416805,-14495.352148,8223.676172,13105.341864,-5368.352576,-11484.415708,4182.167850,0.006000,-0.010000,1.006000,192.000000,0.000000,0.000000,0.000000,0.000000,0.000000,0.000000,0.000000,0.000000,0.000000,1769695735.961952,0.000000
136.000000,8708.798433,12168.803772,-2068.765708,-3908.381332,-727.593986,-16328.753987,-4249.714822,-629.447476,14384.398089,9290.748452,-14595.778536,8128.793017,13023.243907,-5471.327063,-11571.922788,4119.895890,0.006000,-0.010000,1.006000,192.000000,0.000000,0.000000,0.000000,0.000000,0.000000,0.000000,0.000000,0.000000,0.000000,1769695735.961969,0.000000
138.000000,8778.714690,12239.368229,-1999.028265,-3838.442724,-647.708851,-16248.690039,-4185.945295,-565.409728,14470.832285,9376.042709,-14515.021684,8205.951238,13110.460414,-5384.490536,-11483.476935,4175.574085,0.006000,-0.010000,1.006000,192.000000,0.000000,0.000000,0.000000,0.000000,0.000000,0.000000,0.000000,0.000000,0.000000,1769695735.961986,0.000000
140.000000,8693.599247,12150.631803,-2089.619886,-3926.195672,-716.395762,-16321.109691,-4273.787650,-655.911941,14433.661334,9339.989345,-14560.552187,8162.521799,13075.748155,-5397.052216,-11520.267906,4170.902571,0.004000,-0.008000,1.004000,192.000000,0.000000,16.000000,127.500000,96.000000,15.500000,48.000000,0.000000,0.000000,0.000000,1769695735.962003,0.000000
142.000000,8779.921684,12237.915365,-2008.684219,-3842.108410,-635.616557,-16213.016655,-4198.372865,-576.339731,14416.606953,9321.258583,-14584.222684,8147.367316,13061.979480,-5429.126969,-11542.932575,4159.547884,0.004000,-0.008000,1.004000,192.000000,0.000000,0.000000,0.000000,0.000000,0.000000,0.000000,0.000000,0.000000,0.000000,1769695735.962021,0.000000
144.000000,8745.254129,12201.973760,-2038.076763,-3873.043224,-657.878895,-16224.505451,-4229.195920,-612.124874,14502.527058,9410.866727,-14496.357977,8223.832634,13154.985089,-5326.085428,-11454.486722,4246.384412,0.004000,-0.008000,1.004000,192.000000,0.000000,0.000000,0.000000,0.000000,0.000000,0.000000,0.000000,0.000000,0.000000,1769695735.962037,0.000000
146.000000,8731.261937,12185.858153,-2055.309958,-3898.703027,-675.380310,-16245.381981,-4252.508790,-625.535920,14407.152165,9305.366493,-14597.298455,8126.133159,13075.345823,-5431.965641,-11559.249349,4167.683919,0.004000,-0.008000,1.004000,192.000000,0.000000,0.000000,0.000000,0.000000,0.000000,0.000000,0.000000,0.000000,0.000000,1769695735.962056,0.000000
148.000000,8820.646563,12277.254436,-1971.692082,-3823.981145,-588.834356,-16182.819448,-4174.791774,-536.866550,14509.232582,9410.039712,-14493.809878,8224.056151,13170.832476,-5338.557701,-11472.099897,4205.927754,0.004000,-0.008000,1.004000,192.000000,0.000000,0.000000,0.000000,0.000000,0.000000,0.000000,0.000000,0.000000,0.000000,1769695735.962074,0.000000
150.000000,8724.802282,12176.895103,-2063.736566,-3923.535815,-682.756386,-16299.294388,-4258.633168,-627.435819,14480.555294,9367.392584,-14524.275306,8190.662645,13140.612917,-5380.154297,-11503.772319,4168.287416,0.005000,-0.009000,1.004000,192.000000,0.000000,24.000000,127.500000,88.000000,15.500000,48.000000,0.000000,0.000000,0.000000,1769695735.962091,0.000000
152.000000,8794.405615,12250.052363,-1990.981637,-3852.524323,-628.866330,-16251.573414,-4184.045396,-552.557475,14449.151093,9333.507339,-14553.623146,8169.272026,13101.765585,-5437.866502,-11534.662430,4112.564518,0.005000,-0.009000,1.004000,192.000000,0.000000,0.000000,0.000000,0.000000,0.000000,0.000000,0.000000,0.000000,0.000000,1769695735.962108,0.000000
154.000000,8732.759503,12192.206048,-2036.243920,-3899.619448,-692.278229,-16307.206906,-4223.138597,-605.464054,14511.646570,9396.427500,-14484.735070,8229.509977,13161.243577,-5364.597483,-11463.986214,4161.581893,0.005000,-0.009000,1.004000,192.000000,0.000000,0.000000,0.000000,0.000000,0.000000,0.000000,0.000000,0.000000,0.000000,1769695735.962128,0.000000
156.000000,8708.373750,12168.133219,-2057.679243,-3918.640783,-737.205236,-16334.274868,-4243.031650,-624.753609,14398.032653,9286.166344,-14595.286798,8127.831892,13056.346840,-5490.415453,-11571.319291,4091.397416,0.005000,-0.009000,1.004000,192.000000,0.000000,0.000000,0.000000,0.000000,0.000000,0.000000,0.000000,0.000000,0.000000,1769695735.962145,0.000000
158.000000,8781.218085,12244.486778,-1990.087568,-3845.014136,-680.878840,-16263.039859,-4176.199934,-549.852914,14459.097619,9356.239063,-14519.067349,8202.151442,13104.984236,-5411.022056,-11512.444796,4132.904605,0.005000,-0.009000,1.004000,192.000000,0.000000,0.000000,0.000000,0.000000,0.000000,0.000000,0.000000,0.000000,0.000000,1769695735.962162,0.000000
160.000000,8684.658549,12143.322783,-2093.710255,-3933.392934,-768.765899,-16363.980337,-4268.333825,-645.496028,14424.407712,9328.880528,-14547.521120,8172.222456,13058.537311,-5428.299955,-11541.524415,4138.134913,0.006500,-0.009500,1.008000,192.000000,0.000000,32.000000,127.500000,88.000000,15.500000,80.000000,0.000000,0.000000,0.000000,1769695735.962178,0.000000
162.000000,8750.193864,12217.798795,-2027.325574,-3854.848904,-694.423997,-16283.335243,-4197.299981,-574.104556,14388.577865,9307.109929,-14581.249902,8151.480037,13021.679285,-5455.502028,-11569.575854,4114.442064,0.006500,-0.009500,1.008000,192.000000,0.000000,0.000000,0.000000,0.000000,0.000000,0.000000,0.000000,0.000000,0.000000,1769695735.962196,0.000000
164.000000,8727.640954,12190.596722,-2048.962062,-3874.719605,-710.673715,-16299.406147,-4218.020048,-601.485443,14459.611709,9383.083508,-14508.919657,8216.188337,13095.954132,-5384.669350,-11491.344749,4182.525478,0.006500,-0.009500,1.008000,192.000000,0.000000,0.000000,0.000000,0.000000,0.000000,0.000000,0.000000,0.000000,0.000000,1769695735.962213,0.000000
166.000000,8687.564276,12152.129370,-2086.937676,-3913.499881,-740.088611,-16323.054293,-4256.509752,-640.913921,14372.059926,9285.853420,-14606.485022,8123.339191,12997.807622,-5475.596246,-11582.964549,4133.798675,0.006500,-0.009500,1.008000,192.000000,0.000000,0.000000,0.000000,0.000000,0.000000,0.000000,0.000000,0.000000,0.000000,1769695735.962229,0.000000
168.000000,8786.224876,12253.047496,-1990.311085,-3825.277546,-641.472714,-16204.880620,-4170.813164,-548.221236,14445.619517,9366.163238,-14529.371504,8199.111605,13097.474050,-5397.499251,-11504.375816,4184.470079,0.006500,-0.009500,1.008000,192.000000,0.000000,0.000000,0.000000,0.000000,0.000000,0.000000,0.000000,0.000000,0.000000,1769695735.962247,0.000000
170.000000,8692.727529,12155.146856,-2088.658761,-3929.280213,-725.850549,-16293.326472,-4276.805136,-649.385232,14441.730314,9363.324566,-14543.296640,8181.565485,13098.502230,-5366.072698,-11516.356351,4190.236830,0.008250,-0.010750,1.008000,192.000000,0.000000,40.000000,127.500000,80.000000,15.500000,64.000000,0.000000,0.000000,0.000000,1769695735.962264,0.000000
172.000000,8780.927513,12244.240909,-2009.131254,-3853.686613,-652.872104,-16222.382036,-4205.167795,-564.761527,14403.084147,9326.086560,-14582.747469,8148.909587,13040.521805,-5433.954946,-11562.736221,4138.269024,0.008250,-0.010750,1.008000,192.000000,0.000000,0.000000,0.000000,0.000000,0.000000,0.000000,0.000000,0.000000,0.000000,1769695735.962281,0.000000
174.000000,8774.803135,12234.584956,-2019.591870,-3869.511648,-663.466831,-16253.741533,-4210.688676,-572.025844,14518.016817,9431.631497,-14468.395945,8251.012355,13154.716868,-5332.723896,-11462.555702,4203.759635,0.008250,-0.010750,1.008000,192.000000,0.000000,0.000000,0.000000,0.000000,0.000000,0.000000,0.000000,0.000000,0.000000,1769695735.962298,0.000000
176.000000,8740.068524,12197.123432,-2052.225417,-3907.621373,-704.683447,-16303.854144,-4236.236720,-603.586507,14421.412578,9324.030200,-14566.385992,8158.297319,13064.505227,-5444.348507,-11567.430087,4116.699590,0.008250,-0.010750,1.008000,192.000000,0.000000,0.000000,0.000000,0.000000,0.000000,0.000000,0.000000,0.000000,0.000000,1769695735.962315,0.000000
178.000000,8806.274391,12262.211712,-1973.346111,-3837.973337,-643.171447,-16245.627850,-4160.419602,-534.765486,14491.015910,9386.659787,-14490.993558,8225.330201,13127.470091,-5369.961902,-11496.820926,4148.103791,0.008250,-0.010750,1.008000,192.000000,0.000000,0.000000,0.000000,0.000000,0.000000,0.000000,0.000000,0.000000,0.000000,1769695736.442004,0.000000
180.000000,8700.662398,12155.660946,-2066.083499,-3936.812751,-742.971986,-16349.161130,-4258.811982,-636.801200,14447.184139,9339.207034,-14535.719399,8178.905628,13075.099954,-5420.476844,-11533.768360,4130.512968,0.007125,-0.011375,1.003000,192.000000,0.000000,24.000000,127.500000,80.000000,15.500000,24.000000,0.000000,0.000000,0.000000,1769695736.442070,0.000000
182.000000,8779.429946,12238.272993,-1994.781434,-3850.825590,-677.414319,-16266.146751,-4187.845193,-554.032690,14409.812022,9306.506432,-14565.916606,8158.587892,13038.778369,-5459.771211,-11569.598206,4101.031017,0.007125,-0.011375,1.003000,192.000000,0.000000,0.000000,0.000000,0.000000,0.000000,0.000000,0.000000,0.000000,0.000000,1769695736.442118,0.000000
184.000000,8740.560262,12198.553943,-2034.165208,-3872.685596,-704.325820,-16294.779336,-4218.735304,-590.287219,14491.060614,9396.360445,-14477.671919,8243.680983,13129.437045,-5365.983291,-11483.007548,4181.050263,0.007125,-0.011375,1.003000,192.000000,0.000000,0.000000,0.000000,0.000000,0.000000,0.000000,0.000000,0.000000,0.000000,1769695736.442162,0.000000
186.000000,8692.034625,12148.418981,-2080.969761,-3911.644687,-746.704727,-16332.307915,-4260.600121,-640.712755,14385.403917,9290.390824,-14591.039966,8136.593775,13013.230325,-5460.531170,-11581.221113,4122.220471,0.007125,-0.011375,1.003000,192.000000,0.000000,0.000000,0.000000,0.000000,0.000000,0.000000,0.000000,0.000000,0.000000,1769695736.442214,0.000000
188.000000,8747.310489,12204.074824,-2025.380972,-3846.735221,-682.935200,-16263.710411,-4197.434091,-590.600144,14437.572889,9346.918386,-14540.413265,8179.687939,13069.713184,-5414.710094,-11517.205717,4166.298111,0.007125,-0.011375,1.003000,192.000000,0.000000,0.000000,0.000000,0.000000,0.000000,0.000000,0.000000,0.000000,0.000000,1769695736.442258,0.000000
190.000000,8654.774267,12108.655227,-2116.441979,-3940.232568,-771.738681,-16344.713133,-4284.136508,-682.063482,14399.172592,9306.729949,-14582.143972,8134.649174,13054.022259,-5433.239690,-11552.409715,4169.919094,0.007562,-0.011687,1.001500,192.000000,0.000000,32.000000,127.500000,80.000000,15.500000,32.000000,0.000000,0.000000,0.000000,1769695736.442289,0.000000
192.000000,8755.580635,12213.998999,-2025.202158,-3855.407698,-678.710720,-16229.199318,-4203.089083,-581.100652,14388.935493,9290.480231,-14600.494754,8125.686124,13022.819224,-5458.944197,-11589.670073,4141.308861,0.007562,-0.011687,1.001500,192.000000,0.000000,0.000000,0.000000,0.000000,0.000000,0.000000,0.000000,0.000000,0.000000,1769695736.442304,0.000000
194.000000,8753.457219,12212.479080,-2029.583100,-3873.020872,-667.557200,-16224.170175,-4219.718780,-586.152147,14495.598018,9404.183555,-14492.535829,8229.577032,13130.554632,-5348.615986,-11493.803441,4223.563281,0.007562,-0.011687,1.001500,192.000000,0.000000,0.000000,0.000000,0.000000,0.000000,0.000000,0.000000,0.000000,0.000000,1769695736.442320,0.000000
196.000000,8746.729344,12203.225458,-2041.854208,-3893.830346,-680.677674,-16255.104989,-4242.048173,-598.490310,14427.581659,9327.874700,-14566.229530,8157.358546,13060.616024,-5424.611917,-11572.615692,4160.419602,0.007562,-0.011687,1.001500,192.000000,0.000000,0.000000,0.000000,0.000000,0.000000,0.000000,0.000000,0.000000,0.000000,1769695736.442336,0.000000
198.000000,8823.596993,12278.349671,-1961.834963,-3817.923822,-607.520414,-16194.777631,-4164.778193,-522.650841,14515.111091,9416.856994,-14474.721488,8239.657669,13151.386458,-5338.356535,-11486.472069,4191.890859,0.007562,-0.011687,1.001500,192.000000,0.000000,0.000000,0.000000,0.000000,0.000000,0.000000,0.000000,0.000000,0.000000,1769695736.442353,0.000000
200.000000,8710.653628,12167.328556,-2052.784211,-3921.725323,-709.712590,-16316.326417,-4256.621511,-629.335717,14477.046070,9373.204037,-14512.183012,8198.306942,13109.365178,-5390.301989,-11512.556554,4162.475963,0.007781,-0.009844,1.001750,192.000000,0.000000,32.000000,127.500000,96.000000,15.500000,40.000000,0.000000,0.000000,0.000000,1769695736.442369,0.000000
202.000000,8748.741001,12212.032045,-2007.097245,-3874.093756,-678.129575,-16280.116591,-4212.163891,-588.342618,14411.957790,9318.196394,-14572.443315,8150.809485,13043.047552,-5437.710039,-11554.220206,4103.199137,0.007781,-0.009844,1.001750,192.000000,0.000000,0.000000,0.000000,0.000000,0.000000,0.000000,0.000000,0.000000,0.000000,1769695736.442385,0.000000
204.000000,8730.256108,12193.167173,-2029.359583,-3884.755538,-691.674732,-16298.132097,-4223.898557,-605.732275,14479.907093,9397.321570,-14500.671864,8222.513881,13135.047333,-5361.691756,-11471.876379,4165.716966,0.007781,-0.009844,1.001750,192.000000,0.000000,0.000000,0.000000,0.000000,0.000000,0.000000,0.000000,0.000000,0.000000,1769695736.442398,0.000000
206.000000,8687.988959,12151.816446,-2080.366263,-3913.723399,-736.489980,-16328.753987,-4262.835296,-645.831304,14383.928702,9296.582257,-14597.812545,8134.716229,13015.420796,-5461.492295,-11561.618633,4118.934765,0.007781,-0.009844,1.001750,192.000000,0.000000,0.000000,0.000000,0.000000,0.000000,0.000000,0.000000,0.000000,0.000000,1769695736.442415,0.000000
208.000000,8749.500960,12215.988304,-2022.341135,-3836.140494,-674.553296,-16246.141940,-4196.115338,-584.140490,14427.224031,9347.700697,-14554.226643,8181.520782,13057.620890,-5392.559516,-11513.271810,4159.860809,0.007781,-0.009844,1.001750,192.000000,0.000000,0.000000,0.000000,0.000000,0.000000,0.000000,0.000000,0.000000,0.000000,1769695736.442430,0.000000
210.000000,8645.811218,12106.576515,-2122.499302,-3930.666021,-775.761995,-16351.306898,-4287.332807,-685.505651,14407.330979,9321.683266,-14578.679452,8157.202084,13039.046590,-5427.808217,-11537.657563,4173.897704,0.007891,-0.010922,1.005875,192.000000,0.000000,32.000000,127.500000,80.000000,15.500000,72.000000,0.000000,0.000000,0.000000,1769695736.442445,0.000000
212.000000,8716.219213,12177.833876,-2046.011632,-3855.027718,-713.601793,-16266.414972,-4211.247469,-609.263850,14361.778124,9273.068222,-14617.616191,8116.968944,12991.482078,-5488.001464,-11585.423241,4135.095076,0.007891,-0.010922,1.005875,192.000000,0.000000,0.000000,0.000000,0.000000,0.000000,0.000000,0.000000,0.000000,0.000000,1769695736.442459,0.000000
214.000000,8696.370863,12156.286795,-2061.277874,-3881.134555,-723.458913,-16288.185571,-4230.537025,-626.139417,14449.642831,9362.542255,-14524.074140,8197.926962,13082.408974,-5382.702396,-11504.532278,4207.380618,0.007891,-0.010922,1.005875,192.000000,0.000000,0.000000,0.000000,0.000000,0.000000,0.000000,0.000000,0.000000,0.000000,1769695736.442475,0.000000
216.000000,8682.333968,12145.021515,-2080.701540,-3908.426035,-738.680451,-16301.350749,-4257.247359,-641.316252,14356.838388,9265.759202,-14620.924249,8110.442234,12989.448069,-5477.026758,-11612.312390,4137.643175,0.007891,-0.010922,1.005875,192.000000,0.000000,0.000000,0.000000,0.000000,0.000000,0.000000,0.000000,0.000000,0.000000,1769695736.442493,0.000000
218.000000,8785.420213,12250.119418,-1984.857259,-3816.426255,-641.673880,-16204.634750,-4167.683919,-539.101725,14452.302689,9371.058270,-14521.146062,8210.287477,13089.807402,-5376.488611,-11525.274697,4194.841289,0.007891,-0.010922,1.005875,192.000000,0.000000,0.000000,0.000000,0.000000,0.000000,0.000000,0.000000,0.000000,0.000000,1769695736.442509,0.000000
220.000000,8693.599247,12151.972908,-2074.398348,-3912.963440,-719.010916,-16300.233161,-4259.616644,-630.699173,14446.982973,9355.613214,-14530.153815,8195.512974,13085.538219,-5402.908373,-11534.573023,4200.965667,0.007891,-0.010922,1.005875,192.000000,0.000000,0.000000,0.000000,0.000000,0.000000,0.000000,0.000000,0.000000,0.000000,1769695736.442526,0.000000
222.000000,8766.063603,12223.342028,-1992.166280,-3842.533093,-642.903226,-16229.847518,-4189.454518,-557.698376,14416.383435,9316.967048,-14562.228568,8162.052412,13053.798742,-5430.110446,-11559.674032,4155.725736,0.010000,-0.012000,1.012000,192.000000,0.000000,40.000000,127.500000,80.000000,15.500000,80.000000,0.000000,0.000000,0.000000,1769695736.442542,0.000000
224.000000,8738.369791,12191.513144,-2007.097245,-3872.015044,-668.339511,-16266.280862,-4209.682847,-584.945152,14499.710739,9395.712244,-14474.252102,8228.817073,13154.292185,-5346.716088,-11460.186417,4211.873318,0.010000,-0.012000,1.012000,192.000000,0.000000,0.000000,0.000000,0.000000,0.000000,0.000000,0.000000,0.000000,0.000000,1769695736.442556,0.000000
226.000000,8693.621599,12147.636670,-2054.415888,-3916.673829,-717.826273,-16322.182575,-4249.290138,-628.531054,14404.514659,9290.144955,-14571.795114,8133.688049,13025.479081,-5450.875217,-11548.542863,4133.306936,0.010000,-0.012000,1.012000,192.000000,0.000000,0.000000,0.000000,0.000000,0.000000,0.000000,0.000000,0.000000,0.000000,1769695736.442571,0.000000
228.000000,8767.002376,12228.013543,-1986.176012,-3834.285299,-648.982900,-16248.377114,-4174.925885,-550.769335,14447.832340,9352.014584,-14522.062483,8194.373035,13082.431326,-5395.822870,-11494.406938,4150.137800,0.010000,-0.012000,1.012000,192.000000,0.000000,0.000000,0.000000,0.000000,0.000000,0.000000,0.000000,0.000000,0.000000,1769695736.442586,0.000000
230.000000,8661.055107,12122.356847,-2099.700522,-3942.288928,-749.588102,-16359.509988,-4281.096671,-658.415336,14412.673046,9328.813473,-14557.981736,8172.848305,13048.456675,-5430.289260,-11521.653714,4145.958024,0.010000,-0.012000,1.012000,192.000000,0.000000,0.000000,0.000000,0.000000,0.000000,0.000000,0.000000,0.000000,0.000000,1769695736.442604,0.000000
232.000000,8748.182207,12212.255563,-2020.351830,-3862.247331,-670.597037,-16264.425667,-4203.491414,-576.742062,14384.263979,9300.896144,-14590.816449,8151.234168,13016.270163,-5447.209531,-11551.202721,4120.499387,0.008000,-0.008000,1.004000,192.000000,0.000000,32.000000,127.500000,96.000000,15.500000,48.000000,0.000000,0.000000,0.000000,1769695736.442616,0.000000
