Sample_index,EXG Channel 0,EXG Channel 1,EXG Channel 2,EXG Channel 3,EXG Channel 4,EXG Channel 5,EXG Channel 6,EXG Channel 7,EXG Channel 8,EXG Channel 9,EXG Channel 10,EXG Channel 11,EXG Channel 12,EXG Channel 13,EXG Channel 14,EXG Channel 15,Accel Channel 0,Accel Channel 1,Accel Channel 2,Not Used,Digital Channel 0 (D11),Digital Channel 1 (D12),Digital Channel 2 (D13),Digital Channel 3 (D17),Not Used,Digital Channel 4 (D18),Analog Channel 0,Analog Channel 1,Analog Channel 2,Timestamp,Marker Channel
90.000000,10240.541129,14650.696772,-1506.418169,-4447.304243,-7507.101596,-16189.435564,-5352.549893,-5405.367065,16042.741065,12415.298809,-13373.093411,3088.228773,16293.639397,-6148.719030,-8172.065994,4754.841894,0.010000,-0.008000,1.010000,192.000000,0.000000,0.000000,0.000000,0.000000,0.000000,0.000000,0.000000,0.000000,0.000000,1769693864.420534,101.000000
92.000000,10223.598507,14645.086485,-1527.831140,-4464.448031,-7523.418370,-16195.537590,-5371.235951,-5422.533205,15998.864591,12380.743013,-13410.443176,3053.717679,16254.836768,-6185.979388,-8220.010486,4709.601964,0.010000,-0.008000,1.010000,192.000000,0.000000,0.000000,0.000000,0.000000,0.000000,0.000000,0.000000,0.000000,0.000000,1769693864.420603,0.000000
94.000000,10256.366164,14671.014508,-1496.069312,-4436.597757,-7483.431099,-16146.989601,-5341.351669,-5396.538126,16033.330981,12411.990751,-13382.682309,3076.449403,16286.710356,-6148.361403,-8190.103852,4740.849702,0.012000,-0.008000,1.008000,192.000000,0.000000,48.000000,127.500000,96.000000,15.500000,64.000000,0.000000,0.000000,0.000000,1769693864.420657,0.000000
96.000000,10241.703420,14648.349839,-1519.449236,-4453.763897,-7512.287201,-16205.148841,-5363.614006,-5412.318458,16027.139548,12400.658417,-13395.422804,3079.377482,16263.397487,-6167.338034,-8193.881296,4738.346307,0.012000,-0.008000,1.008000,192.000000,0.000000,0.000000,0.000000,0.000000,0.000000,0.000000,0.000000,0.000000,0.000000,1769693864.420712,0.000000
98.000000,10250.420600,14665.225406,-1505.769969,-4438.028269,-7495.970428,-16161.071200,-5347.788971,-5392.693626,16013.393225,12406.939257,-13388.694929,3076.315293,16287.537371,-6163.649996,-8206.107701,4719.548490,0.012000,-0.008000,1.008000,192.000000,0.000000,0.000000,0.000000,0.000000,0.000000,0.000000,0.000000,0.000000,0.000000,1769693864.420805,0.000000
100.000000,10262.803467,14676.513037,-1499.220908,-4423.164359,-7483.788727,-16161.451180,-5339.652936,-5384.199963,16043.478673,12432.867281,-13360.285862,3107.205404,16291.940664,-6143.667536,-8181.900761,4752.003223,0.012000,-0.008000,1.008000,192.000000,0.000000,0.000000,0.000000,0.000000,0.000000,0.000000,0.000000,0.000000,0.000000,1769693864.420830,0.000000
102.000000,10242.306917,14662.744363,-1517.728152,-4442.632728,-7507.995666,-16161.898215,-5362.876399,-5412.474920,16019.651713,12409.844984,-13393.321740,3077.298770,16290.308987,-6143.220501,-8206.375922,4724.756446,0.012000,-0.008000,1.008000,192.000000,0.000000,0.000000,0.000000,0.000000,0.000000,0.000000,0.000000,0.000000,0.000000,1769693864.420853,0.000000
104.000000,10261.641176,14675.931892,-1492.738902,-4415.408303,-7469.483610,-16136.149005,-5337.618928,-5391.620742,16029.933516,12420.998504,-13381.117687,3080.025682,16277.926121,-6143.645184,-8186.035834,4745.968252,0.010000,-0.008000,1.006000,192.000000,0.000000,32.000000,127.500000,96.000000,15.500000,48.000000,0.000000,0.000000,0.000000,1769693864.420870,0.000000
106.000000,10236.853091,14648.059267,-1523.047867,-4447.974795,-7491.298913,-16182.931207,-5371.325358,-5418.845167,16036.393170,12413.510670,-13386.258589,3085.635970,16292.253589,-6141.655879,-8184.448860,4755.177171,0.010000,-0.008000,1.006000,192.000000,0.000000,0.000000,0.000000,0.000000,0.000000,0.000000,0.000000,0.000000,0.000000,1769693864.420887,0.000000
108.000000,10263.563426,14673.964938,-1489.542602,-4422.918489,-7486.135660,-16164.312203,-5341.821056,-5390.950190,16020.590487,12402.379501,-13389.544295,3069.408604,16292.007720,-6158.665557,-8200.340951,4735.574691,0.010000,-0.008000,1.006000,192.000000,0.000000,0.000000,0.000000,0.000000,0.000000,0.000000,0.000000,0.000000,0.000000,1769693864.420904,0.000000
110.000000,10249.235958,14660.509188,-1510.240318,-4444.487923,-7497.780919,-16161.719401,-5356.260283,-5405.322362,16045.624440,12423.345437,-13368.734821,3084.339569,16321.400263,-6140.180664,-8178.816221,4755.959482,0.010000,-0.008000,1.006000,192.000000,0.000000,0.000000,0.000000,0.000000,0.000000,0.000000,0.000000,0.000000,0.000000,1769693864.420921,0.000000
112.000000,10241.569309,14658.229310,-1517.906966,-4459.038908,-7492.707073,-16137.892441,-5364.686890,-5417.124083,16012.342693,12394.355225,-13409.705569,3055.483467,16264.582129,-6186.046444,-8222.580936,4710.250164,0.010000,-0.008000,1.006000,192.000000,0.000000,0.000000,0.000000,0.000000,0.000000,0.000000,0.000000,0.000000,0.000000,1769693864.420934,0.000000
114.000000,10265.865656,14668.377002,-1484.602867,-4426.941803,-7474.244532,-16180.003128,-5332.455675,-5390.883135,16036.884908,12421.065560,-13371.104106,3082.082043,16306.983388,-6155.089278,-8183.711253,4741.073220,0.008000,-0.007000,1.005000,192.000000,0.000000,24.000000,127.500000,104.000000,15.500000,48.000000,0.000000,0.000000,0.000000,1769693864.420949,0.000000
116.000000,10238.752990,14645.019429,-1519.292774,-4461.430545,-7508.912088,-16188.273274,-5370.498344,-5424.701324,16032.593373,12411.141385,-13379.486010,3073.990711,16293.549990,-6136.179702,-8189.969741,4742.190807,0.008000,-0.007000,1.005000,192.000000,0.000000,0.000000,0.000000,0.000000,0.000000,0.000000,0.000000,0.000000,0.000000,1769693864.420967,0.000000
118.000000,10275.409851,14682.570360,-1492.940067,-4432.194463,-7480.011282,-16176.292738,-5342.379849,-5395.889925,16027.497176,12410.783757,-13390.840696,3064.468868,16269.655975,-6170.377871,-8196.831727,4727.505711,0.008000,-0.007000,1.005000,192.000000,0.000000,0.000000,0.000000,0.000000,0.000000,0.000000,0.000000,0.000000,0.000000,1769693864.420982,0.000000
120.000000,10262.870522,14662.319680,-1496.359884,-4435.234301,-7490.896582,-16149.537700,-5346.760791,-5402.595449,16055.593318,12425.737074,-13367.997213,3088.049959,16328.843394,-6136.470275,-8170.859000,4755.333633,0.008000,-0.007000,1.005000,192.000000,0.000000,0.000000,0.000000,0.000000,0.000000,0.000000,0.000000,0.000000,0.000000,1769693864.420999,0.000000
122.000000,10234.215585,14640.839653,-1518.532815,-4453.450972,-7506.922782,-16181.791268,-5367.547913,-5427.070609,16021.506908,12399.205553,-13393.701719,3071.621427,16298.042691,-6169.372042,-8202.173794,4721.224871,0.008000,-0.007000,1.005000,192.000000,0.000000,0.000000,0.000000,0.000000,0.000000,0.000000,0.000000,0.000000,0.000000,1769693864.421039,0.000000
124.000000,10259.629519,14665.963014,-1488.402663,-4419.073989,-7459.067697,-16159.886558,-5332.388619,-5400.226164,16029.732350,12418.539812,-13380.469487,3079.399834,16284.430478,-6142.639356,-8182.034872,4738.592176,0.007000,-0.007500,1.005500,192.000000,0.000000,24.000000,127.500000,96.000000,15.500000,56.000000,0.000000,0.000000,0.000000,1769693864.421057,0.000000
126.000000,10222.503271,14633.418874,-1528.591100,-4458.524818,-7508.465053,-16202.801907,-5375.259265,-5439.520531,16023.362103,12406.469870,-13390.751289,3073.789546,16296.209847,-6168.992063,-8185.074709,4731.283156,0.007000,-0.007500,1.005500,192.000000,0.000000,0.000000,0.000000,0.000000,0.000000,0.000000,0.000000,0.000000,0.000000,1769693864.421073,0.000000
128.000000,10252.700478,14659.078677,-1494.527041,-4426.897100,-7481.687663,-16162.389953,-5344.123285,-5409.658600,16005.681873,12388.297902,-13412.767758,3057.629235,16287.693833,-6174.714109,-8205.370093,4716.396894,0.007000,-0.007500,1.005500,192.000000,0.000000,0.000000,0.000000,0.000000,0.000000,0.000000,0.000000,0.000000,0.000000,1769693864.421090,0.000000
130.000000,10246.889025,14658.452828,-1506.999315,-4431.121580,-7492.751776,-16150.834102,-5352.706355,-5416.297068,16047.345525,12423.658362,-13367.326661,3094.889593,16314.381816,-6139.800684,-8168.109735,4763.112040,0.007000,-0.007500,1.005500,192.000000,0.000000,0.000000,0.000000,0.000000,0.000000,0.000000,0.000000,0.000000,0.000000,1769693864.421107,0.000000
132.000000,10236.696629,14638.537423,-1525.283042,-4442.900949,-7505.447567,-16191.603683,-5366.027995,-5424.343696,16010.867478,12386.956797,-13411.337246,3066.145249,16254.255623,-6177.396319,-8212.924983,4725.382295,0.007000,-0.007500,1.005500,192.000000,0.000000,0.000000,0.000000,0.000000,0.000000,0.000000,0.000000,0.000000,0.000000,1769693864.421124,0.000000
134.000000,10259.316595,14661.649127,-1496.650457,-4424.393704,-7481.106517,-16151.750523,-5338.848274,-5396.672237,16029.709998,12411.499013,-13386.705623,3083.400796,16290.957188,-6151.490647,-8185.052357,4757.188828,0.006500,-0.010750,1.005750,192.000000,0.000000,24.000000,127.500000,72.000000,15.500000,56.000000,0.000000,0.000000,0.000000,1769693864.421141,0.000000
136.000000,10242.798655,14653.177816,-1517.906966,-4451.528722,-7504.017056,-16182.640634,-5359.970672,-5415.738275,16031.788711,12407.855679,-13381.520019,3083.870182,16290.644263,-6158.129115,-8189.567410,4751.958519,0.006500,-0.010750,1.005750,192.000000,0.000000,0.000000,0.000000,0.000000,0.000000,0.000000,0.000000,0.000000,0.000000,1769693864.421157,0.000000
138.000000,10256.120295,14662.006755,-1494.303524,-4442.677431,-7478.223142,-16157.226700,-5343.720954,-5403.757740,16015.203716,12398.579705,-13394.081699,3069.498011,16267.443152,-6176.122269,-8199.379826,4725.605813,0.006500,-0.010750,1.005750,192.000000,0.000000,0.000000,0.000000,0.000000,0.000000,0.000000,0.000000,0.000000,0.000000,1769693864.421175,0.000000
140.000000,10249.347716,14649.914461,-1494.392931,-4442.588024,-7483.386395,-16148.286003,-5348.034841,-5409.010399,16043.053990,12420.551469,-13369.159504,3097.862375,16321.534374,-6127.954260,-8154.765744,4763.760241,0.006500,-0.010750,1.005750,192.000000,0.000000,0.000000,0.000000,0.000000,0.000000,0.000000,0.000000,0.000000,0.000000,1769693864.421192,0.000000
142.000000,10228.828815,14632.144825,-1522.846701,-4465.543266,-7497.892678,-16149.917680,-5370.811268,-5431.071571,16000.205696,12384.788678,-13404.788185,3063.239522,16277.926121,-6197.334075,-8198.128128,4714.094664,0.006500,-0.010750,1.005750,192.000000,0.000000,0.000000,0.000000,0.000000,0.000000,0.000000,0.000000,0.000000,0.000000,1769693864.421207,0.000000
144.000000,10259.473057,14661.291499,-1495.287001,-4424.974850,-7481.307683,-16157.874901,-5338.803570,-5400.472033,16028.301838,12408.749748,-13384.693966,3078.572819,16300.479031,-6157.592673,-8176.223418,4748.695165,0.008250,-0.011375,1.005875,192.000000,0.000000,40.000000,127.500000,80.000000,15.500000,56.000000,0.000000,0.000000,0.000000,1769693864.421224,0.000000
146.000000,10228.426484,14635.922269,-1531.519178,-4457.407231,-7508.599163,-16173.141143,-5369.984254,-5430.780999,16025.127891,12405.866373,-13394.662844,3080.293903,16253.383905,-6167.472144,-8190.774404,4747.868150,0.008250,-0.011375,1.005875,192.000000,0.000000,0.000000,0.000000,0.000000,0.000000,0.000000,0.000000,0.000000,0.000000,1769693864.421240,0.000000
148.000000,10252.700478,14658.542235,-1503.445387,-4432.306222,-7496.126890,-16200.633788,-5343.050402,-5406.462301,16003.647864,12393.818783,-13399.691987,3071.442613,16255.306155,-6186.739348,-8200.340951,4727.304545,0.008250,-0.011375,1.005875,192.000000,0.000000,0.000000,0.000000,0.000000,0.000000,0.000000,0.000000,0.000000,0.000000,1769693864.421256,0.000000
150.000000,10244.765609,14639.543252,-1512.766065,-4448.913568,-7503.525317,-16180.181942,-5353.913349,-5421.773246,16027.161899,12406.089891,-13379.150734,3083.847831,16293.862914,-6145.679193,-8174.211761,4754.618377,0.008250,-0.011375,1.005875,192.000000,0.000000,0.000000,0.000000,0.000000,0.000000,0.000000,0.000000,0.000000,0.000000,1769693864.421273,0.000000
152.000000,10227.174786,14632.189528,-1524.880710,-4457.295472,-7522.054913,-16210.200335,-5367.726727,-5438.961737,16001.010358,12386.733280,-13415.919353,3060.311444,16273.008737,-6191.097938,-8203.112567,4718.475606,0.008250,-0.011375,1.005875,192.000000,0.000000,0.000000,0.000000,0.000000,0.000000,0.000000,0.000000,0.000000,0.000000,1769693864.421290,0.000000
154.000000,10247.269004,14645.533519,-1494.102358,-4426.137141,-7486.426233,-16156.891424,-5339.272957,-5414.352466,16006.598295,12392.075347,-13405.481089,3058.098621,16271.444115,-6166.555723,-8193.031930,4728.355077,0.008125,-0.010687,1.004938,192.000000,0.000000,32.000000,127.500000,88.000000,15.500000,48.000000,0.000000,0.000000,0.000000,1769693864.421306,0.000000
156.000000,10215.596582,14614.151670,-1528.345231,-4454.725022,-7529.319230,-16201.281989,-5374.007568,-5446.360164,16012.253286,12394.869315,-13402.262438,3068.559238,16310.917295,-6170.176705,-8182.973645,4743.688374,0.008125,-0.010687,1.004938,192.000000,0.000000,0.000000,0.000000,0.000000,0.000000,0.000000,0.000000,0.000000,0.000000,1769693864.421324,0.000000
158.000000,10238.127141,14639.856176,-1509.033323,-4431.769780,-7495.344579,-16163.127561,-5351.566416,-5422.086170,15995.422422,12377.993748,-13422.557822,3048.330909,16260.044725,-6165.460487,-8203.537250,4724.912909,0.008125,-0.010687,1.004938,192.000000,0.000000,0.000000,0.000000,0.000000,0.000000,0.000000,0.000000,0.000000,0.000000,1769693864.421343,0.000000
160.000000,10245.905548,14651.479083,-1506.865204,-4435.144894,-7477.060852,-16169.363698,-5345.419686,-5413.324286,16023.227992,12403.899420,-13388.627873,3075.242409,16288.006757,-6184.012435,-8170.724889,4757.501752,0.008125,-0.010687,1.004938,192.000000,0.000000,0.000000,0.000000,0.000000,0.000000,0.000000,0.000000,0.000000,0.000000,1769693864.421360,0.000000
162.000000,10225.990144,14626.176909,-1530.602757,-4462.212856,-7506.833375,-16174.772820,-5369.872495,-5430.378667,15997.009396,12388.320254,-13409.593810,3056.958682,16259.910614,-6173.261246,-8206.711198,4720.196691,0.008125,-0.010687,1.004938,192.000000,0.000000,0.000000,0.000000,0.000000,0.000000,0.000000,0.000000,0.000000,0.000000,1769693864.421376,0.000000
164.000000,10253.952176,14652.842540,-1490.593134,-4428.998164,-7486.202715,-16197.705710,-5334.042649,-5401.254344,16019.607010,12398.199725,-13394.148754,3071.800240,16288.364385,-6175.429365,-8186.080538,4737.876920,0.009063,-0.010344,1.005469,192.000000,0.000000,40.000000,127.500000,88.000000,15.500000,56.000000,0.000000,0.000000,0.000000,1769693864.421393,0.000000
166.000000,10216.133024,14614.196374,-1532.234434,-4471.622940,-7517.092826,-16231.702713,-5376.555667,-5440.861635,16009.906353,12385.056899,-13402.262438,3064.960607,16292.097126,-6170.668444,-8190.953218,4737.206368,0.009063,-0.010344,1.005469,192.000000,0.000000,0.000000,0.000000,0.000000,0.000000,0.000000,0.000000,0.000000,0.000000,1769693864.421410,0.000000
168.000000,10241.904586,14640.750246,-1505.389989,-4448.555940,-7503.882945,-16138.808863,-5349.912387,-5416.051199,15997.970521,12378.239617,-13411.449005,3060.378499,16292.454754,-6188.795708,-8204.341913,4712.932374,0.009063,-0.010344,1.005469,192.000000,0.000000,0.000000,0.000000,0.000000,0.000000,0.000000,0.000000,0.000000,0.000000,1769693864.421425,0.000000
170.000000,10247.157246,14652.216691,-1502.305448,-4434.496693,-7490.673064,-16192.117774,-5345.397335,-5410.776187,16024.747911,12410.962571,-13382.548199,3080.562124,16296.746289,-6156.788010,-8176.782212,4745.878845,0.009063,-0.010344,1.005469,192.000000,0.000000,0.000000,0.000000,0.000000,0.000000,0.000000,0.000000,0.000000,0.000000,1769693864.421442,0.000000
172.000000,10227.890042,14637.643354,-1525.528911,-4455.708498,-7511.259021,-16202.086652,-5370.185419,-5431.697420,15989.879190,12390.957760,-13410.867859,3058.143325,16254.456789,-6185.644112,-8208.275820,4718.207385,0.009063,-0.010344,1.005469,192.000000,0.000000,0.000000,0.000000,0.000000,0.000000,0.000000,0.000000,0.000000,0.000000,1769693864.421458,0.000000
174.000000,10259.785981,14660.777409,-1496.091663,-4426.606527,-7472.881075,-16143.726247,-5339.317660,-5403.444815,16019.048216,12405.732263,-13392.114746,3070.906171,16282.619987,-6167.226275,-8186.326407,4737.005202,0.009063,-0.010344,1.005469,192.000000,0.000000,0.000000,0.000000,0.000000,0.000000,0.000000,0.000000,0.000000,0.000000,1769693864.421474,0.000000
176.000000,10227.241841,14636.458711,-1529.105190,-4461.139972,-7516.914012,-16186.440430,-5371.727690,-5434.536092,16019.361141,12403.005350,-13397.367406,3075.823554,16289.481972,-6157.995004,-8186.080538,4737.608700,0.008000,-0.018000,1.014000,192.000000,0.000000,32.000000,127.500000,56.000000,15.500000,88.000000,0.000000,0.000000,0.000000,1769693864.421491,0.000000
178.000000,10243.737429,14648.349839,-1511.246146,-4431.121580,-7499.569058,-16191.491925,-5347.207826,-5413.525452,15998.216390,12378.507838,-13416.880478,3056.824572,16277.568493,-6170.199057,-8208.521689,4711.412455,0.008000,-0.018000,1.014000,192.000000,0.000000,0.000000,0.000000,0.000000,0.000000,0.000000,0.000000,0.000000,0.000000,1769693864.421507,0.000000
180.000000,10240.295260,14643.857139,-1514.665963,-4434.161417,-7506.051064,-16211.854364,-5349.822980,-5416.006495,16019.696417,12405.508745,-13384.872780,3084.227810,16300.590789,-6157.771487,-8181.476078,4748.963386,0.008000,-0.018000,1.014000,192.000000,0.000000,0.000000,0.000000,0.000000,0.000000,0.000000,0.000000,0.000000,0.000000,1769693864.421524,0.000000
182.000000,10222.056237,14630.311981,-1539.208178,-4454.479152,-7533.722524,-16222.180870,-5371.750041,-5436.503045,15994.751870,12380.675957,-13421.082606,3054.276473,16268.001946,-6196.440005,-8210.801567,4711.904193,0.008000,-0.018000,1.014000,192.000000,0.000000,0.000000,0.000000,0.000000,0.000000,0.000000,0.000000,0.000000,0.000000,1769693864.421540,0.000000
184.000000,10244.989126,14645.935851,-1506.149948,-4422.113827,-7505.894602,-16160.937090,-5341.105800,-5408.228088,16006.553591,12397.842097,-13401.949513,3074.951836,16255.484969,-6180.212638,-8196.429395,4734.255938,0.008000,-0.018000,1.014000,192.000000,0.000000,0.000000,0.000000,0.000000,0.000000,0.000000,0.000000,0.000000,0.000000,1769693864.421556,0.000000
186.000000,10223.889080,14629.686133,-1536.950652,-4448.645347,-7530.034486,-16187.468611,-5371.727690,-5429.864577,16005.123079,12390.957760,-13400.608409,3078.483412,16273.388716,-6183.051310,-8197.144651,4729.830292,0.004000,-0.012000,1.006000,192.000000,0.000000,16.000000,127.500000,80.000000,15.500000,56.000000,0.000000,0.000000,0.000000,1769693864.421574,0.000000
188.000000,10249.347716,14650.137979,-1514.822425,-4431.658021,-7491.589486,-16194.129431,-5355.120344,-5408.742179,15998.506963,12379.804239,-13407.448042,3068.849810,16243.079751,-6190.941476,-8213.997866,4720.464912,0.004000,-0.012000,1.006000,192.000000,0.000000,0.000000,0.000000,0.000000,0.000000,0.000000,0.000000,0.000000,0.000000,1769693864.421589,0.000000
190.000000,10250.867635,14648.752171,-1514.017762,-4443.169170,-7502.139509,-16202.913666,-5360.551817,-5412.474920,16031.006400,12404.793490,-13379.240141,3085.859488,16289.280807,-6156.855065,-8178.883276,4753.500790,0.004000,-0.012000,1.006000,192.000000,0.000000,0.000000,0.000000,0.000000,0.000000,0.000000,0.000000,0.000000,0.000000,1769693864.421606,0.000000
192.000000,10241.904586,14644.170063,-1527.674678,-4458.793039,-7510.901393,-16182.528875,-5371.034786,-5421.169748,16001.658559,12379.401908,-13407.559801,3061.741955,16289.191400,-6214.500214,-8208.052302,4715.659286,0.004000,-0.012000,1.006000,192.000000,0.000000,0.000000,0.000000,0.000000,0.000000,0.000000,0.000000,0.000000,0.000000,1769693864.421623,0.000000
194.000000,10258.914263,14658.542235,-1497.522175,-4434.049658,-7483.721672,-16185.479305,-5344.302099,-5399.332094,16030.827586,12398.959684,-13388.359653,3081.076214,16282.664690,-6139.845388,-8182.012520,4734.010069,0.004000,-0.012000,1.006000,192.000000,0.000000,0.000000,0.000000,0.000000,0.000000,0.000000,0.000000,0.000000,0.000000,1769693864.421639,0.000000
196.000000,10230.058161,14631.094293,-1526.422981,-4459.575350,-7514.008285,-16205.215896,-5370.721861,-5427.830568,16023.652676,12397.328007,-13391.578304,3074.236581,16307.050444,-6177.508077,-8189.679168,4733.943013,0.004000,-0.016000,1.008000,192.000000,0.000000,16.000000,127.500000,64.000000,15.500000,64.000000,0.000000,0.000000,0.000000,1769693864.421656,0.000000
198.000000,10231.913356,14634.827034,-1508.429826,-4445.113772,-7492.841183,-16186.082803,-5354.673309,-5420.879176,15995.735347,12374.931559,-13413.147737,3053.740031,16249.070018,-6202.676142,-8201.994980,4719.257917,0.004000,-0.016000,1.008000,192.000000,0.000000,0.000000,0.000000,0.000000,0.000000,0.000000,0.000000,0.000000,0.000000,1769693864.421672,0.000000
200.000000,10230.616955,14629.976705,-1512.833120,-4455.596740,-7507.995666,-16143.681543,-5359.009547,-5425.103655,16015.650751,12391.069518,-13391.712414,3068.067499,16292.030071,-6181.307874,-8177.072785,4742.235511,0.004000,-0.016000,1.008000,192.000000,0.000000,0.000000,0.000000,0.000000,0.000000,0.000000,0.000000,0.000000,0.000000,1769693864.421689,0.000000
202.000000,10221.206870,14625.551060,-1529.820446,-4462.503429,-7521.362009,-16230.965105,-5372.957036,-5434.290222,15988.940416,12371.399983,-13419.696798,3052.555389,16263.151617,-6203.704322,-8215.696599,4712.172414,0.004000,-0.016000,1.008000,192.000000,0.000000,0.000000,0.000000,0.000000,0.000000,0.000000,0.000000,0.000000,0.000000,1769693864.421705,0.000000
204.000000,10244.743257,14650.115627,-1501.813710,-4438.363545,-7503.324151,-16201.125527,-5346.760791,-5408.853937,16012.119175,12396.322178,-13394.081699,3068.760403,16266.683193,-6168.746193,-8192.830764,4733.652441,0.004000,-0.016000,1.008000,192.000000,0.000000,0.000000,0.000000,0.000000,0.000000,0.000000,0.000000,0.000000,0.000000,1769693864.421722,0.000000
206.000000,10215.529527,14623.449996,-1540.124600,-4468.180772,-7538.639908,-16220.012751,-5377.337978,-5438.671164,16007.492364,12389.884876,-13395.311045,3070.526191,16271.555873,-6179.340920,-8198.686921,4727.662173,0.008000,-0.010000,1.004000,192.000000,0.000000,32.000000,127.500000,88.000000,15.500000,48.000000,0.000000,0.000000,0.000000,1769693864.421738,0.000000
208.000000,10241.748123,14644.930022,-1515.023591,-4439.145856,-7496.059834,-16190.307282,-5349.890035,-5413.771321,15990.996777,12376.630292,-13408.632685,3058.523304,16267.577263,-6190.852069,-8213.774349,4712.887670,0.008000,-0.010000,1.004000,192.000000,0.000000,0.000000,0.000000,0.000000,0.000000,0.000000,0.000000,0.000000,0.000000,1769693864.421755,0.000000
210.000000,10234.126179,14637.799816,-1516.096475,-4445.896083,-7504.933477,-16182.752393,-5354.516846,-5420.700362,16025.239649,12404.771138,-13381.721184,3079.712758,16322.853127,-6179.139755,-8181.833706,4741.341441,0.008000,-0.010000,1.004000,192.000000,0.000000,0.000000,0.000000,0.000000,0.000000,0.000000,0.000000,0.000000,0.000000,1769693864.901115,0.000000
212.000000,10221.072760,14630.513147,-1533.955518,-4462.883408,-7524.401846,-16195.671701,-5377.606199,-5437.307708,15981.519637,12365.923806,-13424.368313,3044.754630,16237.849443,-6202.832604,-8215.674247,4704.081083,0.008000,-0.010000,1.004000,192.000000,0.000000,0.000000,0.000000,0.000000,0.000000,0.000000,0.000000,0.000000,0.000000,1769693864.901178,0.000000
214.000000,10256.544978,14655.636508,-1492.716550,-4428.081742,-7479.094860,-16173.588177,-5342.290442,-5402.103710,16015.315475,12400.971341,-13398.015606,3068.894514,16282.485876,-6177.239856,-8187.220477,4729.964403,0.008000,-0.010000,1.004000,192.000000,0.000000,0.000000,0.000000,0.000000,0.000000,0.000000,0.000000,0.000000,0.000000,1769693864.901232,0.000000
216.000000,10221.519795,14621.438339,-1523.137274,-4464.291568,-7516.422274,-16219.073977,-5382.098899,-5436.771266,16015.360178,12391.807126,-13398.887324,3074.258932,16283.804629,-6180.570266,-8191.355549,4733.585386,0.006000,-0.014000,1.010000,192.000000,0.000000,24.000000,127.500000,72.000000,15.500000,72.000000,0.000000,0.000000,0.000000,1769693864.901292,0.000000
218.000000,10250.510007,14646.896976,-1493.230640,-4439.458780,-7487.655579,-16184.831105,-5356.126172,-5407.669295,15997.747004,12378.396079,-13408.297409,3064.424165,16257.675440,-6198.161089,-8203.626657,4712.686504,0.006000,-0.014000,1.010000,192.000000,0.000000,0.000000,0.000000,0.000000,0.000000,0.000000,0.000000,0.000000,0.000000,1769693864.901354,0.000000
220.000000,10235.981373,14633.530633,-1502.819538,-4451.618129,-7493.444680,-16201.281989,-5362.630530,-5417.526414,16027.139548,12401.217210,-13379.821286,3083.534906,16291.583036,-6162.644167,-8172.155401,4746.616453,0.006000,-0.014000,1.010000,192.000000,0.000000,0.000000,0.000000,0.000000,0.000000,0.000000,0.000000,0.000000,0.000000,1769693864.901403,0.000000
222.000000,10211.528565,14615.403368,-1519.717457,-4462.436374,-7521.987858,-16210.759128,-5373.873457,-5435.072533,15979.932663,12370.371803,-13419.674447,3055.461115,16284.229312,-6190.673255,-8210.980381,4701.354170,0.006000,-0.014000,1.010000,192.000000,0.000000,0.000000,0.000000,0.000000,0.000000,0.000000,0.000000,0.000000,0.000000,1769693864.901416,0.000000
224.000000,10228.381780,14629.350856,-1487.173317,-4427.232376,-7492.885887,-16170.235416,-5339.898806,-5410.016228,15997.478783,12381.480620,-13400.653112,3070.861467,16277.277920,-6177.373967,-8190.215610,4728.891519,0.006000,-0.014000,1.010000,192.000000,0.000000,0.000000,0.000000,0.000000,0.000000,0.000000,0.000000,0.000000,0.000000,1769693864.901432,0.000000
226.000000,10182.560704,14583.283911,-1525.975946,-4467.353757,-7525.675896,-16212.167288,-5378.097937,-5446.360164,15995.802402,12383.961664,-13406.710435,3067.978092,16270.393583,-6176.278731,-8196.429395,4733.294813,0.004000,-0.012000,1.004000,192.000000,0.000000,16.000000,127.500000,80.000000,15.500000,48.000000,0.000000,0.000000,0.000000,1769693864.901447,0.000000
228.000000,10182.605408,14584.200333,-1499.444425,-4448.868865,-7508.777977,-16143.592136,-5354.360384,-5423.606089,15968.242701,12357.854826,-13428.011647,3047.705060,16245.605498,-6196.261191,-8218.714084,4703.254068,0.004000,-0.012000,1.004000,192.000000,0.000000,0.000000,0.000000,0.000000,0.000000,0.000000,0.000000,0.000000,0.000000,1769693864.901464,0.000000
230.000000,10155.962128,14554.316050,-1500.249088,-4448.131257,-7479.765413,-16197.392785,-5355.030937,-5429.216376,15999.244571,12377.993748,-13397.076833,3063.172467,16298.087394,-6170.199057,-8182.973645,4739.776819,0.004000,-0.012000,1.004000,192.000000,0.000000,0.000000,0.000000,0.000000,0.000000,0.000000,0.000000,0.000000,0.000000,1769693864.901475,0.000000
232.000000,10122.032180,14516.474547,-1513.727190,-4459.508295,-7500.396073,-16208.814527,-5368.419632,-5446.807199,15961.783047,12346.366030,-13425.865880,3034.226958,16268.001946,-6191.544973,-8210.779215,4712.373580,0.004000,-0.012000,1.004000,192.000000,0.000000,0.000000,0.000000,0.000000,0.000000,0.000000,0.000000,0.000000,0.000000,1769693864.901504,0.000000
234.000000,10131.241099,14521.593096,-1495.734035,-4435.815446,-7467.203732,-16159.014840,-5344.592672,-5427.607051,15980.692623,12367.242559,-13408.990313,3046.229845,16279.244873,-6171.674272,-8181.386671,4733.205406,0.004000,-0.012000,1.004000,192.000000,0.000000,0.000000,0.000000,0.000000,0.000000,0.000000,0.000000,0.000000,0.000000,1769693864.901520,0.000000
236.000000,10102.720273,14489.987730,-1529.351059,-4470.773574,-7504.911125,-16182.104192,-5380.690739,-5462.006386,15973.338899,12349.450570,-13425.597659,3037.087981,16287.380908,-6175.831696,-8184.962950,4727.036324,0.005000,-0.012000,1.005000,192.000000,0.000000,24.000000,127.500000,80.000000,15.500000,56.000000,0.000000,0.000000,0.000000,1769693864.901532,0.000000
238.000000,10141.187625,14526.085797,-1506.462873,-4438.967042,-7468.388375,-16177.767954,-5357.467277,-5432.636193,15964.934643,12334.385495,-13434.918336,3028.527263,16267.912539,-6185.532354,-8199.871564,4713.669981,0.005000,-0.012000,1.005000,192.000000,0.000000,0.000000,0.000000,0.000000,0.000000,0.000000,0.000000,0.000000,0.000000,1769693864.901549,0.000000
240.000000,10153.682250,14536.412303,-1512.274326,-4437.648289,-7477.127907,-16159.864206,-5354.405088,-5429.506949,15997.948169,12371.489390,-13399.356711,3059.395022,16316.214659,-6133.296327,-8169.339081,4755.579502,0.005000,-0.012000,1.005000,192.000000,0.000000,0.000000,0.000000,0.000000,0.000000,0.000000,0.000000,0.000000,0.000000,1769693864.901563,0.000000
242.000000,10144.808608,14532.321934,-1534.559016,-4463.039871,-7513.628306,-16205.484117,-5377.673254,-5455.680842,15967.348631,12341.672163,-13434.180729,3029.063705,16269.767734,-6208.599354,-8210.376884,4720.979002,0.005000,-0.012000,1.005000,192.000000,0.000000,0.000000,0.000000,0.000000,0.000000,0.000000,0.000000,0.000000,0.000000,1769693864.901580,0.000000
244.000000,10171.720108,14556.461818,-1506.976963,-4444.130295,-7486.761509,-16162.881692,-5348.951262,-5435.966603,15986.079393,12351.372820,-13421.753159,3029.890720,16256.893129,-6195.925915,-8193.411910,4730.903176,0.005000,-0.012000,1.005000,192.000000,0.000000,0.000000,0.000000,0.000000,0.000000,0.000000,0.000000,0.000000,0.000000,1769693864.901592,0.000000
246.000000,10147.200244,14532.590155,-1540.571635,-4478.082595,-7509.269715,-16223.946658,-5381.405995,-5471.416470,15983.643053,12354.166788,-13425.307086,3034.115199,16273.232254,-6181.441984,-8194.037759,4732.825426,0.005500,-0.010000,1.009500,192.000000,0.000000,24.000000,127.500000,96.000000,15.500000,88.000000,0.000000,0.000000,0.000000,1769693864.901609,0.000000
248.000000,10184.997044,14572.264501,-1505.211175,-4449.092382,-7493.355273,-16207.406367,-5352.751059,-5440.213435,15968.466219,12339.593451,-13446.049505,3015.786769,16258.793027,-6214.611973,-8213.237907,4704.773987,0.005500,-0.010000,1.009500,192.000000,0.000000,0.000000,0.000000,0.000000,0.000000,0.000000,0.000000,0.000000,0.000000,1769693864.901624,0.000000
250.000000,10186.539315,14576.086649,-1509.502710,-4449.852341,-7515.081169,-16208.479250,-5361.222370,-5440.191083,16006.486536,12375.758574,-13411.739577,3049.113220,16293.058252,-6183.967731,-8180.671415,4738.346307,0.005500,-0.010000,1.009500,192.000000,0.000000,0.000000,0.000000,0.000000,0.000000,0.000000,0.000000,0.000000,0.000000,1769693864.901642,0.000000
252.000000,10190.115594,14584.557961,-1521.527949,-4462.682243,-7509.225012,-16192.453050,-5380.266056,-5441.979223,15982.436059,12357.430143,-13432.772569,3040.440743,16242.588013,-6191.880249,-8211.226250,4708.014990,0.005500,-0.010000,1.009500,192.000000,0.000000,0.000000,0.000000,0.000000,0.000000,0.000000,0.000000,0.000000,0.000000,1769693864.901658,0.000000
254.000000,10240.004687,14627.741531,-1477.651474,-4427.701763,-7448.048287,-16133.310334,-5341.999870,-5395.621705,16022.378626,12388.409661,-13392.740594,3066.860505,16291.493629,-6166.443964,-8186.214648,4728.668002,0.005500,-0.010000,1.009500,192.000000,0.000000,0.000000,0.000000,0.000000,0.000000,0.000000,0.000000,0.000000,0.000000,1769693864.901673,0.000000
0.000000,10214.411940,14599.444222,-1511.916698,-4467.197295,-7502.184212,-16187.178038,-5375.594542,-5425.349525,16035.074417,12394.690501,-13381.877647,3075.600037,16305.284656,-6153.770525,-8176.111660,4732.803074,0.008750,-0.009000,1.010750,192.000000,0.000000,48.000000,127.500000,96.000000,15.500000,80.000000,0.000000,0.000000,0.000000,1769693864.901690,0.000000
2.000000,10241.211682,14625.595763,-1489.073216,-4443.191522,-7469.796535,-16186.082803,-5351.298195,-5405.009437,16019.338789,12386.487411,-13399.937856,3056.757516,16292.275940,-6185.800575,-8199.156308,4706.629182,0.008750,-0.009000,1.010750,192.000000,0.000000,0.000000,0.000000,0.000000,0.000000,0.000000,0.000000,0.000000,0.000000,1769693864.901702,0.000000
4.000000,10230.572251,14614.285781,-1501.545489,-4451.238150,-7470.243570,-16187.558018,-5357.534332,-5415.224184,16037.466054,12407.989789,-13379.150734,3072.828421,16307.676292,-6157.324452,-8173.205933,4736.558168,0.008750,-0.009000,1.010750,192.000000,0.000000,0.000000,0.000000,0.000000,0.000000,0.000000,0.000000,0.000000,0.000000,1769693864.901719,0.000000
6.000000,10214.210774,14601.321769,-1525.752428,-4461.005862,-7490.158974,-16204.098309,-5376.175687,-5432.010345,16008.364082,12377.971396,-13411.739577,3053.583569,16264.805647,-6187.946342,-8203.760767,4707.746769,0.008750,-0.009000,1.010750,192.000000,0.000000,0.000000,0.000000,0.000000,0.000000,0.000000,0.000000,0.000000,0.000000,1769693864.901733,0.000000
8.000000,10237.166016,14626.154557,-1500.807881,-4433.200292,-7453.770334,-16155.304450,-5350.918216,-5411.178519,16015.896620,12391.382443,-13401.614237,3063.239522,16289.146696,-6166.086336,-8183.264218,4734.792380,0.008750,-0.009000,1.010750,192.000000,0.000000,0.000000,0.000000,0.000000,0.000000,0.000000,0.000000,0.000000,0.000000,1769693864.901749,0.000000
10.000000,10213.741388,14603.869868,-1522.556129,-4450.545245,-7496.171593,-16181.478343,-5375.058100,-5432.256214,16011.828603,12385.369824,-13402.128327,3055.908150,16314.113595,-6165.527542,-8191.176735,4738.480418,0.008375,-0.009500,1.011375,192.000000,0.000000,32.000000,127.500000,88.000000,15.500000,80.000000,0.000000,0.000000,0.000000,1769693864.901762,0.000000
12.000000,10222.816196,14611.849441,-1507.468701,-4431.032173,-7482.849954,-16162.814637,-5359.121306,-5417.079379,16000.898600,12384.118126,-13405.704606,3057.450421,16276.897940,-6184.861801,-8197.815203,4737.452237,0.008375,-0.009500,1.011375,192.000000,0.000000,0.000000,0.000000,0.000000,0.000000,0.000000,0.000000,0.000000,0.000000,1769693864.901778,0.000000
14.000000,10225.386646,14616.543307,-1503.870070,-4425.444236,-7494.159936,-16198.935056,-5351.544064,-5413.011362,16015.002550,12395.785737,-13386.213885,3071.979054,16293.907618,-6152.362365,-8175.977549,4765.347214,0.008375,-0.009500,1.011375,192.000000,0.000000,0.000000,0.000000,0.000000,0.000000,0.000000,0.000000,0.000000,0.000000,1769693864.901792,0.000000
16.000000,10215.462472,14607.647313,-1518.152835,-4441.515141,-7511.348428,-16199.896181,-5370.431289,-5430.043391,15991.734385,12387.448536,-13409.772624,3060.400851,16252.199263,-6181.710205,-8201.413834,4723.437694,0.008375,-0.009500,1.011375,192.000000,0.000000,0.000000,0.000000,0.000000,0.000000,0.000000,0.000000,0.000000,0.000000,1769693864.901807,0.000000
18.000000,10240.652888,14632.815377,-1484.424053,-4419.453969,-7471.830543,-16170.615395,-5344.324451,-5407.915164,16020.143452,12405.687559,-13391.712414,3073.118993,16294.444060,-6159.425516,-8184.650026,4730.992583,0.008375,-0.009500,1.011375,192.000000,0.000000,0.000000,0.000000,0.000000,0.000000,0.000000,0.000000,0.000000,0.000000,1769693864.901821,0.000000
20.000000,10218.748178,14612.318827,-1516.074123,-4448.824161,-7507.481576,-16215.073015,-5376.689777,-5435.452513,16023.920897,12402.759481,-13398.730862,3066.391118,16279.736612,-6163.627644,-8190.260314,4721.470740,0.008188,-0.009750,1.009688,192.000000,0.000000,32.000000,127.500000,88.000000,15.500000,64.000000,0.000000,0.000000,0.000000,1769693864.901836,0.000000
22.000000,10242.865711,14630.110816,-1499.667942,-4428.014687,-7473.775145,-16169.140180,-5355.701489,-5412.676086,16003.334940,12391.673016,-13406.777490,3060.669072,16273.344013,-6175.474069,-8204.319561,4713.446464,0.008188,-0.009750,1.009688,192.000000,0.000000,0.000000,0.000000,0.000000,0.000000,0.000000,0.000000,0.000000,0.000000,1769693864.901852,0.000000
24.000000,10255.092115,14642.784255,-1497.164547,-4420.638611,-7457.056040,-16158.165474,-5344.950300,-5400.449681,16038.293068,12424.597135,-13380.938873,3083.669017,16309.062101,-6143.511074,-8172.334215,4745.521217,0.008188,-0.009750,1.009688,192.000000,0.000000,0.000000,0.000000,0.000000,0.000000,0.000000,0.000000,0.000000,0.000000,1769693864.901866,0.000000
26.000000,10235.556690,14629.686133,-1515.738847,-4442.520969,-7483.900486,-16175.264558,-5364.686890,-5418.040504,16015.293123,12399.294960,-13404.318798,3067.374595,16285.033975,-6168.969711,-8196.787023,4723.303583,0.008188,-0.009750,1.009688,192.000000,0.000000,0.000000,0.000000,0.000000,0.000000,0.000000,0.000000,0.000000,0.000000,1769693864.901886,0.000000
28.000000,10258.064897,14646.360534,-1486.838041,-4423.186710,-7441.141598,-16136.059598,-5335.964899,-5395.577001,16026.826623,12406.603981,-13386.727975,3077.745805,16315.767624,-6144.203978,-8176.402232,4738.592176,0.008188,-0.009750,1.009688,192.000000,0.000000,0.000000,0.000000,0.000000,0.000000,0.000000,0.000000,0.000000,0.000000,1769693864.901900,0.000000
30.000000,10217.027094,14605.725063,-1522.466722,-4467.398461,-7482.335863,-16158.590157,-5376.399204,-5436.905377,16017.573001,12399.317312,-13392.159449,3072.582552,16309.106804,-6168.455621,-8170.926055,4744.448333,0.007094,-0.009875,1.006844,192.000000,0.000000,24.000000,127.500000,88.000000,15.500000,48.000000,0.000000,0.000000,0.000000,1769693864.901917,0.000000
32.000000,10226.839510,14615.760996,-1505.568803,-4449.159437,-7480.011282,-16199.359739,-5358.517809,-5425.371876,15992.270826,12373.054012,-13416.880478,3046.386307,16265.856179,-6216.869499,-8196.518802,4721.381333,0.007094,-0.009875,1.006844,192.000000,0.000000,0.000000,0.000000,0.000000,0.000000,0.000000,0.000000,0.000000,0.000000,1769693864.901929,0.000000
34.000000,10232.561556,14619.739606,-1497.142195,-4440.956347,-7477.217314,-16198.868000,-5354.002756,-5421.057990,16026.916030,12400.747824,-13386.347996,3065.340586,16324.618915,-6135.553853,-8163.237055,4750.796229,0.007094,-0.009875,1.006844,192.000000,0.000000,0.000000,0.000000,0.000000,0.000000,0.000000,0.000000,0.000000,0.000000,1769693864.901946,0.000000
36.000000,10225.029019,14613.637580,-1514.822425,-4456.066126,-7505.849899,-16189.726137,-5368.620797,-5427.718810,15990.773259,12371.981129,-13408.520926,3046.989804,16269.141885,-6196.328246,-8196.183526,4712.172414,0.007094,-0.009875,1.006844,192.000000,0.000000,0.000000,0.000000,0.000000,0.000000,0.000000,0.000000,0.000000,0.000000,1769693864.901960,0.000000
38.000000,10261.328252,14651.233214,-1481.160698,-4420.482149,-7463.180418,-16140.820520,-5332.187454,-5388.670312,16017.528298,12401.194859,-13385.990368,3071.509668,16282.731746,-6170.467278,-8187.086366,4722.498920,0.007094,-0.009875,1.006844,192.000000,0.000000,0.000000,0.000000,0.000000,0.000000,0.000000,0.000000,0.000000,0.000000,1769693864.901976,0.000000
40.000000,10229.968754,14628.166214,-1515.805902,-4450.098211,-7514.388265,-16214.961256,-5368.911370,-5419.962754,16025.954905,12407.475699,-13385.006891,3078.908095,16342.209738,-6172.545990,-8188.203953,4723.549452,0.008547,-0.012938,1.006422,192.000000,0.000000,40.000000,127.500000,64.000000,15.500000,56.000000,0.000000,0.000000,0.000000,1769693864.901988,0.000000
42.000000,10251.001746,14637.978630,-1495.689332,-4433.088533,-7495.277523,-16196.521067,-5347.140771,-5401.366103,15997.545838,12390.711891,-13408.520926,3063.731261,16259.038896,-6176.301083,-8211.695637,4699.655437,0.008547,-0.012938,1.006422,192.000000,0.000000,0.000000,0.000000,0.000000,0.000000,0.000000,0.000000,0.000000,0.000000,1769693864.902005,0.000000
44.000000,10245.570272,14632.390694,-1504.384161,-4434.608452,-7490.851878,-16185.278140,-5347.341937,-5408.138681,16029.687647,12413.756539,-13373.540446,3085.188935,16292.030071,-6141.030030,-8177.810392,4740.492075,0.008547,-0.012938,1.006422,192.000000,0.000000,0.000000,0.000000,0.000000,0.000000,0.000000,0.000000,0.000000,0.000000,1769693864.902019,0.000000
46.000000,10239.915280,14630.803720,-1516.588213,-4443.236225,-7501.066625,-16179.913721,-5360.350652,-5415.313591,16001.882076,12392.298864,-13410.174955,3060.825534,16260.737629,-6185.308836,-8211.695637,4711.390103,0.008547,-0.012938,1.006422,192.000000,0.000000,0.000000,0.000000,0.000000,0.000000,0.000000,0.000000,0.000000,0.000000,1769693864.902034,0.000000
48.000000,10263.250502,14651.032049,-1484.066425,-4415.676524,-7450.439924,-16139.077084,-5333.461503,-5387.239800,16021.998646,12412.460138,-13376.937911,3087.178241,16298.266208,-6174.289426,-8182.124279,4745.074182,0.008547,-0.012938,1.006422,192.000000,0.000000,0.000000,0.000000,0.000000,0.000000,0.000000,0.000000,0.000000,0.000000,1769693864.902047,0.000000
50.000000,10241.055219,14631.608383,-1511.134387,-4442.990356,-7473.931607,-16186.082803,-5364.195152,-5414.330115,16016.813042,12399.809051,-13377.742574,3085.993598,16312.548973,-6154.731650,-8178.458593,4755.601854,0.008547,-0.012938,1.006422,192.000000,0.000000,0.000000,0.000000,0.000000,0.000000,0.000000,0.000000,0.000000,0.000000,1769693864.902063,0.000000
52.000000,10254.823894,14648.059267,-1495.711684,-4437.111847,-7455.625529,-16132.863299,-5354.427440,-5405.836452,16014.086129,12395.718681,-13396.160411,3073.454270,16298.981464,-6148.786086,-8183.890067,4741.453200,0.010000,-0.016000,1.010000,192.000000,0.000000,40.000000,127.500000,64.000000,15.500000,72.000000,0.000000,0.000000,0.000000,1769693864.902079,0.000000
54.000000,10257.483751,14647.925156,-1490.101396,-4436.597757,-7452.183360,-16116.300656,-5352.616948,-5401.544917,16039.321248,12415.231754,-13368.220731,3086.328874,16340.868633,-6141.253548,-8156.531531,4768.565866,0.010000,-0.016000,1.010000,192.000000,0.000000,0.000000,0.000000,0.000000,0.000000,0.000000,0.000000,0.000000,0.000000,1769693864.902095,0.000000
56.000000,10240.362315,14627.830938,-1501.277268,-4444.733792,-7463.426288,-16165.608605,-5364.150448,-5415.917088,16011.046292,12396.210420,-13392.852353,3070.548543,16308.905638,-6184.750043,-8190.729700,4743.263691,0.010000,-0.016000,1.010000,192.000000,0.000000,0.000000,0.000000,0.000000,0.000000,0.000000,0.000000,0.000000,0.000000,1769693864.902110,0.000000
58.000000,10256.388516,14641.599612,-1472.465869,-4419.901004,-7439.465218,-16146.363753,-5340.435247,-5396.180498,16030.715827,12409.375597,-13375.395641,3075.376520,16338.186424,-6140.828865,-8167.305072,4767.157706,0.010000,-0.016000,1.010000,192.000000,0.000000,0.000000,0.000000,0.000000,0.000000,0.000000,0.000000,0.000000,0.000000,1769693864.902129,0.000000
60.000000,10227.711228,14616.833880,-1515.090646,-4446.343118,-7476.725576,-16155.416209,-5375.214562,-5425.595394,16016.120138,12389.616655,-13386.795030,3072.113165,16310.358502,-6161.124249,-8177.385709,4757.501752,0.010000,-0.016000,1.010000,192.000000,0.000000,0.000000,0.000000,0.000000,0.000000,0.000000,0.000000,0.000000,0.000000,1769693864.902145,0.000000
62.000000,10245.749086,14637.844519,-1489.877878,-4425.019553,-7456.027860,-16154.030401,-5351.074678,-5404.785920,16002.016187,12383.514629,-13404.274095,3068.738052,16269.052478,-6171.249589,-8204.654837,4732.758371,0.012000,-0.014000,1.004000,192.000000,0.000000,48.000000,127.500000,72.000000,15.500000,48.000000,0.000000,0.000000,0.000000,1769693864.902160,0.000000
64.000000,10252.074629,14644.326525,-1482.837079,-4426.047734,-7465.281482,-16164.938052,-5343.788009,-5395.308780,16026.714865,12407.274533,-13371.260568,3094.934296,16342.053275,-6137.341993,-8167.282720,4756.048889,0.012000,-0.014000,1.004000,192.000000,0.000000,0.000000,0.000000,0.000000,0.000000,0.000000,0.000000,0.000000,0.000000,1769693864.902173,0.000000
66.000000,10238.373010,14631.496624,-1507.491053,-4454.702670,-7495.813965,-16190.776669,-5364.105745,-5410.329152,15999.959826,12385.101603,-13392.271208,3073.476621,16301.797784,-6189.130984,-8202.978456,4715.033438,0.012000,-0.014000,1.004000,192.000000,0.000000,0.000000,0.000000,0.000000,0.000000,0.000000,0.000000,0.000000,0.000000,1769693864.902189,0.000000
68.000000,10262.378784,14653.177816,-1480.467794,-4423.969021,-7484.951017,-16195.448183,-5329.907576,-5383.238838,16015.918972,12401.284266,-13373.071059,3083.445499,16280.943606,-6177.441022,-8186.728738,4729.293851,0.012000,-0.014000,1.004000,192.000000,0.000000,0.000000,0.000000,0.000000,0.000000,0.000000,0.000000,0.000000,0.000000,1769693864.902205,0.000000
70.000000,10233.947365,14626.087502,-1526.110056,-4456.267292,-7513.896527,-16195.559942,-5363.546951,-5416.431179,16012.745024,12402.737129,-13378.122554,3083.311389,16313.130118,-6142.818170,-8186.862849,4731.193749,0.012000,-0.014000,1.004000,192.000000,0.000000,0.000000,0.000000,0.000000,0.000000,0.000000,0.000000,0.000000,0.000000,1769693864.902219,0.000000
72.000000,10248.878330,14642.024296,-1506.172300,-4433.155588,-7471.204695,-16157.673735,-5346.045535,-5403.489519,15997.635245,12383.872257,-13402.083624,3062.792487,16288.096164,-6180.033824,-8206.152404,4709.177281,0.014000,-0.018000,0.998000,192.000000,0.000000,56.000000,127.500000,56.000000,15.500000,24.000000,0.000000,0.000000,0.000000,1769693864.902232,0.000000
74.000000,10251.493484,14646.002906,-1504.227698,-4424.036077,-7461.057003,-16161.786456,-5344.592672,-5400.270867,16017.125966,12413.711836,-13376.490876,3081.255028,16308.860935,-6144.494551,-8173.384747,4754.685432,0.014000,-0.018000,0.998000,192.000000,0.000000,0.000000,0.000000,0.000000,0.000000,0.000000,0.000000,0.000000,0.000000,1769693865.380877,0.000000
76.000000,10233.925013,14629.261449,-1519.650402,-4446.164304,-7481.039462,-16157.696087,-5369.648977,-5420.946231,16003.960789,12387.493239,-13399.177897,3067.285188,16308.548010,-6166.667481,-8201.391483,4731.640784,0.014000,-0.018000,0.998000,192.000000,0.000000,0.000000,0.000000,0.000000,0.000000,0.000000,0.000000,0.000000,0.000000,1769693865.380933,0.000000
78.000000,10257.126124,14650.629717,-1484.982846,-4413.195480,-7453.122133,-16138.585346,-5335.808436,-5394.906449,16013.974370,12397.484469,-13380.178914,3077.790508,16333.067874,-6162.219484,-8183.018349,4756.920607,0.014000,-0.018000,0.998000,192.000000,0.000000,0.000000,0.000000,0.000000,0.000000,0.000000,0.000000,0.000000,0.000000,1769693865.380981,0.000000
80.000000,10232.561556,14627.093330,-1506.462873,-4439.458780,-7495.635151,-16172.917625,-5359.389527,-5420.074513,16010.308684,12398.177373,-13380.603597,3081.255028,16328.441063,-6149.411935,-8177.341005,4768.677624,0.014000,-0.018000,0.998000,192.000000,0.000000,0.000000,0.000000,0.000000,0.000000,0.000000,0.000000,0.000000,0.000000,1769693865.381025,0.000000
82.000000,10236.964850,14630.177871,-1493.476509,-4432.507388,-7474.803326,-16159.104247,-5352.728707,-5415.850033,15989.476858,12373.881027,-13403.357673,3056.735165,16274.685118,-6179.676197,-8198.396349,4739.463894,0.008000,-0.016000,1.004000,192.000000,0.000000,32.000000,127.500000,64.000000,15.500000,48.000000,0.000000,0.000000,0.000000,1769693865.381068,0.000000
84.000000,10248.185426,14637.956278,-1488.961457,-4424.706629,-7468.768355,-16149.224776,-5349.264187,-5406.618763,16024.524394,12403.586495,-13376.356766,3074.415395,16327.636400,-6161.079545,-8167.305072,4762.933226,0.008000,-0.016000,1.004000,192.000000,0.000000,0.000000,0.000000,0.000000,0.000000,0.000000,0.000000,0.000000,0.000000,1769693865.381120,0.000000
86.000000,10238.015382,14631.273106,-1512.386085,-4439.190559,-7490.427195,-16185.501657,-5364.061041,-5415.894737,16003.066719,12379.491315,-13398.015606,3065.966435,16316.348769,-6166.063984,-8200.698578,4716.687467,0.008000,-0.016000,1.004000,192.000000,0.000000,0.000000,0.000000,0.000000,0.000000,0.000000,0.000000,0.000000,0.000000,1769693865.381156,0.000000
88.000000,10257.237882,14653.870720,-1490.101396,-4415.855338,-7462.442811,-16160.579462,-5333.550910,-5387.373911,16016.231896,12403.586495,-13377.250836,3089.659284,16311.118461,-6161.861856,-8180.090270,4726.008144,0.008000,-0.016000,1.004000,192.000000,0.000000,0.000000,0.000000,0.000000,0.000000,0.000000,0.000000,0.000000,0.000000,1769693865.381171,0.000000
90.000000,10242.821007,14641.756075,-1519.225719,-4441.157513,-7473.171648,-16177.790305,-5354.628605,-5406.037617,16012.923838,12407.006312,-13375.730917,3098.957610,16302.133060,-6159.090240,-8180.827878,4730.679659,0.008000,-0.016000,1.004000,192.000000,0.000000,0.000000,0.000000,0.000000,0.000000,0.000000,0.000000,0.000000,0.000000,1769693865.381200,0.000000
92.000000,10252.164036,14652.686078,-1505.144120,-4428.841702,-7471.696433,-16159.685392,-5344.726782,-5397.789824,15999.557495,12399.831402,-13398.663807,3083.177278,16285.615121,-6191.701435,-8201.190317,4712.731208,0.006000,-0.016000,1.012000,192.000000,0.000000,24.000000,127.500000,64.000000,15.500000,80.000000,0.000000,0.000000,0.000000,1769693865.381212,0.000000
94.000000,10252.991051,14653.088409,-1499.936163,-4427.277079,-7477.127907,-16172.247073,-5342.804532,-5398.147452,16016.656580,12415.455272,-13381.318853,3095.023703,16332.844357,-6137.543158,-8170.903703,4750.796229,0.006000,-0.016000,1.012000,192.000000,0.000000,0.000000,0.000000,0.000000,0.000000,0.000000,0.000000,0.000000,0.000000,1769693865.381223,0.000000
96.000000,10230.482844,14627.048627,-1529.172245,-4449.226493,-7500.843108,-16175.085744,-5366.475030,-5423.360219,15990.370928,12389.996635,-13402.776528,3072.716662,16281.547103,-6163.672348,-8201.369131,4723.303583,0.006000,-0.016000,1.012000,192.000000,0.000000,0.000000,0.000000,0.000000,0.000000,0.000000,0.000000,0.000000,0.000000,1769693865.381235,0.000000
98.000000,10248.408943,14643.074828,-1495.666980,-4417.352905,-7465.482648,-16142.966287,-5336.926024,-5402.662504,15995.042443,12396.791565,-13393.008815,3072.850772,16339.259307,-6158.307929,-8187.041663,4747.979909,0.006000,-0.016000,1.012000,192.000000,0.000000,0.000000,0.000000,0.000000,0.000000,0.000000,0.000000,0.000000,0.000000,1769693865.381247,0.000000
100.000000,10206.901754,14603.109908,-1531.742696,-4451.327557,-7511.951925,-16212.301399,-5374.700472,-5442.716830,15995.891809,12393.058824,-13399.915504,3069.386252,16279.244873,-6155.603368,-8190.193259,4752.785534,0.006000,-0.016000,1.012000,192.000000,0.000000,0.000000,0.000000,0.000000,0.000000,0.000000,0.000000,0.000000,0.000000,1769693865.381258,0.000000
102.000000,10235.757856,14631.161348,-1503.490091,-4425.041905,-7491.857707,-16154.946823,-5349.577111,-5414.665391,15976.825771,12375.311539,-13415.360560,3054.298825,16284.631644,-6190.874421,-8205.258334,4738.234548,0.006000,-0.016000,1.008000,192.000000,0.000000,24.000000,127.500000,64.000000,15.500000,64.000000,0.000000,0.000000,0.000000,1769693865.381270,0.000000
104.000000,10245.749086,14637.732761,-1492.068349,-4424.393704,-7465.147372,-16145.872014,-5345.330280,-5405.121196,16014.153184,12407.363940,-13377.921388,3085.188935,16302.043653,-6152.831751,-8179.084442,4762.821467,0.006000,-0.016000,1.008000,192.000000,0.000000,0.000000,0.000000,0.000000,0.000000,0.000000,0.000000,0.000000,0.000000,1769693865.381282,0.000000
106.000000,10232.226280,14627.182737,-1502.663076,-4449.964100,-7499.926686,-16191.871904,-5367.413803,-5429.663411,15995.802402,12383.067594,-13404.005874,3059.283264,16295.963978,-6185.889981,-8203.537250,4724.018839,0.006000,-0.016000,1.008000,192.000000,0.000000,0.000000,0.000000,0.000000,0.000000,0.000000,0.000000,0.000000,0.000000,1769693865.381293,0.000000
108.000000,10257.126124,14646.405237,-1468.911942,-4413.530757,-7456.452543,-16154.745657,-5333.617965,-5401.589620,16017.863574,12406.872202,-13383.978711,3076.047072,16333.090226,-6172.054252,-8169.696709,4746.907025,0.006000,-0.016000,1.008000,192.000000,0.000000,0.000000,0.000000,0.000000,0.000000,0.000000,0.000000,0.000000,0.000000,1769693865.381305,0.000000
110.000000,10219.821062,14611.603571,-1516.610565,-4451.975757,-7498.607933,-16191.581332,-5373.918161,-5437.061839,16009.526373,12394.064652,-13396.518039,3070.794412,16331.771473,-6168.545028,-8173.004767,4746.839970,0.006000,-0.016000,1.008000,192.000000,0.000000,0.000000,0.000000,0.000000,0.000000,0.000000,0.000000,0.000000,0.000000,1769693865.381316,0.000000
112.000000,10243.491559,14635.207014,-1501.456082,-4427.455893,-7471.271750,-16170.257767,-5347.721916,-5407.423426,15981.251416,12378.194914,-13410.532583,3057.808048,16276.786182,-6200.195098,-8193.166041,4722.387162,0.010000,-0.016000,1.006000,192.000000,0.000000,40.000000,127.500000,64.000000,15.500000,56.000000,0.000000,0.000000,0.000000,1769693865.381328,0.000000
114.000000,10250.957042,14639.878528,-1505.926431,-4425.064257,-7472.679910,-16163.909872,-5344.547968,-5400.293219,16016.120138,12423.032513,-13372.489914,3097.080063,16353.743238,-6124.981478,-8160.957177,4758.664043,0.010000,-0.016000,1.006000,192.000000,0.000000,0.000000,0.000000,0.000000,0.000000,0.000000,0.000000,0.000000,0.000000,1769693865.381340,0.000000
116.000000,10228.158263,14625.148729,-1532.569710,-4449.673527,-7488.929628,-16167.933186,-5369.425460,-5423.606089,15985.699414,12387.783812,-13408.945609,3067.955740,16267.510208,-6166.667481,-8202.754939,4712.440635,0.010000,-0.016000,1.006000,192.000000,0.000000,0.000000,0.000000,0.000000,0.000000,0.000000,0.000000,0.000000,0.000000,1769693865.381351,0.000000
118.000000,10260.769458,14654.138941,-1494.281172,-4406.959344,-7454.887921,-16137.981848,-5331.762771,-5391.464280,16006.821812,12410.001446,-13387.756155,3085.501860,16343.617897,-6169.997891,-8181.386671,4738.748638,0.010000,-0.016000,1.006000,192.000000,0.000000,0.000000,0.000000,0.000000,0.000000,0.000000,0.000000,0.000000,0.000000,1769693865.381363,0.000000
120.000000,10225.051370,14616.833880,-1526.959422,-4437.581234,-7504.106462,-16189.748489,-5366.564437,-5426.288298,16002.239704,12409.867336,-13391.354786,3086.418281,16291.091298,-6153.435249,-8184.001825,4749.119848,0.010000,-0.016000,1.006000,192.000000,0.000000,0.000000,0.000000,0.000000,0.000000,0.000000,0.000000,0.000000,0.000000,1769693865.381374,0.000000
122.000000,10224.760798,14614.889278,-1509.659172,-4431.881539,-7493.623494,-16194.844686,-5361.222370,-5423.874310,15981.229065,12378.127858,-13418.735673,3058.433897,16274.998042,-6181.509040,-8205.638314,4728.444484,0.009000,-0.017000,1.007000,192.000000,0.000000,32.000000,127.500000,56.000000,15.500000,64.000000,0.000000,0.000000,0.000000,1769693865.381388,0.000000
124.000000,10242.016344,14629.887298,-1502.685428,-4423.901966,-7470.221218,-16133.757369,-5350.091201,-5411.714961,16006.710053,12403.474737,-13384.716318,3079.913924,16338.901679,-6156.229217,-8168.333252,4769.348177,0.009000,-0.017000,1.007000,192.000000,0.000000,0.000000,0.000000,0.000000,0.000000,0.000000,0.000000,0.000000,0.000000,1769693865.381400,0.000000
126.000000,10224.179652,14613.525821,-1525.797132,-4449.673527,-7502.541840,-16182.461820,-5376.198039,-5436.950080,15985.140620,12372.249350,-13416.165223,3051.258987,16303.787089,-6181.978426,-8192.696654,4743.576615,0.009000,-0.017000,1.007000,192.000000,0.000000,0.000000,0.000000,0.000000,0.000000,0.000000,0.000000,0.000000,0.000000,1769693865.381412,0.000000
128.000000,10248.587757,14631.966011,-1494.392931,-4424.706629,-7475.652692,-16155.416209,-5345.754963,-5413.056065,16003.446699,12388.811992,-13401.435423,3064.960607,16312.280752,-6176.636359,-8172.580084,4770.555171,0.009000,-0.017000,1.007000,192.000000,0.000000,0.000000,0.000000,0.000000,0.000000,0.000000,0.000000,0.000000,0.000000,1769693865.381423,0.000000
130.000000,10218.435254,14604.540420,-1525.797132,-4454.434449,-7518.344524,-16186.731003,-5376.779184,-5443.029755,16002.820850,12385.570989,-13406.039882,3068.134554,16331.860880,-6150.954205,-8174.278816,4767.448278,0.009000,-0.017000,1.007000,192.000000,0.000000,0.000000,0.000000,0.000000,0.000000,0.000000,0.000000,0.000000,0.000000,1769693865.381435,0.000000
132.000000,10234.126179,14624.321714,-1501.858413,-4438.743524,-7474.110421,-16146.430808,-5358.249588,-5423.114350,15978.792724,12375.199780,-13416.500499,3054.298825,16272.874626,-6190.337979,-8195.334160,4733.294813,0.008500,-0.015500,1.006500,192.000000,0.000000,32.000000,127.500000,72.000000,15.500000,56.000000,0.000000,0.000000,0.000000,1769693865.381446,0.000000
134.000000,10242.508083,14636.972801,-1492.202460,-4429.869882,-7484.906314,-16152.801055,-5351.320547,-5411.245574,16017.796519,12406.358112,-13383.643434,3081.992636,16330.497423,-6159.961958,-8164.779325,4752.159685,0.008500,-0.015500,1.006500,192.000000,0.000000,0.000000,0.000000,0.000000,0.000000,0.000000,0.000000,0.000000,0.000000,1769693865.381458,0.000000
136.000000,10224.514928,14620.365455,-1526.355925,-4445.225530,-7507.772149,-16212.703730,-5377.449736,-5430.624536,15986.571132,12391.874181,-13412.588944,3064.200647,16301.931894,-6182.023130,-8200.586820,4722.878900,0.008500,-0.015500,1.006500,192.000000,0.000000,0.000000,0.000000,0.000000,0.000000,0.000000,0.000000,0.000000,0.000000,1769693865.381469,0.000000
138.000000,10268.950196,14655.658860,-1478.366730,-4405.662943,-7461.235817,-16153.561014,-5333.796779,-5387.373911,16013.683798,12409.353245,-13394.841658,3086.306523,16349.988145,-6148.137885,-8178.033910,4748.046964,0.008500,-0.015500,1.006500,192.000000,0.000000,0.000000,0.000000,0.000000,0.000000,0.000000,0.000000,0.000000,0.000000,1769693865.381481,0.000000
140.000000,10235.109655,14628.590897,-1515.738847,-4442.990356,-7512.354256,-16180.383108,-5371.571227,-5421.281507,16024.949077,12407.766272,-13385.766850,3089.703988,16305.441118,-6150.507170,-8178.883276,4748.046964,0.008500,-0.015500,1.006500,192.000000,0.000000,0.000000,0.000000,0.000000,0.000000,0.000000,0.000000,0.000000,0.000000,1769693865.381493,0.000000
142.000000,10255.583853,14648.215729,-1490.839003,-4421.443274,-7473.059889,-16163.216968,-5346.738439,-5402.059007,16000.563324,12400.345492,-13405.548144,3069.229790,16331.525604,-6172.523638,-8201.391483,4720.531967,0.006250,-0.015750,1.005250,192.000000,0.000000,16.000000,127.500000,64.000000,15.500000,48.000000,0.000000,0.000000,0.000000,1769693865.381504,0.000000
144.000000,10253.393382,14637.822168,-1495.376408,-4429.176978,-7468.388375,-16147.146064,-5349.465352,-5410.172690,16036.773150,12425.468853,-13375.306234,3089.547526,16359.778209,-6115.929021,-8163.304110,4764.251979,0.006250,-0.015750,1.005250,192.000000,0.000000,0.000000,0.000000,0.000000,0.000000,0.000000,0.000000,0.000000,0.000000,1769693865.381516,0.000000
146.000000,10249.258310,14634.648220,-1505.144120,-4434.675507,-7481.933532,-16162.702878,-5358.562512,-5415.090074,16005.279542,12396.992731,-13402.597714,3069.095679,16319.656827,-6180.838487,-8194.328331,4732.244281,0.006250,-0.015750,1.005250,192.000000,0.000000,0.000000,0.000000,0.000000,0.000000,0.000000,0.000000,0.000000,0.000000,1769693865.381528,0.000000
148.000000,10268.078478,14655.994136,-1485.429881,-4408.948649,-7442.415648,-16122.492090,-5333.841483,-5390.614914,16027.228955,12426.295868,-13373.406336,3091.156851,16344.221395,-6104.574335,-8172.110697,4756.652386,0.006250,-0.015750,1.005250,192.000000,0.000000,0.000000,0.000000,0.000000,0.000000,0.000000,0.000000,0.000000,0.000000,1769693865.381539,0.000000
150.000000,10237.210719,14626.311019,-1519.985678,-4447.058373,-7497.155070,-16175.778648,-5373.292312,-5425.170711,16020.992818,12417.288115,-13380.558894,3084.048996,16369.948252,-6150.775391,-8181.252561,4752.562017,0.006250,-0.015750,1.005250,192.000000,0.000000,0.000000,0.000000,0.000000,0.000000,0.000000,0.000000,0.000000,0.000000,1769693865.381551,0.000000
152.000000,10264.233978,14647.835749,-1491.844832,-4419.342210,-7455.290253,-16147.548395,-5348.928910,-5404.875327,16007.470013,12397.082138,-13400.407243,3065.027662,16324.909487,-6175.518772,-8203.224326,4731.573729,0.007125,-0.014875,1.004625,192.000000,0.000000,32.000000,127.500000,72.000000,15.500000,48.000000,0.000000,0.000000,0.000000,1769693865.381562,0.000000
154.000000,10259.674222,14648.036915,-1481.652436,-4415.430655,-7442.996793,-16166.435619,-5345.889073,-5406.216431,16040.930574,12427.324048,-13368.958338,3091.469776,16357.654793,-6143.444019,-8159.258444,4778.579447,0.007125,-0.014875,1.004625,192.000000,0.000000,0.000000,0.000000,0.000000,0.000000,0.000000,0.000000,0.000000,0.000000,1769693865.381575,0.000000
156.000000,10238.417713,14626.668647,-1505.613507,-4438.788228,-7486.962674,-16181.031308,-5372.755870,-5432.904414,16004.720748,12390.421318,-13408.453871,3058.702118,16327.167014,-6149.255472,-8186.684035,4744.336575,0.007125,-0.014875,1.004625,192.000000,0.000000,0.000000,0.000000,0.000000,0.000000,0.000000,0.000000,0.000000,0.000000,1769693865.381587,0.000000
158.000000,10257.282586,14644.103008,-1483.686445,-4413.016667,-7455.044383,-16130.337552,-5342.893939,-5409.412731,16022.311571,12406.961609,-13391.712414,3072.135517,16368.316575,-6128.021315,-8170.479020,4759.535761,0.007125,-0.014875,1.004625,192.000000,0.000000,0.000000,0.000000,0.000000,0.000000,0.000000,0.000000,0.000000,0.000000,1769693865.381599,0.000000
160.000000,10244.139760,14630.893127,-1513.213100,-4433.423809,-7492.327093,-16177.656195,-5363.569303,-5421.035638,16019.897583,12405.642856,-13388.829039,3077.455232,16334.923069,-6156.229217,-8180.313787,4749.365717,0.007125,-0.014875,1.004625,192.000000,0.000000,0.000000,0.000000,0.000000,0.000000,0.000000,0.000000,0.000000,0.000000,1769693865.381611,0.000000
162.000000,10260.747106,14648.349839,-1500.874937,-4420.906832,-7480.748890,-16161.093552,-5344.279748,-5402.081359,16006.531239,12397.618580,-13400.317836,3073.633084,16310.514964,-6161.928911,-8204.766596,4721.426037,0.005562,-0.015437,1.005313,192.000000,0.000000,16.000000,127.500000,64.000000,15.500000,56.000000,0.000000,0.000000,0.000000,1769693865.381622,0.000000
164.000000,10263.026984,14653.043706,-1499.533832,-4424.438408,-7462.442811,-16136.059598,-5344.235044,-5402.148414,16033.263926,12419.992676,-13373.652205,3095.627200,16364.069744,-6138.817208,-8179.397366,4744.224816,0.005562,-0.015437,1.005313,192.000000,0.000000,0.000000,0.000000,0.000000,0.000000,0.000000,0.000000,0.000000,0.000000,1769693865.381634,0.000000
166.000000,10243.089228,14630.714313,-1518.532815,-4447.125429,-7483.922837,-16190.955483,-5370.028957,-5425.371876,16013.594391,12392.902362,-13403.804708,3071.286150,16334.498386,-6154.575188,-8204.788948,4713.781740,0.005562,-0.015437,1.005313,192.000000,0.000000,0.000000,0.000000,0.000000,0.000000,0.000000,0.000000,0.000000,0.000000,1769693865.381645,0.000000
168.000000,10270.648929,14652.887243,-1483.038245,-4417.129388,-7457.257206,-16165.340384,-5334.377925,-5394.325303,16025.686684,12405.061710,-13386.169182,3080.405662,16323.076644,-6162.778278,-8185.879372,4735.038249,0.005562,-0.015437,1.005313,192.000000,0.000000,0.000000,0.000000,0.000000,0.000000,0.000000,0.000000,0.000000,0.000000,1769693865.381656,0.000000
170.000000,10251.538187,14634.424702,-1507.267536,-4444.107943,-7483.587561,-16193.458878,-5356.997890,-5412.251402,16035.186176,12405.441690,-13374.836847,3084.853659,16354.123217,-6150.350708,-8182.280741,4732.870130,0.005562,-0.015437,1.005313,192.000000,0.000000,0.000000,0.000000,0.000000,0.000000,0.000000,0.000000,0.000000,0.000000,1769693865.381668,0.000000
172.000000,10260.322423,14643.164235,-1500.070274,-4438.654117,-7484.459279,-16150.968212,-5346.090239,-5404.227126,16013.572039,12382.151172,-13391.980635,3070.436784,16325.580040,-6146.170932,-8208.141709,4705.042208,0.005781,-0.014719,1.003656,192.000000,0.000000,24.000000,127.500000,72.000000,15.500000,40.000000,0.000000,0.000000,0.000000,1769693865.381679,0.000000
174.000000,10270.760688,14652.328450,-1489.967285,-4430.160455,-7458.710070,-16148.375410,-5338.870625,-5394.727635,16041.355257,12407.319237,-13362.364574,3092.006217,16357.699496,-6137.721972,-8175.575218,4742.257862,0.005781,-0.014719,1.003656,192.000000,0.000000,0.000000,0.000000,0.000000,0.000000,0.000000,0.000000,0.000000,0.000000,1769693865.381691,0.000000
176.000000,10231.846301,14618.197336,-1508.318068,-4449.315900,-7490.114270,-16196.431660,-5363.681062,-5424.611917,16006.933571,12381.659434,-13395.713376,3072.113165,16337.649982,-6184.973560,-8209.236945,4717.000391,0.005781,-0.014719,1.003656,192.000000,0.000000,0.000000,0.000000,0.000000,0.000000,0.000000,0.000000,0.000000,0.000000,1769693865.381702,0.000000
178.000000,10253.616900,14635.050551,-1476.489183,-4425.421885,-7450.439924,-16157.472570,-5340.010564,-5405.143548,16007.984103,12387.269722,-13389.700757,3070.079156,16318.829813,-6158.442039,-8186.728738,4735.954670,0.005781,-0.014719,1.003656,192.000000,0.000000,0.000000,0.000000,0.000000,0.000000,0.000000,0.000000,0.000000,0.000000,1769693865.381714,0.000000
180.000000,10234.059123,14619.672551,-1502.461911,-4448.578292,-7471.271750,-16167.977890,-5368.777259,-5426.623574,16015.270771,12387.515591,-13386.593865,3072.314331,16369.098886,-6160.766621,-8178.793869,4742.347269,0.005781,-0.014719,1.003656,192.000000,0.000000,0.000000,0.000000,0.000000,0.000000,0.000000,0.000000,0.000000,0.000000,1769693865.381725,0.000000
182.000000,10261.819990,14648.126322,-1487.642704,-4422.382047,-7460.766430,-16173.632881,-5344.547968,-5401.008475,16007.470013,12383.782850,-13393.277036,3069.341549,16329.133967,-6172.613045,-8197.278762,4719.995525,0.006891,-0.013359,1.005828,192.000000,0.000000,32.000000,127.500000,80.000000,15.500000,64.000000,0.000000,0.000000,0.000000,1769693865.381737,0.000000
184.000000,10262.132914,14645.175892,-1492.113053,-4424.416056,-7459.022994,-16145.357924,-5340.368192,-5399.309742,16031.006400,12408.325065,-13367.885455,3093.772005,16368.271872,-6148.719030,-8172.311863,4744.291871,0.006891,-0.013359,1.005828,192.000000,0.000000,0.000000,0.000000,0.000000,0.000000,0.000000,0.000000,0.000000,0.000000,1769693865.381748,0.000000
186.000000,10240.764647,14625.662819,-1518.219890,-4449.114734,-7493.489384,-16170.101305,-5361.803515,-5418.822815,16006.195963,12378.574893,-13394.327568,3074.437746,16336.174767,-6187.566362,-8201.950276,4712.127711,0.006891,-0.013359,1.005828,192.000000,0.000000,0.000000,0.000000,0.000000,0.000000,0.000000,0.000000,0.000000,0.000000,1769693865.381761,0.000000
188.000000,10273.956987,14657.849331,-1490.101396,-4418.515196,-7464.230950,-16168.402573,-5330.488721,-5386.792765,16023.071530,12396.165716,-13379.329548,3084.786604,16342.120331,-6139.554815,-8197.479927,4726.879862,0.006891,-0.013359,1.005828,192.000000,0.000000,0.000000,0.000000,0.000000,0.000000,0.000000,0.000000,0.000000,0.000000,1769693865.381773,0.000000
190.000000,10244.899719,14632.077769,-1507.602812,-4447.483056,-7491.835355,-16200.298512,-5359.635396,-5416.609993,16024.144414,12395.182239,-13376.267359,3086.306523,16337.046485,-6159.045536,-8190.841459,4731.037287,0.006891,-0.013359,1.005828,192.000000,0.000000,0.000000,0.000000,0.000000,0.000000,0.000000,0.000000,0.000000,0.000000,1769693865.381784,0.000000
192.000000,10257.304938,14642.068999,-1490.906059,-4432.350925,-7474.937436,-16166.927358,-5343.363326,-5405.210603,16004.139603,12380.720661,-13397.657978,3066.726395,16327.099958,-6167.583903,-8203.269029,4710.250164,0.006891,-0.013359,1.005828,192.000000,0.000000,0.000000,0.000000,0.000000,0.000000,0.000000,0.000000,0.000000,0.000000,1769693865.381795,0.000000
194.000000,10263.295205,14644.460636,-1492.224812,-4431.859187,-7462.018128,-16143.927413,-5339.362364,-5399.443853,16036.057894,12399.026739,-13366.410240,3087.982903,16366.550787,-6151.311833,-8172.870657,4746.996432,0.010000,-0.012000,1.004000,192.000000,0.000000,40.000000,127.500000,80.000000,15.500000,48.000000,0.000000,0.000000,0.000000,1769693865.862027,0.000000
196.000000,10249.012440,14634.156482,-1513.324858,-4449.382955,-7499.166727,-16191.357814,-5359.814210,-5416.520586,16006.397129,12381.122992,-13394.864010,3068.268665,16335.593621,-6193.646037,-8206.465329,4714.407589,0.010000,-0.012000,1.004000,192.000000,0.000000,0.000000,0.000000,0.000000,0.000000,0.000000,0.000000,0.000000,0.000000,1769693865.862098,0.000000
198.000000,10277.197990,14655.234177,-1482.054768,-4422.426751,-7466.779049,-16162.166436,-5329.974631,-5387.932704,16024.300876,12392.857658,-13372.959301,3080.137441,16341.181557,-6144.338089,-8190.416776,4730.545548,0.010000,-0.012000,1.004000,192.000000,0.000000,0.000000,0.000000,0.000000,0.000000,0.000000,0.000000,0.000000,0.000000,1769693865.862151,0.000000
200.000000,10234.640269,14619.113758,-1518.666925,-4461.318786,-7488.996683,-16180.271349,-5367.994948,-5429.082266,16027.608934,12395.137536,-13373.629853,3080.919752,16342.299145,-6166.980406,-8191.422604,4730.925528,0.010000,-0.012000,1.004000,192.000000,0.000000,0.000000,0.000000,0.000000,0.000000,0.000000,0.000000,0.000000,0.000000,1769693865.862204,0.000000
202.000000,10249.437123,14636.704580,-1492.068349,-4438.899987,-7478.290198,-16194.934093,-5351.029974,-5415.648868,15994.930684,12361.453457,-13412.633647,3045.291072,16326.943496,-6176.926932,-8207.739378,4704.259897,0.010000,-0.012000,1.004000,192.000000,0.000000,0.000000,0.000000,0.000000,0.000000,0.000000,0.000000,0.000000,0.000000,1769693865.862257,0.000000
204.000000,10260.121257,14640.638487,-1481.875954,-4428.349963,-7461.749907,-16155.952651,-5346.291405,-5404.517699,16030.648772,12401.731301,-13368.935987,3080.763290,16344.511967,-6167.069813,-8170.523723,4748.538703,0.006000,-0.016000,1.004000,192.000000,0.000000,24.000000,127.500000,64.000000,15.500000,48.000000,0.000000,0.000000,0.000000,1769693865.862310,0.000000
206.000000,10241.256385,14623.695865,-1508.429826,-4452.042812,-7484.928666,-16171.330651,-5369.067832,-5422.399094,16008.677007,12375.155076,-13392.494725,3065.988787,16317.645170,-6195.970618,-8194.060110,4722.901252,0.006000,-0.016000,1.004000,192.000000,0.000000,0.000000,0.000000,0.000000,0.000000,0.000000,0.000000,0.000000,0.000000,1769693865.862329,0.000000
208.000000,10269.441935,14648.662764,-1484.178184,-4419.141045,-7464.968558,-16152.666945,-5336.031954,-5387.999760,16020.121100,12388.789641,-13375.485048,3077.701101,16336.912374,-6160.990138,-8183.487735,4732.803074,0.006000,-0.016000,1.004000,192.000000,0.000000,0.000000,0.000000,0.000000,0.000000,0.000000,0.000000,0.000000,0.000000,1769693865.862347,0.000000
210.000000,10244.318574,14625.327542,-1519.024553,-4449.405307,-7513.449492,-16208.903934,-5361.825867,-5414.017190,16030.157033,12392.276513,-13368.444248,3088.809918,16337.359409,-6147.065001,-8187.220477,4735.641746,0.006000,-0.016000,1.004000,192.000000,0.000000,0.000000,0.000000,0.000000,0.000000,0.000000,0.000000,0.000000,0.000000,1769693865.862368,0.000000
212.000000,10252.074629,14636.726932,-1505.255879,-4430.451027,-7493.019997,-16184.428773,-5341.262262,-5401.455510,16000.384510,12374.462172,-13394.975769,3071.174392,16312.660731,-6191.410862,-8222.200957,4704.595173,0.006000,-0.016000,1.004000,192.000000,0.000000,0.000000,0.000000,0.000000,0.000000,0.000000,0.000000,0.000000,0.000000,1769693865.862386,0.000000
214.000000,10261.350603,14644.125360,-1491.934239,-4425.779513,-7472.568151,-16153.695125,-5334.489683,-5394.437062,16032.168690,12398.780870,-13364.376231,3093.436729,16342.343848,-6158.419688,-8186.594628,4742.011993,0.002000,-0.016000,1.008000,192.000000,0.000000,8.000000,127.500000,64.000000,15.500000,64.000000,0.000000,0.000000,0.000000,1769693865.862403,0.000000
216.000000,10233.835606,14620.119586,-1522.444370,-4452.422792,-7498.004436,-16193.235361,-5364.396318,-5420.946231,16002.597332,12375.065669,-13393.701719,3069.810935,16329.536298,-6176.681063,-8207.828785,4714.117016,0.002000,-0.016000,1.008000,192.000000,0.000000,0.000000,0.000000,0.000000,0.000000,0.000000,0.000000,0.000000,0.000000,1769693865.862421,0.000000
218.000000,10263.630481,14647.813397,-1481.875954,-4420.079818,-7442.683869,-16157.204349,-5328.633526,-5389.296161,16015.248420,12396.098661,-13377.831981,3079.802165,16343.550842,-6136.090295,-8191.780232,4727.461008,0.002000,-0.016000,1.008000,192.000000,0.000000,0.000000,0.000000,0.000000,0.000000,0.000000,0.000000,0.000000,0.000000,1769693865.862451,0.000000
220.000000,10225.230184,14608.921362,-1516.588213,-4452.176923,-7485.040424,-16196.543419,-5364.306911,-5428.858749,16023.093882,12393.639969,-13377.429650,3081.232677,16354.100866,-6157.749135,-8176.849267,4742.168455,0.002000,-0.016000,1.008000,192.000000,0.000000,0.000000,0.000000,0.000000,0.000000,0.000000,0.000000,0.000000,0.000000,1769693865.862469,0.000000
222.000000,10223.643210,14606.507374,-1503.780663,-4436.888330,-7473.998663,-16161.451180,-5345.777314,-5416.230013,15990.572094,12366.370841,-13405.302275,3058.232732,16315.566458,-6188.773357,-8199.335122,4719.816711,0.002000,-0.016000,1.008000,192.000000,0.000000,0.000000,0.000000,0.000000,0.000000,0.000000,0.000000,0.000000,0.000000,1769693865.862487,0.000000
224.000000,10194.697701,14570.521065,-1504.384161,-4445.605510,-7486.090956,-16172.336480,-5348.303062,-5429.015211,16002.038539,12375.758574,-13384.202228,3069.922694,16338.767569,-6175.004682,-8178.100965,4747.041136,0.004000,-0.018000,1.008000,192.000000,0.000000,16.000000,127.500000,56.000000,15.500000,64.000000,0.000000,0.000000,0.000000,1769693865.862504,0.000000
226.000000,10153.458733,14528.656248,-1529.887501,-4465.051528,-7518.523338,-16214.760091,-5373.225257,-5456.932540,15951.657707,12330.719808,-13434.292487,3028.124932,16303.295350,-6196.127080,-8216.210689,4704.081083,0.004000,-0.018000,1.008000,192.000000,0.000000,0.000000,0.000000,0.000000,0.000000,0.000000,0.000000,0.000000,0.000000,1769693865.862522,0.000000
228.000000,10160.343070,14535.227661,-1498.952687,-4439.525835,-7464.901503,-16122.536793,-5344.413858,-5430.132798,15966.543969,12348.757666,-13415.069987,3036.909167,16344.199043,-6180.324397,-8197.122299,4717.067446,0.004000,-0.018000,1.008000,192.000000,0.000000,0.000000,0.000000,0.000000,0.000000,0.000000,0.000000,0.000000,0.000000,1769693865.862539,0.000000
230.000000,10124.781445,14499.286055,-1516.051771,-4452.802772,-7494.986951,-16219.006922,-5365.178629,-5450.696403,15966.700431,12347.371858,-13411.828984,3036.775057,16327.994028,-6165.616949,-8186.259352,4729.942051,0.004000,-0.018000,1.008000,192.000000,0.000000,0.000000,0.000000,0.000000,0.000000,0.000000,0.000000,0.000000,0.000000,1769693865.862557,0.000000
232.000000,10130.279974,14500.381291,-1504.697085,-4434.228472,-7464.879151,-16171.107134,-5349.197131,-5437.017135,15952.954108,12332.239727,-13428.458682,3025.107446,16282.642339,-6173.127135,-8203.581953,4716.016914,0.004000,-0.018000,1.008000,192.000000,0.000000,0.000000,0.000000,0.000000,0.000000,0.000000,0.000000,0.000000,0.000000,1769693865.862575,0.000000
234.000000,10136.382000,14502.571762,-1508.854509,-4433.692030,-7469.237741,-16151.169378,-5349.755925,-5436.681859,15980.759678,12347.617727,-13401.435423,3045.291072,16356.917185,-6147.042650,-8179.307959,4752.249092,0.004000,-0.016000,1.006000,192.000000,0.000000,16.000000,127.500000,64.000000,15.500000,56.000000,0.000000,0.000000,0.000000,1769693865.862593,0.000000
236.000000,10131.464616,14493.429898,-1530.803923,-4458.904798,-7497.646808,-16194.598817,-5374.342844,-5457.580740,15957.871492,12325.690666,-13427.788130,3026.225034,16316.348769,-6192.014359,-8214.623715,4723.147121,0.004000,-0.016000,1.006000,192.000000,0.000000,0.000000,0.000000,0.000000,0.000000,0.000000,0.000000,0.000000,0.000000,1769693865.862610,0.000000
238.000000,10180.660806,14534.557108,-1493.431806,-4429.288736,-7464.990910,-16158.433695,-5338.714163,-5420.387437,15976.132867,12339.124064,-13408.766795,3034.718696,16338.968735,-6178.178630,-8199.871564,4727.237490,0.004000,-0.016000,1.006000,192.000000,0.000000,0.000000,0.000000,0.000000,0.000000,0.000000,0.000000,0.000000,0.000000,1769693865.862628,0.000000
240.000000,10167.585035,14531.539623,-1526.355925,-4466.571446,-7503.301800,-16202.041948,-5374.096975,-5443.901473,15983.799515,12349.405867,-13399.446118,3050.543732,16320.014455,-6170.444926,-8190.461479,4733.965365,0.004000,-0.016000,1.006000,192.000000,0.000000,0.000000,0.000000,0.000000,0.000000,0.000000,0.000000,0.000000,0.000000,1769693865.862646,0.000000
242.000000,10202.833736,14571.482190,-1496.941030,-4440.442257,-7477.463183,-16174.057564,-5346.447867,-5415.425350,15972.198960,12342.543881,-13413.080682,3042.497104,16312.236048,-6200.575078,-8210.063959,4702.851737,0.004000,-0.016000,1.006000,192.000000,0.000000,0.000000,0.000000,0.000000,0.000000,0.000000,0.000000,0.000000,0.000000,1769693865.862664,0.000000
244.000000,10211.059178,14579.037080,-1491.598963,-4439.749353,-7462.241645,-16154.768009,-5344.480913,-5415.894737,16010.554553,12384.162829,-13373.160466,3074.124822,16349.898738,-6151.624757,-8168.869694,4746.705860,0.004000,-0.016000,1.006000,192.000000,0.000000,16.000000,127.500000,64.000000,15.500000,56.000000,0.000000,0.000000,0.000000,1769693865.862681,0.000000
246.000000,10198.564553,14568.554112,-1512.743713,-4461.564655,-7492.908239,-16190.240227,-5370.520696,-5439.274661,15982.436059,12343.728524,-13409.906734,3040.507798,16325.311819,-6166.287502,-8204.185451,4710.786606,0.004000,-0.016000,1.006000,192.000000,0.000000,0.000000,0.000000,0.000000,0.000000,0.000000,0.000000,0.000000,0.000000,1769693865.862698,0.000000
248.000000,10234.997897,14604.115737,-1480.847774,-4421.443274,-7459.850008,-16158.590157,-5333.796779,-5402.640152,16002.150297,12372.428164,-13386.996196,3061.876066,16337.828796,-6168.746193,-8182.347796,4741.475551,0.004000,-0.016000,1.006000,192.000000,0.000000,0.000000,0.000000,0.000000,0.000000,0.000000,0.000000,0.000000,0.000000,1769693865.862716,0.000000
250.000000,10209.047521,14579.595873,-1520.410361,-4461.318786,-7493.265866,-16180.539570,-5368.173762,-5431.831531,16005.413652,12379.111335,-13382.928179,3068.000444,16327.859918,-6165.549894,-8186.482869,4742.280214,0.004000,-0.016000,1.006000,192.000000,0.000000,0.000000,0.000000,0.000000,0.000000,0.000000,0.000000,0.000000,0.000000,1769693865.862738,0.000000
252.000000,10240.697591,14610.933019,-1496.002256,-4436.195426,-7472.098764,-16171.487113,-5342.648070,-5402.953077,15987.353443,12363.196893,-13398.507345,3055.058784,16318.807461,-6179.497383,-8208.700503,4710.719551,0.004000,-0.016000,1.006000,192.000000,0.000000,0.000000,0.000000,0.000000,0.000000,0.000000,0.000000,0.000000,0.000000,1769693865.862756,0.000000
254.000000,10241.345792,14609.949542,-1491.397797,-4435.100190,-7464.007433,-16184.741698,-5340.994041,-5400.360274,16014.577867,12393.639969,-13365.270301,3086.217116,16351.888043,-6148.316699,-8175.552866,4742.481380,0.006000,-0.014000,1.005000,192.000000,0.000000,32.000000,127.500000,80.000000,15.500000,48.000000,0.000000,0.000000,0.000000,1769693865.862774,0.000000
0.000000,10216.513004,14587.396632,-1522.556129,-4459.977682,-7474.199828,-16174.303433,-5366.318568,-5428.299955,15979.932663,12358.972413,-13401.413071,3058.858580,16304.815269,-6183.274827,-8210.153366,4694.514536,0.006000,-0.014000,1.005000,192.000000,0.000000,0.000000,0.000000,0.000000,0.000000,0.000000,0.000000,0.000000,0.000000,1769693865.862792,0.000000
2.000000,10233.097998,14599.846554,-1490.749596,-4423.700800,-7462.398107,-16196.364605,-5336.657803,-5407.602240,15990.102707,12368.114277,-13387.130307,3066.905208,16327.725807,-6187.521659,-8182.660721,4719.660249,0.006000,-0.014000,1.005000,192.000000,0.000000,0.000000,0.000000,0.000000,0.000000,0.000000,0.000000,0.000000,0.000000,1769693865.862809,0.000000
4.000000,10204.487765,14571.303376,-1529.082838,-4456.088478,-7511.571945,-16219.319847,-5374.074623,-5440.347545,15985.095916,12358.503027,-13392.628836,3059.216208,16327.614048,-6163.180609,-8183.375976,4729.517368,0.006000,-0.014000,1.005000,192.000000,0.000000,0.000000,0.000000,0.000000,0.000000,0.000000,0.000000,0.000000,0.000000,1769693865.862827,0.000000
6.000000,10230.639306,14602.640522,-1504.093588,-4435.681335,-7480.234799,-16169.318994,-5349.957091,-5412.765493,15966.119285,12347.193044,-13411.449005,3046.095734,16291.605388,-6199.748063,-8207.560564,4712.127711,0.006000,-0.014000,1.005000,192.000000,0.000000,0.000000,0.000000,0.000000,0.000000,0.000000,0.000000,0.000000,0.000000,1769693865.862844,0.000000
8.000000,10245.413809,14613.570525,-1491.710721,-4433.781437,-7462.420459,-16124.548450,-5341.955166,-5399.756777,16007.648827,12387.649702,-13368.712469,3079.712758,16358.995898,-6153.099972,-8172.647139,4755.221874,0.009000,-0.012000,1.000500,192.000000,0.000000,48.000000,127.500000,88.000000,15.500000,16.000000,0.000000,0.000000,0.000000,1769693865.862862,0.000000
10.000000,10223.687914,14593.878638,-1509.972097,-4454.926187,-7486.113308,-16196.521067,-5364.105745,-5420.007458,15985.677062,12366.102620,-13392.584132,3060.110278,16301.104880,-6201.938534,-8205.124224,4717.022743,0.009000,-0.012000,1.000500,192.000000,0.000000,0.000000,0.000000,0.000000,0.000000,0.000000,0.000000,0.000000,0.000000,1769693865.862880,0.000000
12.000000,10247.671336,14613.794042,-1478.612599,-4429.311088,-7465.393241,-16194.263541,-5336.188416,-5392.403053,15995.042443,12375.646815,-13376.043841,3068.939217,16343.237918,-6176.166973,-8196.384692,4724.935260,0.009000,-0.012000,1.000500,192.000000,0.000000,0.000000,0.000000,0.000000,0.000000,0.000000,0.000000,0.000000,0.000000,1769693865.862897,0.000000
14.000000,10229.231146,14597.209048,-1508.429826,-4450.388783,-7516.779902,-16219.968047,-5361.959977,-5412.698437,15996.271789,12361.699326,-13372.311100,3070.526191,16341.338020,-6176.770470,-8192.830764,4722.342458,0.009000,-0.012000,1.000500,192.000000,0.000000,0.000000,0.000000,0.000000,0.000000,0.000000,0.000000,0.000000,0.000000,1769693865.862914,0.000000
16.000000,10248.364240,14615.604534,-1489.743768,-4431.702725,-7482.671140,-16180.271349,-5341.463428,-5394.258248,15984.067736,12363.465114,-13381.363557,3065.787621,16330.028037,-6202.519679,-8208.432282,4701.108301,0.009000,-0.012000,1.000500,192.000000,0.000000,0.000000,0.000000,0.000000,0.000000,0.000000,0.000000,0.000000,0.000000,1769693865.862932,0.000000
18.000000,10251.962871,14618.599667,-1486.167489,-4429.780475,-7474.691567,-16178.594968,-5342.893939,-5395.867574,16014.689626,12384.609864,-13354.519111,3082.529078,16348.915261,-6176.926932,-8171.730718,4747.376412,0.007500,-0.010000,0.999250,192.000000,0.000000,24.000000,127.500000,96.000000,15.500000,24.000000,0.000000,0.000000,0.000000,1769693865.862950,0.000000
20.000000,10239.132969,14609.658970,-1511.290850,-4447.416001,-7488.169669,-16194.263541,-5364.508076,-5414.307763,15989.163934,12367.711945,-13388.314949,3063.664206,16342.321496,-6151.803571,-8200.698578,4718.185034,0.007500,-0.010000,0.999250,192.000000,0.000000,0.000000,0.000000,0.000000,0.000000,0.000000,0.000000,0.000000,0.000000,1769693865.862966,0.000000
22.000000,10270.291301,14637.084560,-1479.417262,-4414.469530,-7442.214482,-16156.779666,-5333.685021,-5384.177611,16008.766414,12394.355225,-13365.449114,3083.691369,16359.353526,-6129.943565,-8181.364319,4732.311336,0.007500,-0.010000,0.999250,192.000000,0.000000,0.000000,0.000000,0.000000,0.000000,0.000000,0.000000,0.000000,0.000000,1769693865.862981,0.000000
24.000000,10246.933728,14616.677417,-1504.898251,-4441.246920,-7478.401956,-16178.594968,-5358.853085,-5405.724693,16018.601181,12399.920809,-13359.101219,3096.387159,16367.534264,-6167.673310,-8181.811354,4733.115999,0.007500,-0.010000,0.999250,192.000000,0.000000,0.000000,0.000000,0.000000,0.000000,0.000000,0.000000,0.000000,0.000000,1769693865.862997,0.000000
26.000000,10255.472094,14622.935906,-1488.022684,-4424.684277,-7462.867494,-16151.191729,-5341.597538,-5397.208678,16002.574981,12388.074385,-13374.054536,3080.673883,16345.830720,-6183.923028,-8202.240849,4712.351228,0.007500,-0.010000,0.999250,192.000000,0.000000,0.000000,0.000000,0.000000,0.000000,0.000000,0.000000,0.000000,0.000000,1769693865.863016,0.000000
28.000000,10248.297185,14612.072958,-1490.928410,-4422.650268,-7469.595369,-16156.913776,-5344.883245,-5406.104673,16016.075434,12394.243466,-13357.290728,3090.665113,16363.957985,-6152.831751,-8166.366299,4754.059583,0.006750,-0.012000,1.000625,192.000000,0.000000,24.000000,127.500000,72.000000,15.500000,40.000000,0.000000,0.000000,0.000000,1769693865.863032,0.000000
30.000000,10233.656792,14597.879600,-1512.587251,-4439.615242,-7488.192020,-16204.143012,-5368.576094,-5426.176539,15978.122172,12357.340736,-13396.562743,3056.377537,16329.446891,-6184.995912,-8203.403140,4726.790455,0.006750,-0.012000,1.000625,192.000000,0.000000,0.000000,0.000000,0.000000,0.000000,0.000000,0.000000,0.000000,0.000000,1769693865.863048,0.000000
32.000000,10270.447763,14629.373208,-1468.040224,-4406.042922,-7436.224215,-16129.085854,-5330.287555,-5390.324341,16010.867478,12384.721623,-13368.332490,3077.365825,16329.536298,-6152.474124,-8172.714194,4764.676662,0.006750,-0.012000,1.000625,192.000000,0.000000,0.000000,0.000000,0.000000,0.000000,0.000000,0.000000,0.000000,0.000000,1769693865.863069,0.000000
34.000000,10241.479902,14602.551115,-1494.459986,-4448.533588,-7483.207581,-16190.284931,-5366.050347,-5422.130873,16013.974370,12383.939312,-13368.846580,3075.041243,16379.313633,-6172.188362,-8172.624787,4749.857455,0.006750,-0.012000,1.000625,192.000000,0.000000,0.000000,0.000000,0.000000,0.000000,0.000000,0.000000,0.000000,0.000000,1769693865.863087,0.000000
36.000000,10260.076554,14621.438339,-1472.912904,-4429.400495,-7462.219293,-16162.680526,-5344.413858,-5402.215469,15999.669254,12374.484524,-13378.301368,3060.557313,16350.859863,-6162.443002,-8186.460517,4715.636935,0.006750,-0.012000,1.000625,192.000000,0.000000,0.000000,0.000000,0.000000,0.000000,0.000000,0.000000,0.000000,0.000000,1769693865.863104,0.000000
38.000000,10271.565350,14631.094293,-1472.667035,-4423.879614,-7459.693546,-16136.059598,-5335.093181,-5389.989065,16029.330019,12395.293998,-13349.892300,3079.064557,16356.090171,-6154.552836,-8171.082517,4735.820560,0.007375,-0.009000,1.002312,192.000000,0.000000,32.000000,127.500000,104.000000,15.500000,48.000000,0.000000,0.000000,0.000000,1769693865.863121,0.000000
40.000000,10247.537225,14612.072958,-1501.277268,-4436.977737,-7490.360140,-16205.729986,-5356.975538,-5411.223222,16003.044367,12372.472867,-13377.586112,3065.809973,16330.117444,-6166.309853,-8202.352608,4704.483414,0.007375,-0.009000,1.002312,192.000000,0.000000,0.000000,0.000000,0.000000,0.000000,0.000000,0.000000,0.000000,0.000000,1769693865.863139,0.000000
42.000000,10261.819990,14624.232307,-1484.558163,-4420.415094,-7456.966633,-16179.153762,-5335.674326,-5393.028902,16012.543859,12390.890704,-13366.812571,3079.310427,16364.270909,-6155.625720,-8183.040700,4722.968307,0.007375,-0.009000,1.002312,192.000000,0.000000,0.000000,0.000000,0.000000,0.000000,0.000000,0.000000,0.000000,0.000000,1769693865.863156,0.000000
44.000000,10247.514873,14612.363531,-1508.474530,-4442.588024,-7470.042404,-16182.841800,-5359.322472,-5412.206699,16008.095861,12381.122992,-13374.859199,3073.342511,16368.696555,-6166.421612,-8186.572276,4727.975098,0.007375,-0.009000,1.002312,192.000000,0.000000,0.000000,0.000000,0.000000,0.000000,0.000000,0.000000,0.000000,0.000000,1769693865.863173,0.000000
46.000000,10264.725717,14626.914516,-1490.615486,-4432.842664,-7463.582750,-16135.590212,-5351.342899,-5402.371931,16006.777109,12378.910169,-13383.062289,3068.402775,16338.856976,-6183.565400,-8197.837555,4717.626240,0.007375,-0.009000,1.002312,192.000000,0.000000,0.000000,0.000000,0.000000,0.000000,0.000000,0.000000,0.000000,0.000000,1769693865.863191,0.000000
48.000000,10278.896723,14633.195357,-1476.623294,-4418.157568,-7446.126037,-16140.574651,-5339.563529,-5390.905486,16037.153129,12403.608847,-13354.809684,3091.782700,16368.942424,-6151.043612,-8160.398383,4756.965310,0.006688,-0.008500,1.005156,192.000000,0.000000,24.000000,127.500000,96.000000,15.500000,64.000000,0.000000,0.000000,0.000000,1769693865.863209,0.000000
50.000000,10244.855016,14601.657045,-1507.781626,-4445.784324,-7475.585637,-16184.227608,-5369.179591,-5426.064780,16008.006454,12380.117164,-13388.314949,3067.218133,16338.208775,-6147.333222,-8189.209782,4733.652441,0.006688,-0.008500,1.005156,192.000000,0.000000,0.000000,0.000000,0.000000,0.000000,0.000000,0.000000,0.000000,0.000000,1769693865.863226,0.000000
52.000000,10272.191199,14625.416949,-1477.942047,-4414.067199,-7445.701354,-16134.114997,-5338.445942,-5398.527431,16007.134736,12381.726489,-13378.658995,3064.222999,16361.432238,-6155.648071,-8182.839535,4744.224816,0.006688,-0.008500,1.005156,192.000000,0.000000,0.000000,0.000000,0.000000,0.000000,0.000000,0.000000,0.000000,0.000000,1769693865.863244,0.000000
54.000000,10251.538187,14606.797946,-1503.378332,-4434.474341,-7475.183305,-16154.365677,-5364.731594,-5418.778112,16021.328094,12392.857658,-13366.186722,3073.431918,16386.197971,-6133.631603,-8178.726814,4758.038194,0.006688,-0.008500,1.005156,192.000000,0.000000,0.000000,0.000000,0.000000,0.000000,0.000000,0.000000,0.000000,0.000000,1769693865.863262,0.000000
56.000000,10262.356432,14620.410159,-1485.765157,-4418.828120,-7470.198866,-16164.513369,-5350.135905,-5406.127024,15997.635245,12379.021928,-13391.533600,3059.372671,16347.127121,-6174.177667,-8199.916267,4738.614528,0.006688,-0.008500,1.005156,192.000000,0.000000,0.000000,0.000000,0.000000,0.000000,0.000000,0.000000,0.000000,0.000000,1769693865.863280,0.000000
58.000000,10264.859827,14622.600630,-1476.399777,-4424.796036,-7459.224160,-16159.573634,-5344.749134,-5400.360274,16030.201737,12412.594248,-13358.229501,3088.966380,16358.750028,-6144.002812,-8161.068936,4766.062470,0.007344,-0.008250,1.005578,192.000000,0.000000,32.000000,127.500000,96.000000,15.500000,56.000000,0.000000,0.000000,0.000000,1769693866.342881,0.000000
60.000000,10250.711173,14608.317865,-1498.952687,-4446.499580,-7474.445698,-16177.946768,-5365.670367,-5417.258193,15998.909294,12374.953911,-13386.817382,3061.093755,16352.200967,-6175.965807,-8194.976532,4716.463949,0.007344,-0.008250,1.005578,192.000000,0.000000,0.000000,0.000000,0.000000,0.000000,0.000000,0.000000,0.000000,0.000000,1769693866.342949,0.000000
62.000000,10280.818973,14636.011676,-1464.687462,-4420.571556,-7436.827712,-16162.613471,-5331.874529,-5384.334074,16017.349484,12384.945140,-13364.130362,3073.007235,16378.374860,-6168.567380,-8178.100965,4725.561109,0.007344,-0.008250,1.005578,192.000000,0.000000,0.000000,0.000000,0.000000,0.000000,0.000000,0.000000,0.000000,0.000000,1769693866.343005,0.000000
64.000000,10257.304938,14616.208031,-1503.445387,-4448.153609,-7471.271750,-16182.260654,-5363.032861,-5409.591545,16021.305742,12393.528210,-13356.754286,3084.160755,16367.064877,-6168.925007,-8178.592703,4726.231662,0.007344,-0.008250,1.005578,192.000000,0.000000,0.000000,0.000000,0.000000,0.000000,0.000000,0.000000,0.000000,0.000000,1769693866.343060,0.000000
66.000000,10279.500220,14633.329467,-1479.663131,-4425.533643,-7469.237741,-16153.471607,-5343.318623,-5393.118309,16010.420443,12381.815896,-13376.490876,3071.040281,16338.879328,-6145.209807,-8201.860869,4703.075254,0.007344,-0.008250,1.005578,192.000000,0.000000,0.000000,0.000000,0.000000,0.000000,0.000000,0.000000,0.000000,0.000000,1769693866.343110,0.000000
68.000000,10278.002653,14633.977668,-1476.556239,-4424.460760,-7470.154163,-16152.823407,-5336.501340,-5392.671274,16038.024847,12409.353245,-13347.411257,3091.670941,16367.400154,-6132.759885,-8165.963968,4746.951729,0.007344,-0.008250,1.005578,192.000000,0.000000,0.000000,0.000000,0.000000,0.000000,0.000000,0.000000,0.000000,0.000000,1769693866.343164,0.000000
70.000000,10253.572196,14615.358664,-1505.792320,-4443.571501,-7501.357198,-16191.827201,-5360.373004,-5413.011362,16000.898600,12371.735260,-13381.296501,3067.620464,16340.131025,-6167.181571,-8204.252506,4715.346362,0.006000,-0.008000,1.006000,192.000000,0.000000,24.000000,127.500000,96.000000,15.500000,56.000000,0.000000,0.000000,0.000000,1769693866.343210,0.000000
72.000000,10280.662510,14637.151615,-1470.074233,-4409.574498,-7460.274692,-16153.561014,-5327.739457,-5385.049329,16020.590487,12395.562219,-13360.330565,3082.819651,16370.015308,-6165.214618,-8189.992093,4740.201502,0.006000,-0.008000,1.006000,192.000000,0.000000,0.000000,0.000000,0.000000,0.000000,0.000000,0.000000,0.000000,0.000000,1769693866.343227,0.000000
74.000000,10252.700478,14609.860135,-1500.740826,-4437.715344,-7473.104593,-16185.032271,-5358.987195,-5416.744103,16023.742083,12396.053957,-13356.933100,3085.054825,16367.333098,-6147.623795,-8174.792907,4752.562017,0.006000,-0.008000,1.006000,192.000000,0.000000,0.000000,0.000000,0.000000,0.000000,0.000000,0.000000,0.000000,0.000000,1769693866.343244,0.000000
76.000000,10254.354507,14613.726987,-1496.650457,-4430.540434,-7459.313567,-16144.642668,-5349.443000,-5414.196004,15993.500172,12370.796486,-13391.019510,3055.014080,16345.361334,-6183.319531,-8200.899744,4724.778798,0.006000,-0.008000,1.006000,192.000000,0.000000,0.000000,0.000000,0.000000,0.000000,0.000000,0.000000,0.000000,0.000000,1769693866.343261,0.000000
78.000000,10259.294243,14617.258563,-1483.194707,-4420.549204,-7455.022032,-16155.192692,-5337.440114,-5401.679027,16013.102652,12383.715795,-13369.472428,3068.358072,16363.712116,-6144.874530,-8172.870657,4760.541589,0.006000,-0.008000,1.006000,192.000000,0.000000,0.000000,0.000000,0.000000,0.000000,0.000000,0.000000,0.000000,0.000000,1769693866.343278,0.000000
80.000000,10235.981373,14602.886391,-1511.961402,-4444.219702,-7494.785785,-16158.657212,-5361.401184,-5422.063818,15997.568190,12377.144382,-13389.298426,3062.770136,16322.830775,-6185.062967,-8199.715102,4739.106266,0.002000,-0.014000,1.010000,192.000000,0.000000,8.000000,127.500000,72.000000,15.500000,72.000000,0.000000,0.000000,0.000000,1769693866.343295,0.000000
82.000000,10273.040566,14634.290592,-1474.566933,-4415.520062,-7470.064756,-16157.181997,-5329.035858,-5385.809289,16007.358254,12391.851830,-13384.381042,3072.068461,16345.338982,-6148.584920,-8188.561581,4734.255938,0.002000,-0.014000,1.010000,192.000000,0.000000,0.000000,0.000000,0.000000,0.000000,0.000000,0.000000,0.000000,0.000000,1769693866.343313,0.000000
84.000000,10252.342850,14611.111833,-1510.910870,-4447.281891,-7482.291160,-16201.729024,-5364.709242,-5413.927783,16015.226068,12394.958722,-13381.989405,3074.884781,16354.369087,-6167.807420,-8197.189355,4728.243319,0.002000,-0.014000,1.010000,192.000000,0.000000,0.000000,0.000000,0.000000,0.000000,0.000000,0.000000,0.000000,0.000000,1769693866.343330,0.000000
86.000000,10272.101792,14632.927136,-1478.836117,-4423.924318,-7459.067697,-16179.936073,-5341.217559,-5391.598391,16009.951056,12383.715795,-13378.189609,3071.017929,16364.829703,-6170.735499,-8201.860869,4705.668057,0.002000,-0.014000,1.010000,192.000000,0.000000,0.000000,0.000000,0.000000,0.000000,0.000000,0.000000,0.000000,0.000000,1769693866.343347,0.000000
88.000000,10271.811220,14633.396522,-1478.344378,-4432.574443,-7444.829636,-16160.020669,-5343.095105,-5395.375835,16037.443702,12401.910115,-13352.239234,3086.731206,16378.754840,-6132.446961,-8163.594683,4727.461008,0.002000,-0.014000,1.010000,192.000000,0.000000,0.000000,0.000000,0.000000,0.000000,0.000000,0.000000,0.000000,0.000000,1769693866.343364,0.000000
90.000000,10258.154304,14619.158461,-1501.769006,-4444.778495,-7490.337788,-16223.030236,-5363.144620,-5412.005533,16000.898600,12377.971396,-13385.208057,3063.127764,16335.660676,-6169.975539,-8196.608209,4701.063597,0.006000,-0.012000,1.004000,192.000000,0.000000,24.000000,127.500000,80.000000,15.500000,48.000000,0.000000,0.000000,0.000000,1769693866.343391,0.000000
92.000000,10287.636255,14648.193377,-1464.396890,-4405.350018,-7446.215444,-16143.480378,-5323.917308,-5375.080451,16027.944211,12404.525269,-13361.112876,3086.910020,16382.174657,-6149.478990,-8180.470250,4729.495016,0.006000,-0.012000,1.004000,192.000000,0.000000,0.000000,0.000000,0.000000,0.000000,0.000000,0.000000,0.000000,0.000000,1769693866.343408,0.000000
94.000000,10251.784057,14614.531650,-1503.490091,-4443.571501,-7491.924762,-16178.259692,-5361.423536,-5413.212527,16028.972391,12401.574838,-13357.760114,3089.771043,16373.971566,-6160.297234,-8180.269084,4735.261766,0.006000,-0.012000,1.004000,192.000000,0.000000,0.000000,0.000000,0.000000,0.000000,0.000000,0.000000,0.000000,0.000000,1769693866.343425,0.000000
96.000000,10266.133877,14631.563679,-1491.889535,-4428.953460,-7464.141543,-16144.217985,-5344.659727,-5397.700417,16007.112385,12379.826591,-13381.967054,3071.263799,16343.774360,-6173.462412,-8213.394369,4711.948897,0.006000,-0.012000,1.004000,192.000000,0.000000,0.000000,0.000000,0.000000,0.000000,0.000000,0.000000,0.000000,0.000000,1769693866.343442,0.000000
98.000000,10272.302958,14634.357647,-1476.243314,-4422.963193,-7459.827657,-16184.473477,-5341.239910,-5395.197021,16035.655562,12399.585533,-13357.558949,3090.374540,16378.263101,-6146.014469,-8177.609226,4749.812752,0.006000,-0.012000,1.004000,192.000000,0.000000,0.000000,0.000000,0.000000,0.000000,0.000000,0.000000,0.000000,0.000000,1769693866.343459,0.000000
100.000000,10252.186388,14614.129318,-1502.148986,-4448.041850,-7502.385378,-16199.270332,-5368.196114,-5421.996763,16009.660484,12373.076364,-13386.482106,3067.084022,16331.100921,-6174.825868,-8203.447843,4724.175301,0.008000,-0.012000,1.002000,192.000000,0.000000,32.000000,127.500000,80.000000,15.500000,40.000000,0.000000,0.000000,0.000000,1769693866.343476,0.000000
102.000000,10282.584760,14640.638487,-1471.437689,-4412.323762,-7460.677023,-16178.304395,-5331.963936,-5389.698492,16024.278524,12392.477678,-13371.573492,3075.018892,16354.503197,-6168.343862,-8192.048453,4739.061563,0.008000,-0.012000,1.002000,192.000000,0.000000,0.000000,0.000000,0.000000,0.000000,0.000000,0.000000,0.000000,0.000000,1769693866.343493,0.000000
104.000000,10263.853999,14623.986438,-1501.478434,-4443.347984,-7480.413613,-16181.634805,-5358.584864,-5411.714961,16033.733312,12391.695367,-13363.862141,3080.562124,16367.601319,-6154.530484,-8180.313787,4744.873016,0.008000,-0.012000,1.002000,192.000000,0.000000,0.000000,0.000000,0.000000,0.000000,0.000000,0.000000,0.000000,0.000000,1769693866.343510,0.000000
106.000000,10273.912284,14636.212842,-1495.465815,-4432.909719,-7463.135715,-16143.256860,-5347.118419,-5400.404978,16016.120138,12378.574893,-13388.225542,3066.145249,16359.353526,-6189.421557,-8215.003695,4709.311391,0.008000,-0.012000,1.002000,192.000000,0.000000,0.000000,0.000000,0.000000,0.000000,0.000000,0.000000,0.000000,0.000000,1769693866.343526,0.000000
108.000000,10281.914208,14635.318772,-1479.171393,-4426.383010,-7465.259131,-16175.957462,-5338.714163,-5395.241725,16040.260022,12400.367844,-13357.022507,3084.697197,16362.415715,-6138.727801,-8176.491639,4749.097496,0.008000,-0.012000,1.002000,192.000000,0.000000,0.000000,0.000000,0.000000,0.000000,0.000000,0.000000,0.000000,0.000000,1769693866.343543,0.000000
110.000000,10258.310766,14617.258563,-1506.485225,-4448.064202,-7494.763433,-16179.265520,-5361.445887,-5414.888908,16010.778071,12379.848943,-13383.241103,3065.698214,16347.596508,-6160.163124,-8202.106738,4721.023705,0.006000,-0.016000,1.008000,192.000000,0.000000,24.000000,127.500000,64.000000,15.500000,64.000000,0.000000,0.000000,0.000000,1769693866.343560,0.000000
112.000000,10282.137726,14643.208938,-1477.293846,-4419.319858,-7453.792686,-16156.757314,-5331.829826,-5390.167879,16021.238687,12396.165716,-13367.639585,3079.086909,16346.143645,-6170.869609,-8191.444956,4735.485284,0.006000,-0.016000,1.008000,192.000000,0.000000,0.000000,0.000000,0.000000,0.000000,0.000000,0.000000,0.000000,0.000000,1769693866.343577,0.000000
114.000000,10250.219435,14611.357702,-1509.793283,-4458.033080,-7495.992779,-16180.785439,-5363.859876,-5424.678972,16025.977257,12384.498106,-13371.305272,3071.464964,16348.468226,-6177.396319,-8189.388596,4734.345345,0.006000,-0.016000,1.008000,192.000000,0.000000,0.000000,0.000000,0.000000,0.000000,0.000000,0.000000,0.000000,0.000000,1769693866.343635,0.000000
116.000000,10273.398194,14633.083598,-1491.576611,-4431.523911,-7460.766430,-16182.774744,-5340.502303,-5399.175632,16002.642036,12367.913111,-13389.209019,3056.399889,16322.271982,-6178.156278,-8210.935677,4708.953763,0.006000,-0.016000,1.008000,192.000000,0.000000,0.000000,0.000000,0.000000,0.000000,0.000000,0.000000,0.000000,0.000000,1769693866.343652,0.000000
118.000000,10280.528400,14632.837729,-1490.794300,-4433.312050,-7467.941340,-16185.233436,-5341.619890,-5398.058045,16030.671123,12406.179298,-13355.413181,3084.898363,16371.155247,-6148.562568,-8180.447898,4738.905101,0.006000,-0.016000,1.008000,192.000000,0.000000,0.000000,0.000000,0.000000,0.000000,0.000000,0.000000,0.000000,0.000000,1769693866.343669,0.000000
120.000000,10266.960891,14624.880508,-1502.394855,-4446.387821,-7482.849954,-16169.766029,-5354.472143,-5409.882117,16010.062815,12375.579760,-13387.599693,3059.350319,16322.517851,-6183.923028,-8211.829747,4698.493147,0.004000,-0.014000,1.010000,192.000000,0.000000,16.000000,127.500000,72.000000,15.500000,72.000000,0.000000,0.000000,0.000000,1769693866.343686,0.000000
122.000000,10278.293226,14627.674476,-1474.097547,-4420.571556,-7445.254319,-16169.497808,-5330.511073,-5394.012379,16035.566155,12391.248332,-13354.161484,3083.110223,16380.297110,-6149.993080,-8180.157325,4730.813769,0.004000,-0.014000,1.010000,192.000000,0.000000,0.000000,0.000000,0.000000,0.000000,0.000000,0.000000,0.000000,0.000000,1769693866.343706,0.000000
124.000000,10255.203874,14606.306208,-1496.024608,-4450.522894,-7485.398052,-16185.166381,-5360.998852,-5418.152263,16028.011266,12377.524361,-13365.292652,3067.687520,16349.898738,-6158.464391,-8178.950331,4730.165569,0.004000,-0.014000,1.010000,192.000000,0.000000,0.000000,0.000000,0.000000,0.000000,0.000000,0.000000,0.000000,0.000000,1769693866.343723,0.000000
126.000000,10266.670318,14614.151670,-1486.569820,-4433.490864,-7460.162933,-16172.850570,-5350.895864,-5407.624591,16010.643960,12369.522437,-13381.542371,3055.975205,16314.739444,-6194.540107,-8198.150480,4711.457159,0.004000,-0.014000,1.010000,192.000000,0.000000,0.000000,0.000000,0.000000,0.000000,0.000000,0.000000,0.000000,0.000000,1769693866.343740,0.000000
128.000000,10267.854961,14618.510260,-1492.135405,-4426.628879,-7457.570131,-16161.540587,-5345.307928,-5403.064835,16030.671123,12381.637082,-13363.392754,3072.850772,16371.535226,-6167.874475,-8176.625750,4743.621319,0.004000,-0.014000,1.010000,192.000000,0.000000,0.000000,0.000000,0.000000,0.000000,0.000000,0.000000,0.000000,0.000000,1769693866.343757,0.000000
130.000000,10251.560539,14609.301342,-1514.420094,-4443.325632,-7472.769317,-16179.779611,-5362.027033,-5416.341772,16000.160992,12362.906320,-13390.818344,3061.563142,16315.320589,-6177.865705,-8210.645105,4720.599022,0.004000,-0.014000,1.008000,192.000000,0.000000,16.000000,127.500000,72.000000,15.500000,64.000000,0.000000,0.000000,0.000000,1769693866.343774,0.000000
132.000000,10275.611016,14630.490795,-1478.478489,-4417.509367,-7458.799476,-16135.612564,-5330.913404,-5386.815117,16016.388359,12386.062728,-13364.800914,3081.791470,16342.790883,-6148.607272,-8184.068881,4734.747676,0.004000,-0.014000,1.008000,192.000000,0.000000,0.000000,0.000000,0.000000,0.000000,0.000000,0.000000,0.000000,0.000000,1769693866.343790,0.000000
134.000000,10236.763684,14589.631807,-1506.373466,-4443.795019,-7488.080262,-16154.231567,-5358.294291,-5417.749932,16017.684760,12386.107431,-13364.443286,3082.953761,16332.911412,-6152.272958,-8185.119413,4736.781685,0.004000,-0.014000,1.008000,192.000000,0.000000,0.000000,0.000000,0.000000,0.000000,0.000000,0.000000,0.000000,0.000000,1769693866.343808,0.000000
136.000000,10216.356542,14568.621167,-1497.276306,-4434.675507,-7475.183305,-16195.381128,-5352.304024,-5423.427275,15983.039556,12351.618689,-13401.122499,3046.118086,16329.357485,-6164.722879,-8212.433244,4707.143272,0.004000,-0.014000,1.008000,192.000000,0.000000,0.000000,0.000000,0.000000,0.000000,0.000000,0.000000,0.000000,0.000000,1769693866.343825,0.000000
138.000000,10199.369216,14542.357867,-1488.916753,-4430.473379,-7458.508904,-16182.595930,-5345.442038,-5422.041466,16004.296065,12368.158980,-13374.725088,3062.054880,16348.289412,-6159.581978,-8172.803601,4748.091668,0.004000,-0.014000,1.008000,192.000000,0.000000,0.000000,0.000000,0.000000,0.000000,0.000000,0.000000,0.000000,0.000000,1769693866.343842,0.000000
140.000000,10148.787218,14497.632026,-1520.253899,-4462.592836,-7484.615741,-16196.543419,-5376.242742,-5454.317385,15957.066829,12317.219355,-13420.859089,3024.459246,16320.260325,-6193.221354,-8211.762692,4708.573783,0.005000,-0.013000,1.008000,192.000000,0.000000,24.000000,127.500000,80.000000,15.500000,64.000000,0.000000,0.000000,0.000000,1769693866.343866,0.000000
142.000000,10165.841599,14510.976018,-1474.499878,-4423.074952,-7438.571148,-16153.829235,-5333.372096,-5416.699400,15977.988062,12334.564308,-13400.541353,3036.104505,16320.662656,-6158.777315,-8186.102889,4730.254976,0.005000,-0.013000,1.008000,192.000000,0.000000,0.000000,0.000000,0.000000,0.000000,0.000000,0.000000,0.000000,0.000000,1769693866.343884,0.000000
144.000000,10119.484081,14467.188950,-1508.206309,-4456.624920,-7478.759584,-16177.544436,-5369.268998,-5454.898531,15971.439001,12333.379666,-13400.742519,3039.926653,16342.656772,-6164.119382,-8178.860924,4734.077124,0.005000,-0.013000,1.008000,192.000000,0.000000,0.000000,0.000000,0.000000,0.000000,0.000000,0.000000,0.000000,0.000000,1769693866.343900,0.000000
146.000000,10124.088541,14467.792448,-1492.425977,-4436.284833,-7471.405860,-16164.535721,-5355.276806,-5443.588548,15945.533329,12315.408863,-13425.508252,3019.050124,16325.043598,-6184.593580,-8201.749110,4717.492130,0.005000,-0.013000,1.008000,192.000000,0.000000,0.000000,0.000000,0.000000,0.000000,0.000000,0.000000,0.000000,0.000000,1769693866.343917,0.000000
148.000000,10125.429645,14462.472732,-1490.839003,-4440.241091,-7448.294157,-16141.736942,-5353.376908,-5440.772228,15972.958919,12331.122140,-13399.043786,3036.752705,16339.616935,-6159.760792,-8174.278816,4749.902159,0.005000,-0.013000,1.008000,192.000000,0.000000,0.000000,0.000000,0.000000,0.000000,0.000000,0.000000,0.000000,0.000000,1769693866.343934,0.000000
150.000000,10113.784386,14457.912976,-1514.665963,-4461.631711,-7485.219238,-16182.998262,-5372.510001,-5457.558388,15953.423495,12308.837451,-13428.503386,3017.686667,16329.133967,-6171.338996,-8200.340951,4719.190862,0.010500,-0.013500,1.006000,192.000000,0.000000,64.000000,127.500000,72.000000,15.500000,48.000000,0.000000,0.000000,0.000000,1769693866.343951,0.000000
152.000000,10162.779410,14494.502782,-1482.412396,-4427.120617,-7445.902520,-16131.544546,-5337.685983,-5420.834472,15971.506056,12327.814082,-13402.128327,3034.450476,16326.652923,-6152.049440,-8192.003750,4730.076162,0.010500,-0.013500,1.006000,192.000000,0.000000,0.000000,0.000000,0.000000,0.000000,0.000000,0.000000,0.000000,0.000000,1769693866.343968,0.000000
154.000000,10162.712355,14492.535829,-1508.630992,-4447.416001,-7473.685738,-16162.859340,-5361.088259,-5437.486522,15987.219332,12338.878195,-13391.779469,3049.694365,16335.146586,-6164.834638,-8184.985302,4742.771952,0.010500,-0.013500,1.006000,192.000000,0.000000,0.000000,0.000000,0.000000,0.000000,0.000000,0.000000,0.000000,0.000000,1769693866.343988,0.000000
156.000000,10190.964960,14525.102320,-1501.478434,-4434.206120,-7461.571093,-16169.386049,-5351.633471,-5424.298993,15977.093992,12337.626497,-13406.486917,3044.776981,16308.659769,-6167.963882,-8206.979419,4722.521272,0.010500,-0.013500,1.006000,192.000000,0.000000,0.000000,0.000000,0.000000,0.000000,0.000000,0.000000,0.000000,0.000000,1769693866.344005,0.000000
158.000000,10203.616047,14538.669829,-1491.755425,-4432.529739,-7449.836427,-16162.121732,-5346.380811,-5418.800464,16001.122117,12359.710021,-13379.106030,3060.892589,16358.995898,-6156.765658,-8177.609226,4751.511485,0.010500,-0.013500,1.006000,192.000000,0.000000,0.000000,0.000000,0.000000,0.000000,0.000000,0.000000,0.000000,0.000000,1769693866.344020,0.000000
160.000000,10190.361463,14530.042056,-1508.899213,-4455.395574,-7477.239666,-16186.865114,-5369.291350,-5438.402943,15976.803419,12336.643021,-13407.604505,3040.194874,16313.510098,-6190.181516,-8203.827823,4717.603888,0.012250,-0.013750,1.007000,192.000000,0.000000,56.000000,127.500000,72.000000,15.500000,64.000000,0.000000,0.000000,0.000000,1769693866.344036,0.000000
162.000000,10225.118426,14563.860245,-1473.806974,-4428.238205,-7453.189189,-16167.709669,-5339.384715,-5407.579888,15994.260132,12353.339774,-13388.739632,3056.265778,16336.845319,-6166.734536,-8187.935732,4727.930394,0.012250,-0.013750,1.007000,192.000000,0.000000,0.000000,0.000000,0.000000,0.000000,0.000000,0.000000,0.000000,0.000000,1769693866.344049,0.000000
164.000000,10214.166071,14555.768914,-1498.818576,-4450.478190,-7482.805250,-16174.392840,-5360.060079,-5424.790731,16006.397129,12361.274643,-13376.624987,3065.631159,16338.566403,-6149.099010,-8181.140802,4731.663135,0.012250,-0.013750,1.007000,192.000000,0.000000,0.000000,0.000000,0.000000,0.000000,0.000000,0.000000,0.000000,0.000000,1769693866.344066,0.000000
166.000000,10226.794806,14570.409306,-1486.078082,-4435.770742,-7467.315491,-16178.706727,-5348.280710,-5414.911260,15985.922931,12352.177483,-13396.965074,3050.744897,16326.116482,-6188.505136,-8208.812262,4703.745807,0.012250,-0.013750,1.007000,192.000000,0.000000,0.000000,0.000000,0.000000,0.000000,0.000000,0.000000,0.000000,0.000000,1769693866.344081,0.000000
168.000000,10231.175748,14574.410269,-1478.545544,-4436.150722,-7450.752848,-16149.783570,-5344.190341,-5412.989010,16012.342693,12378.597245,-13367.751344,3075.242409,16347.976488,-6144.226330,-8172.870657,4738.525121,0.012250,-0.013750,1.007000,192.000000,0.000000,0.000000,0.000000,0.000000,0.000000,0.000000,0.000000,0.000000,0.000000,1769693866.344096,0.000000
170.000000,10210.969771,14557.512350,-1498.036265,-4452.489847,-7476.412651,-16193.213009,-5367.614969,-5431.630365,15980.178533,12347.260099,-13401.055443,3048.688537,16315.767624,-6204.978371,-8205.504203,4708.439673,0.011125,-0.012875,1.006500,192.000000,0.000000,40.000000,127.500000,80.000000,15.500000,56.000000,0.000000,0.000000,0.000000,1769693866.344110,0.000000
172.000000,10244.609147,14588.760089,-1463.055785,-4419.252803,-7436.961822,-16153.404552,-5336.501340,-5400.114405,16003.401995,12371.623501,-13375.038013,3065.787621,16331.570307,-6159.090240,-8181.476078,4736.289947,0.011125,-0.012875,1.006500,192.000000,0.000000,0.000000,0.000000,0.000000,0.000000,0.000000,0.000000,0.000000,0.000000,1769693866.344126,0.000000
174.000000,10229.544071,14574.164399,-1494.884669,-4446.611338,-7469.885942,-16174.146971,-5366.206809,-5425.707153,16009.459318,12368.918940,-13371.774658,3064.446517,16340.756874,-6159.626682,-8177.788040,4741.274386,0.011125,-0.012875,1.006500,192.000000,0.000000,0.000000,0.000000,0.000000,0.000000,0.000000,0.000000,0.000000,0.000000,1769693866.344143,0.000000
176.000000,10243.536263,14591.107022,-1489.743768,-4432.261519,-7457.413668,-16175.219855,-5351.789934,-5414.307763,15993.813097,12359.777076,-13387.644397,3052.600092,16309.687949,-6156.430382,-8198.530459,4718.140330,0.011125,-0.012875,1.006500,192.000000,0.000000,0.000000,0.000000,0.000000,0.000000,0.000000,0.000000,0.000000,0.000000,1769693866.344156,0.000000
178.000000,10242.128103,14589.430641,-1492.582439,-4429.512254,-7475.429174,-16175.219855,-5345.933777,-5412.363161,16012.163879,12388.476716,-13364.912673,3076.672921,16356.134874,-6146.595615,-8175.932846,4749.700993,0.011125,-0.012875,1.006500,192.000000,0.000000,0.000000,0.000000,0.000000,0.000000,0.000000,0.000000,0.000000,0.000000,1769693866.823671,0.000000
180.000000,10223.419693,14576.220760,-1516.230585,-4448.243016,-7503.167689,-16176.426849,-5362.921102,-5429.574004,15983.598350,12364.090963,-13395.400452,3061.071403,16312.101938,-6186.225258,-8206.845308,4719.593193,0.010562,-0.013438,1.007250,192.000000,0.000000,40.000000,127.500000,72.000000,15.500000,64.000000,0.000000,0.000000,0.000000,1769693866.823732,0.000000
182.000000,10253.728658,14599.064243,-1479.216096,-4418.314030,-7468.701299,-16151.683468,-5332.053343,-5398.929763,15990.460335,12369.500085,-13384.649263,3066.502877,16293.997025,-6183.252476,-8197.032892,4723.035362,0.010562,-0.013438,1.007250,192.000000,0.000000,0.000000,0.000000,0.000000,0.000000,0.000000,0.000000,0.000000,0.000000,1769693866.823785,0.000000
184.000000,10233.120350,14579.238245,-1504.272402,-4441.090458,-7489.130794,-16192.475401,-5361.557646,-5422.846129,16001.658559,12373.858675,-13373.406336,3070.615598,16310.582019,-6176.569304,-8187.488697,4734.099476,0.010562,-0.013438,1.007250,192.000000,0.000000,0.000000,0.000000,0.000000,0.000000,0.000000,0.000000,0.000000,0.000000,1769693866.823833,0.000000
186.000000,10243.469208,14592.336368,-1485.988675,-4427.925280,-7455.133790,-16156.913776,-5348.884207,-5414.039542,15987.934588,12360.134704,-13390.259551,3059.886761,16309.307970,-6165.616949,-8205.861831,4725.516406,0.010562,-0.013438,1.007250,192.000000,0.000000,0.000000,0.000000,0.000000,0.000000,0.000000,0.000000,0.000000,0.000000,1769693866.823897,0.000000
188.000000,10251.851112,14598.773670,-1473.337588,-4427.679411,-7438.213520,-16171.665927,-5342.133980,-5407.401074,16014.197888,12379.312501,-13364.935024,3075.912961,16338.588755,-6141.342955,-8159.012575,4757.233531,0.010562,-0.013438,1.007250,192.000000,0.000000,0.000000,0.000000,0.000000,0.000000,0.000000,0.000000,0.000000,0.000000,1769693866.823946,0.000000
190.000000,10232.092170,14581.115792,-1498.103320,-4453.875655,-7472.411689,-16197.213971,-5368.911370,-5429.864577,15994.416594,12366.080268,-13391.287731,3063.239522,16329.491595,-6174.021205,-8192.517840,4714.184071,0.011281,-0.012719,1.005625,192.000000,0.000000,48.000000,127.500000,80.000000,15.500000,48.000000,0.000000,0.000000,0.000000,1769693866.823990,0.000000
192.000000,10262.267025,14607.043815,-1457.132573,-4423.052600,-7441.208654,-16146.140235,-5334.266166,-5402.886021,16006.888867,12370.036527,-13381.452964,3065.519400,16332.419673,-6168.276807,-8177.139840,4716.978039,0.011281,-0.012719,1.005625,192.000000,0.000000,0.000000,0.000000,0.000000,0.000000,0.000000,0.000000,0.000000,0.000000,1769693866.824007,0.000000
194.000000,10223.151472,14565.424867,-1499.109149,-4459.173019,-7477.574942,-16225.667742,-5372.487649,-5442.090981,16014.019074,12370.640024,-13374.970958,3071.107336,16344.757836,-6181.799612,-8169.763764,4734.501807,0.011281,-0.012719,1.005625,192.000000,0.000000,0.000000,0.000000,0.000000,0.000000,0.000000,0.000000,0.000000,0.000000,1769693866.824023,0.000000
196.000000,10235.400228,14576.220760,-1480.288980,-4445.091420,-7471.428212,-16205.171192,-5355.589730,-5431.496254,15977.742192,12339.615803,-13406.039882,3039.859598,16322.339037,-6186.828755,-8207.269991,4699.096644,0.011281,-0.012719,1.005625,192.000000,0.000000,0.000000,0.000000,0.000000,0.000000,0.000000,0.000000,0.000000,0.000000,1769693866.824037,0.000000
198.000000,10239.244728,14582.747469,-1470.454212,-4441.336327,-7466.600235,-16177.767954,-5352.259320,-5425.349525,16007.090033,12362.347527,-13374.769792,3058.947987,16357.341869,-6180.950246,-8169.987282,4735.865263,0.011281,-0.012719,1.005625,192.000000,0.000000,0.000000,0.000000,0.000000,0.000000,0.000000,0.000000,0.000000,0.000000,1769693866.824053,0.000000
200.000000,10228.426484,14574.946710,-1497.298658,-4461.452897,-7486.917971,-16164.245148,-5377.919123,-5438.671164,15983.173666,12339.928727,-13399.088490,3040.105467,16295.271074,-6202.072644,-8202.486718,4712.552394,0.012641,-0.012359,1.001812,192.000000,0.000000,56.000000,127.500000,80.000000,15.500000,24.000000,0.000000,0.000000,0.000000,1769693866.824069,0.000000
202.000000,10274.404022,14617.638542,-1461.401756,-4413.374294,-7448.137694,-16153.404552,-5335.115532,-5391.196059,16009.638132,12372.092887,-13369.919463,3069.542714,16326.339999,-6175.250551,-8181.677244,4739.665060,0.012641,-0.012359,1.001812,192.000000,0.000000,0.000000,0.000000,0.000000,0.000000,0.000000,0.000000,0.000000,0.000000,1769693866.824085,0.000000
204.000000,10248.319536,14595.711481,-1500.539661,-4445.650213,-7485.465108,-16171.531817,-5367.123230,-5418.040504,16014.801385,12385.034547,-13361.828132,3083.356092,16339.236956,-6160.766621,-8175.418755,4760.452182,0.012641,-0.012359,1.001812,192.000000,0.000000,0.000000,0.000000,0.000000,0.000000,0.000000,0.000000,0.000000,0.000000,1769693866.824102,0.000000
206.000000,10270.693632,14615.336313,-1489.319085,-4427.031210,-7457.726593,-16162.948747,-5347.297233,-5398.393321,15996.048271,12366.683765,-13380.178914,3071.353206,16299.897885,-6167.874475,-8201.972628,4721.917775,0.012641,-0.012359,1.001812,192.000000,0.000000,0.000000,0.000000,0.000000,0.000000,0.000000,0.000000,0.000000,0.000000,1769693866.824117,0.000000
208.000000,10273.509952,14617.415025,-1476.109204,-4414.424826,-7447.265976,-16169.408401,-5333.595614,-5392.291295,16026.200774,12397.596228,-13348.618251,3097.191822,16342.545014,-6138.481932,-8171.842476,4754.126639,0.012641,-0.012359,1.001812,192.000000,0.000000,0.000000,0.000000,0.000000,0.000000,0.000000,0.000000,0.000000,0.000000,1769693866.824134,0.000000
210.000000,10243.893891,14591.576408,-1503.557146,-4448.555940,-7486.850916,-16199.359739,-5361.959977,-5422.957888,15994.506001,12366.370841,-13382.235275,3072.716662,16288.878475,-6180.659673,-8206.510032,4714.228775,0.012641,-0.012359,1.001812,192.000000,0.000000,0.000000,0.000000,0.000000,0.000000,0.000000,0.000000,0.000000,0.000000,1769693866.824150,0.000000
212.000000,10274.806353,14619.739606,-1472.868201,-4422.784379,-7452.317471,-16154.231567,-5331.539253,-5392.447757,16000.853896,12373.322233,-13372.065231,3071.442613,16342.455607,-6166.242798,-8193.188392,4719.012048,0.014000,-0.008000,1.000000,192.000000,0.000000,56.000000,127.500000,96.000000,15.500000,32.000000,0.000000,0.000000,0.000000,1769693866.824167,0.000000
214.000000,10249.995917,14597.879600,-1499.936163,-4449.628824,-7476.725576,-16189.144992,-5366.273864,-5420.521548,16022.490385,12388.074385,-13359.727068,3083.490203,16320.237973,-6175.697586,-8176.938674,4734.166531,0.014000,-0.008000,1.000000,192.000000,0.000000,0.000000,0.000000,0.000000,0.000000,0.000000,0.000000,0.000000,0.000000,1769693866.824185,0.000000
216.000000,10269.754859,14617.347970,-1479.864297,-4428.238205,-7462.867494,-16190.910779,-5348.817152,-5403.757740,15986.012338,12358.570082,-13394.953417,3058.456249,16296.679234,-6192.819022,-8201.883221,4703.768158,0.014000,-0.008000,1.000000,192.000000,0.000000,0.000000,0.000000,0.000000,0.000000,0.000000,0.000000,0.000000,0.000000,1769693866.824199,0.000000
218.000000,10272.124144,14611.447109,-1476.444480,-4426.673582,-7460.922892,-16157.360811,-5344.480913,-5404.763568,16028.994743,12393.617617,-13352.887434,3089.815747,16362.907453,-6142.438190,-8162.141819,4748.583406,0.014000,-0.008000,1.000000,192.000000,0.000000,0.000000,0.000000,0.000000,0.000000,0.000000,0.000000,0.000000,0.000000,1769693866.824221,0.000000
220.000000,10241.166978,14585.228513,-1509.793283,-4454.769725,-7490.181326,-16189.234399,-5370.386585,-5434.960775,15995.444774,12362.034602,-13390.192496,3063.753612,16324.238935,-6180.100880,-8199.379826,4713.021781,0.014000,-0.008000,1.000000,192.000000,0.000000,0.000000,0.000000,0.000000,0.000000,0.000000,0.000000,0.000000,0.000000,1769693866.824236,0.000000
222.000000,10264.949234,14605.993284,-1474.075195,-4427.031210,-7461.235817,-16165.720363,-5336.903672,-5406.842280,16001.077414,12363.152190,-13386.772679,3062.188990,16304.859973,-6185.688816,-8195.155346,4728.243319,0.008000,-0.014000,1.008000,192.000000,0.000000,32.000000,127.500000,72.000000,15.500000,64.000000,0.000000,0.000000,0.000000,1769693866.824254,0.000000
224.000000,10246.173769,14588.044833,-1497.142195,-4453.227455,-7494.897544,-16199.762070,-5366.698547,-5427.003554,16010.666312,12368.874236,-13376.177952,3070.615598,16337.113540,-6176.189324,-8184.806488,4744.873016,0.008000,-0.014000,1.008000,192.000000,0.000000,0.000000,0.000000,0.000000,0.000000,0.000000,0.000000,0.000000,0.000000,1769693866.824270,0.000000
226.000000,10266.290339,14610.776557,-1480.937181,-4439.503484,-7461.861665,-16168.871959,-5353.019280,-5409.904469,15996.495306,12358.883006,-13391.220676,3054.656452,16306.938685,-6202.072644,-8202.978456,4708.707894,0.008000,-0.014000,1.008000,192.000000,0.000000,0.000000,0.000000,0.000000,0.000000,0.000000,0.000000,0.000000,0.000000,1769693866.824288,0.000000
