Sample_index,EXG Channel 0,EXG Channel 1,EXG Channel 2,EXG Channel 3,EXG Channel 4,EXG Channel 5,EXG Channel 6,EXG Channel 7,EXG Channel 8,EXG Channel 9,EXG Channel 10,EXG Channel 11,EXG Channel 12,EXG Channel 13,EXG Channel 14,EXG Channel 15,Accel Channel 0,Accel Channel 1,Accel Channel 2,Not Used,Digital Channel 0 (D11),Digital Channel 1 (D12),Digital Channel 2 (D13),Digital Channel 3 (D17),Not Used.1,Digital Channel 4 (D18),Analog Channel 0,Analog Channel 1,Analog Channel 2,Timestamp,Marker Channel
210.0,-16397.150325,-10405.899335,-374.324664,-22047.179585,5048.230892,4781.865154,-6507.196308,879.116461,4934.438161,-10041.610604,-6059.02148,3049.806124,650.055784,1507.088722,-25805.066622,-11586.026738,0.002,-0.01,1.002,192.0,0.0,0.0,0.0,0.0,0.0,0.0,0.0,0.0,0.0,1770887247.764398,101.0
212.0,-16530.701999,-10543.45197,-484.183488,-22177.490256,4937.790923,4719.570842,-6618.999734,771.425756,4887.186573,-10168.792029,-6165.549894,2948.66448,550.255245,1403.242517,-25936.696045,-11692.77867,0.002,-0.01,1.002,192.0,0.0,0.0,0.0,0.0,0.0,0.0,0.0,0.0,0.0,1770887247.764468,0.0
214.0,-16367.064877,-10380.641863,-351.45883,-22024.738434,5078.539858,4804.865099,-6488.890229,896.304953,4919.261327,-10122.836843,-6123.707428,2983.712016,594.802272,1441.307538,-25890.584396,-11658.938129,0.002,-0.01,1.002,192.0,0.0,0.0,0.0,0.0,0.0,0.0,0.0,0.0,0.0,1770887247.764522,0.0
216.0,-16485.864399,-10501.184821,-450.030023,-22139.11231,5001.381636,4745.789438,-6588.556658,806.45094,4937.634461,-10060.587235,-6061.703689,3029.778961,643.126743,1504.182995,-25817.047157,-11599.50484,0.006,-0.012,1.008,192.0,0.0,24.0,127.5,80.0,15.5,64.0,0.0,0.0,0.0,1770887247.764575,0.0
218.0,-16459.511692,-10473.49101,-427.208892,-22107.618702,5016.178491,4759.088726,-6560.684033,825.695792,4891.478108,-10200.643265,-6191.164993,2919.406047,534.407858,1380.197868,-25965.507444,-11728.966144,0.006,-0.012,1.008,192.0,0.0,0.0,0.0,0.0,0.0,0.0,0.0,0.0,0.0,1770887247.764626,0.0
220.0,-16397.97734,-10409.877945,-372.98356,-22049.973553,5064.659424,4781.753395,-6509.878517,878.177688,4940.070801,-10041.789417,-6053.500599,3043.614691,664.763232,1495.689332,-25797.198808,-11594.989788,0.006,-0.012,1.008,192.0,0.0,0.0,0.0,0.0,0.0,0.0,0.0,0.0,0.0,1770887247.764676,0.0
222.0,-16539.083903,-10548.659926,-490.598439,-22189.180218,4958.019252,4719.235566,-6621.950164,761.255713,4890.226411,-10167.629739,-6164.812286,2942.920082,559.844143,1411.065627,-25924.804917,-11703.731025,0.006,-0.012,1.008,192.0,0.0,0.0,0.0,0.0,0.0,0.0,0.0,0.0,0.0,1770887247.764696,0.0
224.0,-16388.544904,-10397.942114,-364.244028,-22034.349684,5065.307625,4781.68634,-6492.064177,883.564458,4898.250687,-10136.024372,-6144.472199,2964.176591,582.911144,1416.117122,-25888.058649,-11676.685414,0.006,-0.012,1.008,192.0,0.0,0.0,0.0,0.0,0.0,0.0,0.0,0.0,0.0,1770887247.764716,0.0
226.0,-16504.438699,-10510.751368,-459.685976,-22144.677895,4957.348699,4725.941089,-6589.584838,799.41014,4907.928992,-10068.544456,-6078.534553,3024.369839,624.88772,1496.918678,-25830.614666,-11621.92364,0.008,-0.016,1.01,192.0,0.0,32.0,127.5,64.0,15.5,72.0,0.0,0.0,0.0,1770887247.764736,0.0
228.0,-16460.741038,-10468.640681,-430.963985,-22111.798479,4981.354473,4746.415287,-6557.107753,829.227368,4865.170105,-10208.041693,-6202.340865,2915.025105,504.344762,1376.956865,-25980.080781,-11748.456865,0.008,-0.016,1.01,192.0,0.0,0.0,0.0,0.0,0.0,0.0,0.0,0.0,0.0,1770887247.764756,0.0
230.0,-16388.723718,-10397.7633,-374.52583,-22046.263164,5034.75279,4775.606665,-6505.229355,888.012455,4934.348754,-10039.733057,-6049.477285,3046.721583,645.428973,1502.819538,-25815.437831,-11606.098605,0.008,-0.016,1.01,192.0,0.0,0.0,0.0,0.0,0.0,0.0,0.0,0.0,0.0,1770887247.764776,0.0
232.0,-16530.679647,-10541.954403,-489.413797,-22175.791523,4925.899795,4718.788531,-6617.79274,778.757129,4886.896001,-10161.147733,-6154.35167,2953.514809,551.104611,1402.080226,-25943.334513,-11699.193621,0.008,-0.016,1.01,192.0,0.0,0.0,0.0,0.0,0.0,0.0,0.0,0.0,0.0,1770887247.764794,0.0
234.0,-16360.247595,-10376.283273,-358.209057,-22025.252524,5061.798401,4798.897183,-6487.61618,906.184424,4917.428484,-10123.105064,-6124.132112,2981.5886,577.837298,1435.272567,-25900.329757,-11671.030423,0.008,-0.016,1.01,192.0,0.0,0.0,0.0,0.0,0.0,0.0,0.0,0.0,0.0,1770887247.764814,0.0
236.0,-16483.964501,-10499.955475,-457.562561,-22137.19006,4967.451688,4738.301604,-6590.076576,810.943641,4929.163149,-10054.239339,-6058.261521,3035.501007,639.997499,1503.847719,-25833.006302,-11601.382387,0.004,-0.012,1.012,192.0,0.0,16.0,127.5,80.0,15.5,80.0,0.0,0.0,0.0,1770887247.764834,0.0
238.0,-16456.53891,-10464.818533,-432.550959,-22106.858743,5009.875299,4772.767994,-6562.561579,828.042725,4880.48105,-10197.536373,-6196.238839,2917.953183,517.487588,1385.383473,-25974.358734,-11726.507452,0.004,-0.012,1.012,192.0,0.0,0.0,0.0,0.0,0.0,0.0,0.0,0.0,0.0,1770887247.764868,0.0
240.0,-16396.05509,-10403.731215,-374.168202,-22048.90067,5071.52141,4801.065302,-6511.756064,880.166993,4933.074705,-10033.36281,-6058.149762,3046.766287,651.396889,1515.64944,-25799.27752,-11584.238599,0.004,-0.012,1.012,192.0,0.0,0.0,0.0,0.0,0.0,0.0,0.0,0.0,0.0,1770887247.764888,0.0
242.0,-16541.74376,-10549.755162,-490.553736,-22183.793447,4951.134914,4723.571804,-6625.146464,767.290684,4882.626818,-10167.607387,-6163.582941,2939.209692,554.233856,1406.908203,-25919.775774,-11690.163516,0.004,-0.012,1.012,192.0,0.0,0.0,0.0,0.0,0.0,0.0,0.0,0.0,0.0,1770887247.764907,0.0
244.0,-16381.727622,-10389.962541,-360.913618,-22031.890992,5081.423233,4790.314113,-6493.181764,889.442967,4903.346885,-10127.508357,-6138.526635,2971.329149,578.217277,1442.089849,-25885.421143,-11669.756373,0.004,-0.012,1.012,192.0,0.0,0.0,0.0,0.0,0.0,0.0,0.0,0.0,0.0,1770887247.764926,0.0
246.0,-16497.040271,-10511.578382,-452.846343,-22144.409674,4974.134859,4727.975098,-6587.81905,804.215766,4916.86969,-10068.052717,-6074.77946,3024.883929,639.304595,1494.750559,-25814.253189,-11615.933372,0.003,-0.01,1.007,192.0,0.0,8.0,127.5,96.0,15.5,40.0,0.0,0.0,0.0,1770887247.764943,0.0
248.0,-16463.982041,-10473.379251,-433.199159,-22115.732386,4993.558525,4737.787513,-6557.532437,826.008716,4871.674463,-10211.617972,-6202.162051,2916.723837,517.532291,1371.368929,-25972.034153,-11752.793104,0.003,-0.01,1.007,192.0,0.0,0.0,0.0,0.0,0.0,0.0,0.0,0.0,0.0,1770887247.764964,0.0
250.0,-16392.568218,-10401.361931,-375.643417,-22043.849175,5042.732363,4766.755374,-6499.574363,889.420615,4922.949365,-10042.214101,-6054.797,3050.208455,643.841999,1494.348227,-25808.017052,-11611.41832,0.003,-0.01,1.007,192.0,0.0,0.0,0.0,0.0,0.0,0.0,0.0,0.0,0.0,1770887247.764984,0.0
252.0,-16539.150958,-10545.351868,-491.984247,-22185.87216,4927.598527,4703.745807,-6618.083312,773.750338,4879.408166,-10161.661823,-6156.631548,2953.313643,544.712012,1400.672066,-25940.674656,-11711.755301,0.003,-0.01,1.007,192.0,0.0,0.0,0.0,0.0,0.0,0.0,0.0,0.0,0.0,1770887247.765003,0.0
254.0,-16374.932691,-10384.016977,-364.847525,-22032.226268,5055.875189,4779.317055,-6487.906753,898.249554,4909.292449,-10131.799892,-6128.244833,2977.207658,578.977237,1421.593299,-25906.90117,-11688.107155,0.003,-0.01,1.007,192.0,0.0,0.0,0.0,0.0,0.0,0.0,0.0,0.0,0.0,1770887247.765023,0.0
0.0,-16495.050966,-10505.543411,-457.651968,-22139.715807,4960.030909,4720.867243,-6585.628579,807.009734,4921.161225,-10057.301528,-6065.436431,3035.344545,637.292938,1497.924506,-25834.056834,-11620.314314,0.0035,-0.009,1.0045,192.0,0.0,16.0,127.5,96.0,15.5,40.0,0.0,0.0,0.0,1770887247.765042,0.0
2.0,-16473.258015,-10482.945798,-438.898854,-22113.631322,4988.529383,4739.843874,-6560.706384,824.399391,4872.836753,-10209.181632,-6201.37974,2918.131997,516.213538,1372.352406,-25983.187673,-11744.612365,0.0035,-0.009,1.0045,192.0,0.0,0.0,0.0,0.0,0.0,0.0,0.0,0.0,0.0,1770887247.765062,0.0
4.0,-16407.499183,-10415.935268,-375.911638,-22050.465292,5046.554511,4764.676662,-6507.509232,882.670389,4919.730713,-10054.418153,-6060.116715,3043.525284,641.115086,1488.983809,-25812.688567,-11602.522326,0.0035,-0.009,1.0045,192.0,0.0,0.0,0.0,0.0,0.0,0.0,0.0,0.0,0.0,1770887247.765082,0.0
6.0,-16549.43276,-10559.366412,-490.821956,-22186.430953,4947.759801,4714.921679,-6625.906423,768.564733,4872.613236,-10174.357614,-6162.241836,2948.910349,544.376736,1401.029694,-25926.727167,-11696.265542,0.0035,-0.009,1.0045,192.0,0.0,0.0,0.0,0.0,0.0,0.0,0.0,0.0,0.0,1770887247.765101,0.0
8.0,-16394.401061,-10403.641808,-360.131307,-22041.971629,5077.779898,4781.015787,-6497.74152,887.2972,4896.775472,-10145.702677,-6140.918272,2965.137716,583.24642,1418.218186,-25885.264681,-11672.326824,0.0035,-0.009,1.0045,192.0,0.0,0.0,0.0,0.0,0.0,0.0,0.0,0.0,0.0,1770887247.76512,0.0
10.0,-16508.126737,-10516.384007,-452.823991,-22151.361066,4975.990054,4731.014935,-6590.613018,800.1701,4912.533452,-10075.965235,-6076.053509,3018.021943,627.301708,1480.244277,-25812.59916,-11604.332817,0.00475,-0.0095,1.00825,192.0,0.0,24.0,127.5,88.0,15.5,80.0,0.0,0.0,0.0,1770887247.765138,0.0
12.0,-16478.890655,-10489.137231,-428.97468,-22128.584639,4989.78108,4734.188883,-6564.841457,819.347896,4870.422765,-10224.850205,-6202.407921,2902.396369,527.076486,1358.002586,-25967.541452,-11739.851444,0.00475,-0.0095,1.00825,192.0,0.0,0.0,0.0,0.0,0.0,0.0,0.0,0.0,0.0,1770887247.765158,0.0
14.0,-16391.718852,-10407.598067,-362.165315,-22049.92885,5058.669157,4767.805906,-6502.010703,891.342865,4939.087324,-10058.553226,-6049.812561,3036.708002,662.148078,1486.458062,-25802.362061,-11606.858564,0.00475,-0.0095,1.00825,192.0,0.0,0.0,0.0,0.0,0.0,0.0,0.0,0.0,0.0,1770887247.765177,0.0
16.0,-16527.416292,-10549.21872,-482.909439,-22181.044183,4937.455647,4709.42315,-6616.362228,782.713387,4902.810443,-10169.395527,-6141.454714,2957.001681,568.784841,1409.746875,-25923.933199,-11706.256772,0.00475,-0.0095,1.00825,192.0,0.0,0.0,0.0,0.0,0.0,0.0,0.0,0.0,0.0,1770887247.765196,0.0
18.0,-16365.500255,-10387.615608,-353.582246,-22029.454652,5069.755622,4778.534744,-6483.615218,914.119293,4919.060161,-10139.354782,-6115.079655,2983.197925,589.14728,1434.28909,-25898.45221,-11685.380243,0.00475,-0.0095,1.00825,192.0,0.0,0.0,0.0,0.0,0.0,0.0,0.0,0.0,0.0,1770887247.765216,0.0
20.0,-16479.98589,-10499.419033,-443.59272,-22135.468976,4978.739319,4724.443522,-6578.856001,827.618042,4940.070801,-10061.928339,-6042.88352,3045.514589,655.576665,1493.945896,-25824.534991,-11621.454253,0.005375,-0.00675,1.009125,192.0,0.0,24.0,127.5,112.0,15.5,72.0,0.0,0.0,0.0,1770887247.765235,0.0
22.0,-16455.130751,-10475.100335,-426.918319,-22116.715862,4990.809261,4743.666022,-6559.275873,836.245815,4887.410091,-10207.147623,-6184.347711,2930.246643,525.869492,1370.47486,-25977.219758,-11750.535578,0.005375,-0.00675,1.009125,192.0,0.0,0.0,0.0,0.0,0.0,0.0,0.0,0.0,0.0,1770887247.765254,0.0
24.0,-16389.237808,-10403.597105,-367.708548,-22045.659667,5048.812038,4764.877828,-6505.43052,890.135871,4936.963908,-10050.260729,-6051.399535,3053.807086,662.192781,1481.205402,-25810.185171,-11608.691407,0.005375,-0.00675,1.009125,192.0,0.0,0.0,0.0,0.0,0.0,0.0,0.0,0.0,0.0,1770887247.765272,0.0
26.0,-16538.927441,-10553.376145,-487.960933,-22187.839113,4932.337097,4710.876013,-6624.498263,768.542381,4887.790071,-10169.887265,-6152.29531,2959.952111,565.208562,1420.810988,-25931.465737,-11702.792251,0.005375,-0.00675,1.009125,192.0,0.0,0.0,0.0,0.0,0.0,0.0,0.0,0.0,0.0,1770887247.765291,0.0
28.0,-16391.070651,-10405.564058,-364.266379,-22040.9658,5070.694395,4793.309247,-6499.574363,878.647075,4898.697722,-10147.356707,-6136.202054,2965.204771,581.301818,1420.498064,-25900.262702,-11676.551303,0.005375,-0.00675,1.009125,192.0,0.0,0.0,0.0,0.0,0.0,0.0,0.0,0.0,0.0,1770887247.76531,0.0
30.0,-16503.835202,-10519.312086,-457.070822,-22144.029694,4983.209668,4738.167493,-6596.491527,789.441262,4917.048504,-10078.312168,-6073.639521,3016.680839,648.245293,1489.542602,-25819.841125,-11600.331855,0.005687,-0.006375,1.010563,192.0,0.0,24.0,127.5,104.0,15.5,80.0,0.0,0.0,0.0,1770887247.765329,0.0
32.0,-16487.876056,-10504.358769,-442.966872,-22131.445662,5009.584726,4756.227703,-6576.978454,796.571469,4865.661843,-10228.739408,-6215.886023,2900.116491,519.320431,1371.279522,-25969.262537,-11730.173138,0.005687,-0.006375,1.010563,192.0,0.0,0.0,0.0,0.0,0.0,0.0,0.0,0.0,0.0,1770887247.765348,0.0
34.0,-16405.196953,-10426.105312,-373.162374,-22056.254394,5070.828506,4780.211124,-6515.309991,863.067909,4916.780283,-10072.008976,-6074.846515,3022.134664,649.452287,1492.671846,-25796.4612,-11597.671997,0.005687,-0.006375,1.010563,192.0,0.0,0.0,0.0,0.0,0.0,0.0,0.0,0.0,0.0,1770887247.765366,0.0
36.0,-16544.828301,-10565.35668,-486.552773,-22192.197703,4952.543074,4708.216156,-6632.097856,751.599759,4884.303198,-10180.727861,-6163.82881,2942.137771,573.322245,1406.930555,-25911.013891,-11697.047853,0.005687,-0.006375,1.010563,192.0,0.0,0.0,0.0,0.0,0.0,0.0,0.0,0.0,0.0,1770887247.765384,0.0
38.0,-16375.647947,-10397.226858,-352.732879,-22036.048417,5082.116137,4793.018674,-6497.048616,885.687874,4907.928992,-10151.447076,-6141.901748,2965.271826,591.784786,1425.616613,-25888.46098,-11684.441469,0.005687,-0.006375,1.010563,192.0,0.0,0.0,0.0,0.0,0.0,0.0,0.0,0.0,0.0,1770887247.765403,0.0
40.0,-16490.781783,-10500.849545,-439.077668,-22143.627363,4991.368054,4726.298717,-6585.807393,807.724989,4924.55869,-10065.236397,-6062.553056,3034.629289,657.744784,1490.101396,-25810.028709,-11616.134538,0.005844,-0.005188,1.006281,192.0,0.0,24.0,127.5,112.0,15.5,40.0,0.0,0.0,0.0,1770887247.765425,0.0
42.0,-16465.88194,-10479.123649,-428.259424,-22121.253266,5003.10272,4735.977022,-6565.109678,827.953318,4874.781355,-10216.133024,-6192.103766,2919.897785,542.342727,1371.950075,-25966.401513,-11747.674554,0.005844,-0.005188,1.006281,192.0,0.0,0.0,0.0,0.0,0.0,0.0,0.0,0.0,0.0,1770887247.765445,0.0
44.0,-16383.806334,-10402.367759,-367.909714,-22044.430321,5052.455372,4768.007072,-6502.524793,897.690761,4930.906586,-10052.719421,-6047.197407,3049.62731,654.928464,1495.15289,-25812.21918,-11613.005294,0.005844,-0.005188,1.006281,192.0,0.0,0.0,0.0,0.0,0.0,0.0,0.0,0.0,0.0,1770887247.765464,0.0
46.0,-16534.613554,-10546.692973,-488.631486,-22182.832322,4930.683068,4697.464966,-6620.072618,782.266352,4887.566553,-10169.037899,-6142.773466,2962.164934,562.638111,1417.145302,-25934.125594,-11708.02256,0.005844,-0.005188,1.006281,192.0,0.0,0.0,0.0,0.0,0.0,0.0,0.0,0.0,0.0,1770887247.765484,0.0
48.0,-16372.295186,-10384.218143,-362.589999,-22034.774367,5053.125924,4778.892372,-6490.790128,904.08336,4901.379931,-10139.645355,-6123.930946,2981.96858,571.981141,1424.141398,-25910.924484,-11690.387033,0.005844,-0.005188,1.006281,192.0,0.0,0.0,0.0,0.0,0.0,0.0,0.0,0.0,0.0,1770887247.765503,0.0
50.0,-16493.039309,-10502.816499,-451.52759,-22139.291124,4968.390461,4734.591214,-6585.561524,811.949469,4922.323516,-10067.940958,-6051.690108,3038.764362,647.172409,1491.107224,-25829.094747,-11612.066521,0.004922,-0.003594,1.002141,192.0,0.0,16.0,127.5,120.0,15.5,24.0,0.0,0.0,0.0,1770887247.765522,0.0
52.0,-16482.80221,-10496.04392,-441.648119,-22124.047235,4991.837441,4743.37545,-6574.251541,807.032085,4869.349881,-10221.162167,-6201.469147,2913.974573,524.237814,1371.704205,-25979.007897,-11735.738723,0.004922,-0.003594,1.002141,192.0,0.0,0.0,0.0,0.0,0.0,0.0,0.0,0.0,0.0,1770887247.765542,0.0
54.0,-16408.594419,-10427.893451,-381.119595,-22048.073655,5064.972349,4781.239305,-6520.048561,860.609217,4914.723923,-10068.209179,-6070.644387,3032.371763,651.843924,1491.777777,-25803.502,-11589.155983,0.004922,-0.003594,1.002141,192.0,0.0,0.0,0.0,0.0,0.0,0.0,0.0,0.0,0.0,1770887247.76556,0.0
56.0,-16551.824397,-10570.519933,-500.746131,-22193.851732,4953.459496,4727.013973,-6640.680926,743.128448,4869.171067,-10179.744384,-6170.087298,2941.422515,557.005472,1421.235671,-25918.211152,-11680.105231,0.004922,-0.003594,1.002141,192.0,0.0,0.0,0.0,0.0,0.0,0.0,0.0,0.0,0.0,1770887247.765579,0.0
58.0,-16396.837401,-10408.26862,-370.726034,-22044.139748,5083.479593,4797.444319,-6509.364427,865.481897,4895.300257,-10155.179817,-6149.300176,2957.873399,577.99376,1427.740029,-25889.667975,-11665.86717,0.004922,-0.003594,1.002141,192.0,0.0,0.0,0.0,0.0,0.0,0.0,0.0,0.0,0.0,1770887247.765598,0.0
60.0,-16501.711786,-10513.366522,-454.522723,-22143.359142,4986.294208,4743.978947,-6594.815146,787.161384,4913.785149,-10074.601778,-6076.500544,3022.447589,644.221979,1490.213155,-25813.046195,-11595.101547,0.004922,-0.003594,1.002141,192.0,0.0,0.0,0.0,0.0,0.0,0.0,0.0,0.0,0.0,1770887247.765617,0.0
62.0,-16480.701146,-10490.187763,-439.502351,-22129.568115,4988.663493,4753.098458,-6573.245713,803.053475,4867.986425,-10224.269059,-6212.197985,2905.883241,525.802437,1378.476784,-25974.850473,-11733.995287,0.002,-0.004,0.994,192.0,0.0,8.0,127.5,112.0,15.5,8.0,0.0,0.0,0.0,1770887247.765636,0.0
64.0,-16392.367052,-10407.463957,-366.635664,-22047.604269,5057.126887,4776.165459,-6501.675427,881.217525,4927.643231,-10059.648461,-6062.575407,3038.004403,661.119897,1497.678637,-25806.988872,-11605.472756,0.002,-0.004,0.994,192.0,0.0,0.0,0.0,0.0,0.0,0.0,0.0,0.0,0.0,1770887247.765654,0.0
66.0,-16542.190795,-10558.740563,-489.167927,-22193.337642,4926.033905,4698.470795,-6620.542004,765.211971,4883.610294,-10175.005814,-6154.485781,2954.967672,556.401975,1418.91109,-25930.504612,-11705.541516,0.002,-0.004,0.994,192.0,0.0,0.0,0.0,0.0,0.0,0.0,0.0,0.0,0.0,1770887247.765671,0.0
68.0,-16383.694575,-10401.205468,-362.99233,-22041.435187,5048.052078,4764.430793,-6489.359616,893.689799,4897.311914,-10157.839675,-6139.733629,2970.233914,578.351388,1414.708962,-25912.556161,-11700.937057,0.002,-0.004,0.994,192.0,0.0,0.0,0.0,0.0,0.0,0.0,0.0,0.0,0.0,1770887247.765689,0.0
70.0,-16483.383356,-10497.206211,-448.398346,-22139.067607,4963.786002,4718.833234,-6579.191277,820.085504,4923.418751,-10071.003147,-6055.735774,3042.944138,638.969319,1478.813765,-25836.582582,-11627.042189,0.002,-0.004,0.994,192.0,0.0,0.0,0.0,0.0,0.0,0.0,0.0,0.0,0.0,1770887247.765707,0.0
72.0,-16462.775047,-10480.062423,-437.513046,-22128.85286,4980.572162,4742.414325,-6566.048451,826.433399,4879.318759,-10216.423597,-6185.86763,2924.770465,525.288346,1389.250325,-25988.820313,-11752.010793,0.008,-0.006,0.992,192.0,0.0,32.0,127.5,104.0,15.5,0.0,0.0,0.0,0.0,1770887247.765726,0.0
74.0,-16390.265988,-10405.251134,-376.537487,-22043.558603,5042.665308,4775.718424,-6503.195346,887.923048,4935.44399,-10060.117848,-6050.170189,3047.794467,658.97413,1496.963381,-25820.019939,-11612.021817,0.008,-0.006,0.992,192.0,0.0,0.0,0.0,0.0,0.0,0.0,0.0,0.0,0.0,1770887248.244639,0.0
76.0,-16540.782635,-10554.113752,-496.454596,-22185.223959,4922.63644,4720.353153,-6623.55949,768.341216,4873.641416,-10167.093297,-6151.468295,2961.494382,554.412669,1415.290107,-25939.735882,-11697.383129,0.008,-0.006,0.992,192.0,0.0,0.0,0.0,0.0,0.0,0.0,0.0,0.0,0.0,1770887248.244706,0.0
78.0,-16393.484639,-10409.162689,-370.748385,-22040.496414,5047.470933,4805.937982,-6499.999046,881.686912,4893.020379,-10151.357669,-6142.661708,2972.156164,572.87521,1436.546616,-25913.383176,-11680.552266,0.008,-0.006,0.992,192.0,0.0,0.0,0.0,0.0,0.0,0.0,0.0,0.0,0.0,1770887248.244755,0.0
80.0,-16507.746757,-10517.903926,-454.813296,-22135.64779,4976.079461,4754.283101,-6589.361321,797.666704,4908.532489,-10072.791287,-6073.416003,3033.288185,634.096638,1499.332666,-25823.082128,-11599.393082,0.008,-0.006,0.992,192.0,0.0,0.0,0.0,0.0,0.0,0.0,0.0,0.0,0.0,1770887248.244803,0.0
82.0,-16489.686547,-10499.016702,-443.816238,-22123.399034,4991.971551,4758.596988,-6577.537248,798.069036,4853.413088,-10228.560594,-6212.935592,2911.560584,518.15814,1372.754737,-25974.04581,-11731.961278,0.004,-0.012,1.0,192.0,0.0,16.0,127.5,80.0,15.5,32.0,0.0,0.0,0.0,1770887248.244859,0.0
84.0,-16407.96857,-10421.165576,-370.949551,-22040.496414,5065.084108,4799.254811,-6511.621953,863.85022,4912.220527,-10067.06924,-6074.086556,3033.645813,649.161714,1508.943916,-25804.239607,-11594.386291,0.004,-0.012,1.0,192.0,0.0,0.0,0.0,0.0,0.0,0.0,0.0,0.0,0.0,1770887248.24491,0.0
86.0,-16556.317098,-10569.178828,-487.648009,-22183.167599,4945.457571,4728.13156,-6629.147426,748.179942,4872.590884,-10177.710376,-6166.354557,2949.893826,573.501059,1433.484427,-25913.606693,-11682.496867,0.004,-0.012,1.0,192.0,0.0,0.0,0.0,0.0,0.0,0.0,0.0,0.0,0.0,1770887248.244928,0.0
88.0,-16388.410793,-10409.386207,-367.932065,-22044.117396,5076.058814,4804.596878,-6503.88825,872.366234,4895.85905,-10155.805666,-6149.121362,2961.717899,591.650676,1431.204549,-25897.669899,-11676.730117,0.004,-0.012,1.0,192.0,0.0,0.0,0.0,0.0,0.0,0.0,0.0,0.0,0.0,1770887248.244945,0.0
90.0,-16493.888675,-10499.731958,-450.879389,-22136.184232,4975.408909,4741.475551,-6586.65676,804.193414,4913.941612,-10071.718403,-6066.688128,3032.438819,642.56795,1485.966323,-25820.265808,-11604.668093,0.004,-0.012,1.0,192.0,0.0,0.0,0.0,0.0,0.0,0.0,0.0,0.0,0.0,1770887248.244962,0.0
92.0,-16466.418382,-10483.862219,-442.452781,-22121.208563,4978.582856,4744.247168,-6572.06107,821.136036,4872.501477,-10216.33419,-6191.366159,2920.747151,527.367059,1389.362084,-25979.343173,-11735.179929,0.004,-0.01,0.998,192.0,0.0,16.0,127.5,88.0,15.5,24.0,0.0,0.0,0.0,1770887248.244985,0.0
94.0,-16381.794677,-10404.580582,-371.821269,-22043.111568,5047.336822,4779.249999,-6503.240049,888.638304,4937.522702,-10057.212121,-6047.108,3045.983976,663.288017,1501.836062,-25817.114212,-11604.846907,0.004,-0.01,0.998,192.0,0.0,0.0,0.0,0.0,0.0,0.0,0.0,0.0,0.0,1770887248.245005,0.0
96.0,-16549.902147,-10562.249787,-499.740303,-22184.59811,4920.33421,4703.365827,-6624.900594,765.100213,4875.898942,-10173.329434,-6144.829827,2956.666405,566.057928,1427.069476,-25932.158641,-11694.969141,0.004,-0.01,0.998,192.0,0.0,0.0,0.0,0.0,0.0,0.0,0.0,0.0,0.0,1770887248.245023,0.0
98.0,-16387.114392,-10405.318189,-375.911638,-22040.675228,5042.486494,4782.178078,-6496.780395,887.073682,4884.012626,-10152.385849,-6144.092219,2973.586675,572.428176,1429.125837,-25920.692196,-11690.945827,0.004,-0.01,0.998,192.0,0.0,0.0,0.0,0.0,0.0,0.0,0.0,0.0,0.0,1770887248.245041,0.0
100.0,-16501.443565,-10520.250859,-456.109697,-22141.638057,4954.934711,4727.908042,-6584.980379,804.327524,4899.547088,-10079.608569,-6065.414079,3035.992746,636.868255,1490.41432,-25831.396977,-11614.860489,0.004,-0.01,0.998,192.0,0.0,0.0,0.0,0.0,0.0,0.0,0.0,0.0,0.0,1770887248.245059,0.0
102.0,-16490.670024,-10512.338342,-449.784154,-22137.011246,4964.680071,4745.565921,-6577.425489,802.517033,4847.869855,-10242.686897,-6207.995857,2909.057189,515.632393,1375.079319,-25987.568615,-11745.774656,0.002,-0.012,1.004,192.0,0.0,8.0,127.5,80.0,15.5,48.0,0.0,0.0,0.0,1770887248.245077,0.0
104.0,-16406.56041,-10430.888585,-377.520964,-22050.621754,5043.872302,4782.803927,-6508.269192,873.841449,4908.845414,-10084.257732,-6067.157515,3024.682763,643.193798,1494.214117,-25821.338692,-11604.958666,0.002,-0.012,1.004,192.0,0.0,0.0,0.0,0.0,0.0,0.0,0.0,0.0,0.0,1770887248.245095,0.0
106.0,-16555.57949,-10581.673453,-494.889974,-22193.471753,4929.319612,4714.496996,-6630.890862,753.030271,4865.304216,-10192.596637,-6158.263225,2940.774314,559.955902,1412.138511,-25926.190725,-11692.39869,0.002,-0.012,1.004,192.0,0.0,0.0,0.0,0.0,0.0,0.0,0.0,0.0,0.0,1770887248.245114,0.0
108.0,-16400.458384,-10425.479463,-371.262475,-22050.152367,5050.667232,4798.204279,-6507.710398,868.231162,4886.560725,-10177.688024,-6148.607272,2947.099858,571.511754,1427.695325,-25907.057632,-11678.674719,0.002,-0.012,1.004,192.0,0.0,0.0,0.0,0.0,0.0,0.0,0.0,0.0,0.0,1770887248.245133,0.0
110.0,-16503.254056,-10528.856281,-448.979491,-22141.459243,4972.48083,4733.272461,-6593.675207,788.815414,4908.577193,-10092.192601,-6070.286759,3012.881042,649.161714,1493.856489,-25818.388262,-11599.706006,0.002,-0.012,1.004,192.0,0.0,0.0,0.0,0.0,0.0,0.0,0.0,0.0,0.0,1770887248.24515,0.0
112.0,-16495.430946,-10516.741635,-444.531494,-22140.319305,4986.718891,4746.884673,-6583.907495,791.318809,4866.555913,-10247.626632,-6207.325304,2891.712235,528.417591,1365.065737,-25974.470493,-11739.046781,0.006,-0.016,1.004,192.0,0.0,24.0,127.5,64.0,15.5,48.0,0.0,0.0,0.0,1770887248.245169,0.0
114.0,-16401.598323,-10420.718541,-375.151679,-22050.532347,5047.336822,4776.634845,-6510.705532,870.220467,4913.762798,-10083.274255,-6071.113774,3017.798426,652.760345,1500.450254,-25813.046195,-11607.015026,0.006,-0.016,1.004,192.0,0.0,0.0,0.0,0.0,0.0,0.0,0.0,0.0,0.0,1770887248.245191,0.0
116.0,-16546.079999,-10565.35668,-498.578012,-22191.996538,4923.217585,4701.73415,-6627.873376,758.819373,4865.572437,-10182.38189,-6157.950301,2946.809285,559.039481,1425.035468,-25930.705777,-11695.170307,0.006,-0.016,1.004,192.0,0.0,0.0,0.0,0.0,0.0,0.0,0.0,0.0,0.0,1770887248.245209,0.0
118.0,-16390.66832,-10410.660256,-374.235257,-22048.118359,5040.452485,4774.600837,-6502.591849,881.798671,4881.88921,-10174.067041,-6147.400278,2956.152315,574.216315,1426.354221,-25919.127574,-11697.807812,0.006,-0.016,1.004,192.0,0.0,0.0,0.0,0.0,0.0,0.0,0.0,0.0,0.0,1770887248.245226,0.0
120.0,-16484.366832,-10503.844679,-456.646139,-22135.379569,4954.264159,4729.092685,-6584.600399,812.642373,4914.679219,-10076.524028,-6059.088535,3033.914034,648.781735,1500.517309,-25832.134584,-11613.295867,0.006,-0.016,1.004,192.0,0.0,0.0,0.0,0.0,0.0,0.0,0.0,0.0,0.0,1770887248.245245,0.0
122.0,-16483.18219,-10496.55801,-456.512029,-22134.351389,4964.836534,4749.835104,-6578.2078,810.228385,4861.191495,-10225.140777,-6198.719883,2916.053285,505.462349,1385.584639,-25997.246921,-11749.373287,0.004,-0.012,1.002,192.0,0.0,16.0,127.5,80.0,15.5,40.0,0.0,0.0,0.0,1770887248.245263,0.0
124.0,-16398.245561,-10416.896393,-378.437385,-22048.38658,5036.54093,4782.491002,-6510.057331,878.244743,4915.103902,-10076.144049,-6062.754221,3030.673031,643.819647,1490.682541,-25829.407672,-11613.429977,0.004,-0.012,1.002,192.0,0.0,0.0,0.0,0.0,0.0,0.0,0.0,0.0,0.0,1770887248.245282,0.0
126.0,-16544.984763,-10563.926168,-498.220384,-22190.767192,4920.624783,4714.29583,-6635.249452,755.265445,4876.77066,-10179.118535,-6147.936719,2949.469143,562.191077,1429.03643,-25933.611504,-11691.728138,0.004,-0.012,1.002,192.0,0.0,0.0,0.0,0.0,0.0,0.0,0.0,0.0,0.0,1770887248.245301,0.0
128.0,-16389.126049,-10412.604858,-373.49765,-22046.263164,5047.090953,4789.844726,-6511.241974,873.059138,4894.294428,-10167.585035,-6141.119437,2952.643091,584.431062,1443.207436,-25918.926408,-11688.107155,0.004,-0.012,1.002,192.0,0.0,0.0,0.0,0.0,0.0,0.0,0.0,0.0,0.0,1770887248.245319,0.0
130.0,-16493.82162,-10517.18867,-452.801639,-22139.849918,4966.669377,4738.413362,-6593.719911,795.677399,4910.566498,-10079.586217,-6060.183771,3017.418446,650.055784,1506.842852,-25822.679797,-11605.360997,0.004,-0.012,1.002,192.0,0.0,0.0,0.0,0.0,0.0,0.0,0.0,0.0,0.0,1770887248.245338,0.0
132.0,-16483.763335,-10509.477318,-447.996014,-22140.52047,4976.101813,4753.232569,-6585.76269,796.951449,4858.129306,-10237.367181,-6201.647961,2895.824956,531.837408,1384.712921,-25980.32665,-11741.237252,0.003,-0.011,1.002,192.0,0.0,8.0,127.5,88.0,15.5,40.0,0.0,0.0,0.0,1770887248.245357,0.0
134.0,-16397.195029,-10420.003285,-372.178897,-22050.82292,5051.382488,4786.894296,-6516.516985,867.381795,4920.915356,-10080.480287,-6065.481134,3018.513682,654.503781,1508.385123,-25813.24736,-11604.064596,0.003,-0.011,1.002,192.0,0.0,0.0,0.0,0.0,0.0,0.0,0.0,0.0,0.0,1770887248.245376,0.0
136.0,-16547.398752,-10569.089421,-500.47791,-22195.975148,4934.885196,4730.590252,-6645.263034,740.870922,4879.58698,-10181.890152,-6159.872551,2941.757791,573.858687,1424.744895,-25922.994426,-11687.3919,0.003,-0.011,1.002,192.0,0.0,0.0,0.0,0.0,0.0,0.0,0.0,0.0,0.0,1770887248.245394,0.0
138.0,-16397.060918,-10421.031466,-372.156545,-22046.21846,5056.746907,4788.213049,-6513.611259,865.638359,4885.241972,-10171.585998,-6161.236007,2945.535236,579.848955,1422.912052,-25913.338472,-11685.268484,0.003,-0.011,1.002,192.0,0.0,0.0,0.0,0.0,0.0,0.0,0.0,0.0,0.0,1770887248.245412,0.0
140.0,-16489.440678,-10513.254763,-448.465401,-22147.650677,4977.197048,4740.581482,-6593.742263,798.225498,4919.529548,-10082.894276,-6062.396593,3021.151188,667.266627,1506.619335,-25817.315378,-11608.244372,0.003,-0.011,1.002,192.0,0.0,0.0,0.0,0.0,0.0,0.0,0.0,0.0,0.0,1770887248.245431,0.0
142.0,-16484.21037,-10509.656132,-450.25354,-22147.628325,4986.31656,4743.420153,-6588.556658,797.510242,4866.064175,-10241.681068,-6199.144566,2897.590744,534.117286,1367.189153,-25979.097304,-11746.199339,0.0025,-0.0115,1.002,192.0,0.0,8.0,127.5,80.0,15.5,40.0,0.0,0.0,0.0,1770887248.24545,0.0
144.0,-16386.890875,-10414.728274,-374.659941,-22052.901632,5048.141485,4781.328712,-6512.404264,874.288484,4923.642269,-10078.625092,-6060.340233,3024.12397,655.241389,1510.083855,-25820.042291,-11613.966419,0.0025,-0.0115,1.002,192.0,0.0,0.0,0.0,0.0,0.0,0.0,0.0,0.0,0.0,1770887248.245469,0.0
146.0,-16539.150958,-10568.888255,-497.996866,-22203.060651,4921.74237,4709.669019,-6635.405914,754.885465,4879.050538,-10181.040785,-6146.595615,2944.887035,578.194926,1424.834302,-25930.10228,-11700.020635,0.0025,-0.0115,1.002,192.0,0.0,0.0,0.0,0.0,0.0,0.0,0.0,0.0,0.0,1770887248.24549,0.0
148.0,-16384.633349,-10418.751588,-376.515135,-22053.147501,5041.681831,4774.042043,-6510.616125,875.987217,4892.126309,-10176.771602,-6143.71224,2950.094992,589.594315,1419.224014,-25923.284998,-11702.076996,0.0025,-0.0115,1.002,192.0,0.0,0.0,0.0,0.0,0.0,0.0,0.0,0.0,0.0,1770887248.245509,0.0
150.0,-16479.896483,-10510.01376,-453.785116,-22143.001514,4966.57997,4726.388124,-6594.725739,803.63462,4915.774455,-10081.441412,-6056.428678,3026.403848,647.217112,1500.003219,-25832.939247,-11615.754559,0.0025,-0.0115,1.002,192.0,0.0,0.0,0.0,0.0,0.0,0.0,0.0,0.0,0.0,1770887248.245529,0.0
152.0,-16487.451373,-10517.658057,-448.890084,-22146.846014,4975.610074,4732.043115,-6590.478908,793.755149,4868.031128,-10235.064952,-6193.310761,2900.585878,538.162951,1381.941304,-25984.148798,-11750.155598,0.00225,-0.00875,1.001,192.0,0.0,8.0,127.5,104.0,15.5,32.0,0.0,0.0,0.0,1770887248.245559,0.0
154.0,-16404.794622,-10433.570794,-372.60358,-22060.121245,5042.061811,4771.918627,-6518.841567,860.788031,4916.802635,-10094.405424,-6067.381032,3007.963658,654.10145,1492.493033,-25821.763375,-11614.033474,0.00225,-0.00875,1.001,192.0,0.0,0.0,0.0,0.0,0.0,0.0,0.0,0.0,0.0,1770887248.245578,0.0
156.0,-16566.844769,-10589.876543,-500.679076,-22211.621369,4925.430408,4712.865318,-6642.424362,735.193579,4863.001986,-10196.195268,-6164.074679,2925.262204,563.12985,1419.112255,-25923.486164,-11693.918609,0.00225,-0.00875,1.001,192.0,0.0,0.0,0.0,0.0,0.0,0.0,0.0,0.0,0.0,1770887248.245596,0.0
158.0,-16406.247485,-10430.262736,-381.834851,-22060.56828,5046.934491,4785.486136,-6518.774512,856.608255,4873.68612,-10184.952341,-6164.164086,2932.101838,575.915048,1418.128779,-25916.400661,-11692.622208,0.00225,-0.00875,1.001,192.0,0.0,0.0,0.0,0.0,0.0,0.0,0.0,0.0,0.0,1770887248.245615,0.0
160.0,-16499.58837,-10516.719284,-457.003767,-22140.542822,4976.928827,4742.928415,-6595.865678,792.23523,4894.115614,-10084.972988,-6077.484021,3014.222147,648.08883,1497.164547,-25822.255113,-11601.717663,0.00225,-0.00875,1.001,192.0,0.0,0.0,0.0,0.0,0.0,0.0,0.0,0.0,0.0,1770887248.245633,0.0
162.0,-16497.241437,-10510.304333,-459.976549,-22142.085092,4976.772365,4762.441488,-6593.183469,789.687132,4849.166256,-10232.673315,-6211.348618,2896.182584,518.716934,1389.071511,-25983.433543,-11729.949621,0.002125,-0.008375,0.9995,192.0,0.0,8.0,127.5,96.0,15.5,24.0,0.0,0.0,0.0,1770887248.245651,0.0
164.0,-16395.02691,-10410.995532,-380.471394,-22044.475024,5041.79359,4791.834032,-6515.578212,872.813269,4905.738521,-10069.818505,-6073.930094,3023.207548,649.385232,1521.5503,-25824.736157,-11598.186087,0.002125,-0.008375,0.9995,192.0,0.0,0.0,0.0,0.0,0.0,0.0,0.0,0.0,0.0,1770887248.24567,0.0
166.0,-16542.190795,-10553.331441,-506.781102,-22192.644738,4916.310896,4720.241394,-6637.954013,757.679434,4872.92616,-10162.198265,-6149.6131,2952.37487,563.062795,1451.343471,-25934.036187,-11686.184905,0.002125,-0.008375,0.9995,192.0,0.0,0.0,0.0,0.0,0.0,0.0,0.0,0.0,0.0,1770887248.245689,0.0
168.0,-16381.459401,-10403.261829,-378.079757,-22056.72378,5041.078334,4779.607627,-6513.343038,879.161165,4892.506289,-10155.336279,-6144.002812,2954.878265,570.729443,1442.849808,-25930.772833,-11698.791289,0.002125,-0.008375,0.9995,192.0,0.0,0.0,0.0,0.0,0.0,0.0,0.0,0.0,0.0,1770887248.245708,0.0
170.0,-16481.058774,-10506.415129,-450.924093,-22147.650677,4969.329234,4718.65442,-6592.55762,807.590879,4925.318649,-10070.578464,-6048.985547,3026.023868,662.930389,1512.430789,-25827.418366,-11619.643762,0.002125,-0.008375,0.9995,192.0,0.0,0.0,0.0,0.0,0.0,0.0,0.0,0.0,0.0,1770887248.245728,0.0
172.0,-16481.103478,-10508.046807,-452.131087,-22149.774092,4973.330197,4718.386199,-6590.63537,801.868832,4874.356672,-10234.617917,-6190.6062,2899.870622,542.052155,1372.15124,-25985.378144,-11753.217787,0.003063,-0.007188,1.00175,192.0,0.0,16.0,127.5,104.0,15.5,48.0,0.0,0.0,0.0,1770887248.245748,0.0
174.0,-16390.556561,-10412.046064,-377.923295,-22056.58967,5048.700279,4766.084822,-6517.187538,873.930856,4920.535376,-10082.894276,-6061.100192,3017.172577,665.031453,1498.192727,-25823.439756,-11618.548527,0.003063,-0.007188,1.00175,192.0,0.0,0.0,0.0,0.0,0.0,0.0,0.0,0.0,0.0,1770887248.245767,0.0
176.0,-16553.299612,-10564.037927,-500.410855,-22205.921674,4926.905623,4699.498975,-6640.055077,749.766916,4872.27796,-10181.152544,-6152.898807,2939.477913,576.429138,1418.642869,-25926.50365,-11692.711615,0.003063,-0.007188,1.00175,192.0,0.0,0.0,0.0,0.0,0.0,0.0,0.0,0.0,0.0,1770887248.245785,0.0
178.0,-16396.144497,-10418.885698,-378.37033,-22058.310754,5044.296985,4757.814677,-6518.416884,864.923103,4884.593771,-10178.380928,-6156.855065,2939.969652,582.128833,1421.615651,-25920.602789,-11700.199449,0.003063,-0.007188,1.00175,192.0,0.0,0.0,0.0,0.0,0.0,0.0,0.0,0.0,0.0,1770887248.245806,0.0
180.0,-16489.619492,-10517.859223,-455.729718,-22148.656505,4967.563446,4718.967345,-6599.665475,793.866908,4914.522757,-10082.000206,-6067.112811,3015.004458,662.483354,1515.381219,-25824.669102,-11611.150099,0.003063,-0.007188,1.00175,192.0,0.0,0.0,0.0,0.0,0.0,0.0,0.0,0.0,0.0,1770887248.245823,0.0
182.0,-16489.306568,-10515.065255,-462.345834,-22152.143377,4973.777231,4735.328822,-6599.307847,786.200259,4864.320739,-10238.954155,-6209.001685,2886.90661,545.002585,1383.282409,-25987.233339,-11747.74161,0.000531,-0.007594,1.005875,192.0,127.5,120.0,127.5,96.0,15.5,72.0,0.0,0.0,0.0,1770887248.245841,0.0
184.0,-16386.376785,-10414.616515,-384.874688,-22051.895803,5054.467029,4783.116851,-6519.735637,865.481897,4916.199138,-10075.071165,-6072.879562,3012.188138,648.289996,1504.138291,-25826.166669,-11605.584515,0.000531,-0.007594,1.005875,192.0,0.0,0.0,0.0,0.0,0.0,0.0,0.0,0.0,0.0,1770887248.245859,0.0
186.0,-16540.380304,-10556.840665,-508.010448,-22198.724413,4925.564519,4709.199632,-6643.318432,751.35389,4878.5588,-10168.389698,-6151.423592,2943.076544,583.693455,1441.016965,-25930.258743,-11686.520181,0.000531,-0.007594,1.005875,192.0,0.0,0.0,0.0,0.0,0.0,0.0,0.0,0.0,0.0,1770887248.245878,0.0
188.0,-16392.657625,-10414.661218,-386.528717,-22056.522615,5043.760543,4781.44047,-6519.087436,871.606275,4891.634571,-10165.796896,-6149.791914,2948.105687,585.548649,1438.066535,-25931.622199,-11695.483231,0.000531,-0.007594,1.005875,192.0,0.0,0.0,0.0,0.0,0.0,0.0,0.0,0.0,0.0,1770887248.245898,0.0
190.0,-16489.284216,-10510.706664,-459.417756,-22144.74495,4969.820973,4725.18113,-6596.066844,800.617135,4909.448911,-10070.846685,-6064.609416,3023.855749,650.525171,1516.990544,-25831.553439,-11608.512593,0.000531,-0.007594,1.005875,192.0,0.0,0.0,0.0,0.0,0.0,0.0,0.0,0.0,0.0,1770887248.245917,0.0
192.0,-16492.167591,-10515.467586,-456.847305,-22153.372723,4959.427411,4716.553356,-6595.262181,793.084597,4861.191495,-10238.238899,-6206.475938,2896.026122,538.989966,1384.623514,-25991.927206,-11751.58611,-0.000734,-0.007797,1.008938,192.0,127.5,120.0,127.5,96.0,15.5,80.0,0.0,0.0,0.0,1770887248.245938,0.0
194.0,-16392.881142,-10419.712713,-373.385891,-22061.060019,5037.010316,4753.657252,-6513.655962,876.568362,4922.725847,-10083.386014,-6068.006881,3014.535071,656.135458,1500.494957,-25834.816794,-11629.679695,-0.000734,-0.007797,1.008938,192.0,0.0,0.0,0.0,0.0,0.0,0.0,0.0,0.0,0.0,1770887248.726336,0.0
196.0,-16545.632964,-10574.520895,-499.315619,-22209.497954,4913.91926,4676.811955,-6639.608042,751.778573,4882.559762,-10183.812402,-6148.651975,2938.561492,577.122042,1433.573834,-25932.739786,-11713.677551,-0.000734,-0.007797,1.008938,192.0,0.0,0.0,0.0,0.0,0.0,0.0,0.0,0.0,0.0,1770887248.726406,0.0
198.0,-16394.088136,-10422.976067,-380.381987,-22067.050286,5029.656593,4753.143162,-6516.137006,870.980426,4892.52864,-10185.019396,-6155.201036,2933.957032,577.949056,1422.017982,-25932.091586,-11716.806795,-0.000734,-0.007797,1.008938,192.0,0.0,0.0,0.0,0.0,0.0,0.0,0.0,0.0,0.0,1770887248.72646,0.0
200.0,-16481.997547,-10513.657095,-457.42845,-22150.668162,4961.282606,4710.96542,-6591.350626,803.902841,4915.662696,-10085.867058,-6064.072974,3016.345562,648.84879,1497.946858,-25834.615628,-11624.315277,-0.000734,-0.007797,1.008938,192.0,0.0,0.0,0.0,0.0,0.0,0.0,0.0,0.0,0.0,1770887248.72651,0.0
202.0,-16495.207428,-10522.284868,-469.945427,-22153.171558,4950.889045,4709.154929,-6594.837498,791.609382,4857.749326,-10244.787961,-6211.505081,2895.020294,524.30487,1375.615761,-26001.314938,-11757.308156,-0.000734,-0.007797,1.008938,192.0,0.0,0.0,0.0,0.0,0.0,0.0,0.0,0.0,0.0,1770887248.726554,0.0
204.0,-16400.994825,-10421.702018,-389.836775,-22058.13194,5031.42238,4762.530895,-6515.533509,871.472165,4916.534414,-10084.481249,-6078.422794,3015.920879,646.568912,1505.501748,-25841.477614,-11620.314314,0.002,-0.012,1.004,192.0,0.0,8.0,127.5,80.0,15.5,48.0,0.0,0.0,0.0,1770887248.726603,0.0
206.0,-16556.652374,-10574.118563,-515.252413,-22210.749651,4907.370199,4692.927562,-6644.257205,743.28491,4875.675425,-10179.543219,-6158.374984,2938.382678,567.063757,1439.273529,-25941.613429,-11694.745623,0.002,-0.012,1.004,192.0,0.0,0.0,0.0,0.0,0.0,0.0,0.0,0.0,0.0,1770887248.726633,0.0
208.0,-16406.04632,-10433.593146,-390.619086,-22070.581862,5028.695468,4768.901142,-6522.708419,855.513019,4890.338169,-10189.489745,-6164.745231,2927.51973,574.752757,1414.641907,-25942.39574,-11704.580391,0.002,-0.012,1.004,192.0,0.0,0.0,0.0,0.0,0.0,0.0,0.0,0.0,0.0,1770887248.726647,0.0
210.0,-16501.242399,-10528.141025,-462.770517,-22156.323154,4959.829743,4726.566938,-6598.145556,787.764882,4911.169995,-10087.94577,-6071.806678,3007.807196,645.272511,1504.942954,-25834.347407,-11609.808995,0.002,-0.012,1.004,192.0,0.0,0.0,0.0,0.0,0.0,0.0,0.0,0.0,0.0,1770887248.726671,0.0
212.0,-16512.01594,-10531.91847,-471.241828,-22165.397962,4953.750068,4715.592231,-6601.051283,777.103099,4853.010756,-10251.717001,-6221.853938,2876.803622,509.776236,1388.691531,-26000.711441,-11745.215862,0.002,-0.012,1.004,192.0,0.0,0.0,0.0,0.0,0.0,0.0,0.0,0.0,0.0,1770887248.726684,0.0
214.0,-16405.465174,-10437.459998,-381.499574,-22063.89869,5025.119188,4754.573674,-6517.634573,867.851182,4911.371161,-10102.519107,-6081.797908,2997.972429,645.384269,1496.136367,-25843.086939,-11621.498957,0.002,-0.012,1.004,192.0,0.0,0.0,127.5,56.0,15.5,56.0,0.0,0.0,0.0,1770887248.726698,0.0
216.0,-16554.193682,-10586.702596,-502.422512,-22212.940122,4901.916373,4689.105414,-6641.463237,753.432602,4875.027224,-10190.696739,-6149.948376,2932.39241,574.238667,1421.079209,-25935.60081,-11702.076996,0.002,-0.012,1.004,192.0,0.0,0.0,0.0,0.0,0.0,0.0,0.0,0.0,0.0,1770887248.726712,0.0
218.0,-16395.496296,-10427.602879,-380.15847,-22072.526464,5025.901499,4756.406517,-6519.959154,872.366234,4891.902791,-10187.50044,-6153.390545,2934.269957,573.63517,1425.057819,-25939.758234,-11718.818452,0.002,-0.012,1.004,192.0,0.0,0.0,0.0,0.0,0.0,0.0,0.0,0.0,0.0,1770887248.72673,0.0
220.0,-16470.329937,-10503.375292,-447.750145,-22149.215299,4963.428374,4721.515444,-6591.752957,814.184644,4927.732638,-10078.245113,-6054.305262,3020.324173,661.432822,1514.75537,-25830.458204,-11624.22587,0.002,-0.012,1.004,192.0,0.0,0.0,0.0,0.0,0.0,0.0,0.0,0.0,0.0,1770887248.726749,0.0
222.0,-16476.253149,-10507.57742,-460.714157,-22159.385343,4953.660661,4721.247223,-6597.475004,802.628792,4883.923219,-10233.030943,-6194.003665,2899.512994,541.448658,1392.044293,-25992.798924,-11762.337299,0.002,-0.012,1.004,192.0,0.0,0.0,0.0,0.0,0.0,0.0,0.0,0.0,0.0,1770887248.726767,0.0
224.0,-16382.107601,-10409.028579,-377.945647,-22063.205786,5044.185226,4760.29572,-6516.82991,883.07272,4934.728734,-10076.859305,-6064.028271,3018.379571,655.487258,1503.713608,-25838.86246,-11634.887652,-0.006,-0.014,1.006,192.0,127.5,104.0,127.5,72.0,15.5,56.0,0.0,0.0,0.0,1770887248.726787,0.0
226.0,-16546.012944,-10570.586988,-510.960878,-22209.028567,4917.607298,4693.732225,-6644.391316,756.383032,4889.041768,-10173.329434,-6145.63449,2943.747097,580.363045,1431.897453,-25928.582362,-11699.238324,-0.006,-0.014,1.006,192.0,0.0,0.0,0.0,0.0,0.0,0.0,0.0,0.0,0.0,1770887248.726804,0.0
228.0,-16398.960817,-10425.658277,-392.474281,-22069.598385,5031.981174,4765.92836,-6523.356619,870.846316,4893.467414,-10181.845448,-6159.626682,2939.343803,578.664312,1435.227863,-25935.287885,-11708.380188,-0.006,-0.014,1.006,192.0,0.0,0.0,0.0,0.0,0.0,0.0,0.0,0.0,0.0,1770887248.726823,0.0
230.0,-16491.117059,-10513.679446,-466.369148,-22146.957773,4952.163095,4722.521272,-6596.290361,804.059303,4914.880385,-10080.077956,-6069.90678,3018.223109,659.48822,1512.117864,-25835.174422,-11614.413454,-0.006,-0.014,1.006,192.0,0.0,0.0,0.0,0.0,0.0,0.0,0.0,0.0,0.0,1770887248.726842,0.0
232.0,-16498.381376,-10525.011781,-476.919171,-22157.194872,4947.782153,4728.310374,-6603.644085,788.055454,4849.814457,-10237.009554,-6219.641116,2890.23702,522.784951,1397.229898,-26003.281892,-11744.590014,-0.006,-0.014,1.006,192.0,0.0,0.0,0.0,0.0,0.0,0.0,0.0,0.0,0.0,1770887248.726856,0.0
234.0,-16387.494372,-10420.115044,-384.450005,-22054.28744,5034.283404,4782.535706,-6517.701628,876.546011,4920.58008,-10082.760165,-6078.847477,3011.472882,647.95472,1513.704838,-25840.40473,-11610.971285,0.002,-0.01,1.01,192.0,0.0,8.0,127.5,88.0,15.5,72.0,0.0,0.0,0.0,1770887248.726869,0.0
236.0,-16551.779694,-10583.819221,-512.39139,-22210.302616,4915.84151,4707.590307,-6648.012298,743.217855,4875.854239,-10180.437288,-6155.24574,2934.337012,580.005417,1432.456247,-25934.460871,-11681.267522,0.002,-0.01,1.01,192.0,0.0,0.0,0.0,0.0,0.0,0.0,0.0,0.0,0.0,1770887248.726889,0.0
238.0,-16408.639122,-10438.398771,-389.188574,-22067.072638,5034.305755,4767.135354,-6525.435332,853.9931,4881.241009,-10192.50723,-6168.522676,2923.004678,574.14926,1436.390154,-25935.332589,-11690.789365,0.002,-0.01,1.01,192.0,0.0,0.0,0.0,0.0,0.0,0.0,0.0,0.0,0.0,1770887248.726907,0.0
240.0,-16497.867286,-10521.569612,-453.44984,-22148.276526,4969.329234,4724.644688,-6595.642161,795.94562,4907.593716,-10084.593008,-6071.270236,3008.164824,664.629121,1510.642649,-25827.150145,-11604.891611,0.002,-0.01,1.01,192.0,0.0,0.0,0.0,0.0,0.0,0.0,0.0,0.0,0.0,1770887248.726927,0.0
242.0,-16499.96835,-10529.459778,-462.68111,-22169.197758,4974.313673,4731.305508,-6602.392388,784.143899,4865.192457,-10246.374934,-6210.499252,2882.145689,538.386469,1379.795537,-25982.606528,-11747.406333,0.002,-0.01,1.01,192.0,0.0,0.0,0.0,0.0,0.0,0.0,0.0,0.0,0.0,1770887248.726949,0.0
244.0,-16392.188238,-10419.824471,-381.164298,-22062.892862,5047.336822,4766.017767,-6518.193366,871.561572,4920.893004,-10089.510392,-6076.18762,3005.460263,660.89638,1507.379294,-25827.127794,-11620.113149,0.004,-0.01,1.01,192.0,0.0,16.0,127.5,88.0,15.5,72.0,0.0,0.0,0.0,1770887248.726969,0.0
246.0,-16540.894394,-10570.586988,-510.536195,-22207.955683,4930.548958,4703.14231,-6642.714935,751.622111,4881.196306,-10171.898922,-6151.848275,2940.640204,590.644847,1444.325023,-25923.620274,-11696.511411,0.004,-0.01,1.01,192.0,0.0,0.0,0.0,0.0,0.0,0.0,0.0,0.0,0.0,1770887248.726989,0.0
248.0,-16392.076479,-10421.366742,-389.613258,-22073.778161,5040.743058,4773.080918,-6522.484901,867.448851,4888.974713,-10178.850314,-6165.348728,2932.63828,583.402882,1422.129741,-25935.421996,-11707.866097,0.004,-0.01,1.01,192.0,0.0,0.0,0.0,0.0,0.0,0.0,0.0,0.0,0.0,1770887248.727009,0.0
250.0,-16477.773068,-10504.559935,-456.377918,-22140.654581,4967.518743,4720.040228,-6591.641199,810.80953,4923.128178,-10070.332595,-6062.396593,3020.905318,669.658264,1529.015783,-25826.412538,-11610.90423,0.004,-0.01,1.01,192.0,0.0,0.0,0.0,0.0,0.0,0.0,0.0,0.0,0.0,1770887248.727027,0.0
252.0,-16493.218123,-10520.273211,-468.023177,-22160.949965,4955.717022,4725.538758,-6600.648952,797.890222,4869.394585,-10236.45076,-6203.883136,2896.361398,535.413687,1393.385398,-25996.375203,-11750.133246,0.004,-0.01,1.01,192.0,0.0,0.0,0.0,0.0,0.0,0.0,0.0,0.0,0.0,1770887248.727047,0.0
254.0,-16389.997767,-10417.36578,-380.650208,-22060.94826,5038.709049,4774.243209,-6516.204061,881.798671,4922.211757,-10086.649369,-6070.689091,3010.847033,656.828363,1506.55228,-25836.761396,-11617.162718,0.004,-0.01,1.01,192.0,0.0,0.0,127.5,72.0,15.5,64.0,0.0,0.0,0.0,1770887248.727067,0.0
0.0,-16553.299612,-10575.61613,-508.569242,-22209.475602,4911.23705,4700.4601,-6644.301909,752.449125,4879.408166,-10175.117573,-6150.395411,2940.215521,582.285295,1448.214227,-25929.275266,-11681.669853,0.004,-0.01,1.01,192.0,0.0,0.0,0.0,0.0,0.0,0.0,0.0,0.0,0.0,1770887248.727087,0.0
2.0,-16407.275666,-10430.799178,-391.82608,-22071.386525,5025.812093,4769.77286,-6526.396457,858.776374,4876.904771,-10189.065062,-6170.780202,2926.938585,572.36112,1420.922747,-25937.120728,-11694.83503,0.004,-0.01,1.01,192.0,0.0,0.0,0.0,0.0,0.0,0.0,0.0,0.0,0.0,1770887248.727107,0.0
4.0,-16494.782745,-10515.445234,-459.149535,-22146.220165,4953.861827,4727.997449,-6594.99396,794.380998,4902.162242,-10083.162496,-6079.875658,3011.249365,649.988729,1517.437579,-25829.742948,-11600.868297,0.004,-0.01,1.01,192.0,0.0,0.0,0.0,0.0,0.0,0.0,0.0,0.0,0.0,1770887248.727127,0.0
6.0,-16512.373568,-10538.981621,-476.561544,-22169.376572,4946.731621,4725.047019,-6605.342818,773.504469,4845.925253,-10244.497388,-6223.396209,2881.944523,527.881149,1381.941304,-25996.486961,-11738.666801,0.004,-0.01,1.01,192.0,0.0,0.0,0.0,0.0,0.0,0.0,0.0,0.0,0.0,1770887248.727147,0.0
8.0,-16398.11145,-10421.925535,-384.539412,-22059.16012,5032.249395,4767.157706,-6517.366352,868.432327,4900.061178,-10095.835936,-6093.510222,2995.334923,636.778848,1506.619335,-25838.326018,-11616.179242,-0.004,-0.018,1.006,192.0,127.5,112.0,127.5,56.0,15.5,56.0,0.0,0.0,0.0,1770887248.727168,0.0
10.0,-16560.966261,-10587.239037,-509.95505,-22213.878896,4914.410998,4688.501917,-6643.407839,746.570617,4865.795954,-10178.112707,-6155.715126,2935.812227,581.882963,1441.396945,-25929.699949,-11687.414251,-0.004,-0.018,1.006,192.0,0.0,0.0,0.0,0.0,0.0,0.0,0.0,0.0,0.0,1770887248.727188,0.0
12.0,-16402.984131,-10431.357972,-387.020455,-22074.605176,5032.674078,4767.403575,-6521.859052,867.582961,4873.864934,-10204.621876,-6172.009548,2920.814207,578.619609,1428.65645,-25939.937048,-11708.737815,-0.004,-0.018,1.006,192.0,0.0,0.0,0.0,0.0,0.0,0.0,0.0,0.0,0.0,1770887248.727226,0.0
14.0,-16477.013108,-10505.968095,-447.593683,-22141.660409,4966.781135,4727.036324,-6586.634408,816.777446,4916.065027,-10077.865133,-6063.603588,3020.882967,665.63495,1535.833065,-25824.870267,-11608.199669,-0.004,-0.018,1.006,192.0,0.0,0.0,0.0,0.0,0.0,0.0,0.0,0.0,0.0,1770887248.727248,0.0
16.0,-16491.161763,-10525.861147,-465.788003,-22165.219148,4955.024118,4713.379409,-6600.134861,796.213841,4866.533562,-10240.898757,-6204.19606,2892.852174,538.028841,1398.883927,-25990.273176,-11748.233348,-0.004,-0.018,1.006,192.0,0.0,0.0,0.0,0.0,0.0,0.0,0.0,0.0,0.0,1770887248.727268,0.0
18.0,-16386.108564,-10424.205413,-372.98356,-22063.25049,5037.233834,4755.04306,-6510.482014,886.514889,4920.870652,-10103.971971,-6075.271198,3003.470958,655.710775,1502.417207,-25835.599105,-11625.365809,-0.003,-0.016,1.005,192.0,127.5,120.0,127.5,72.0,15.5,48.0,0.0,0.0,0.0,1770887248.727295,0.0
20.0,-16551.891452,-10588.066052,-507.51871,-22212.336625,4899.658847,4681.304655,-6643.29608,754.885465,4884.236143,-10191.009663,-6147.132057,2938.963823,590.622495,1430.712811,-25926.101318,-11690.208219,-0.003,-0.016,1.005,192.0,0.0,0.0,0.0,0.0,0.0,0.0,0.0,0.0,0.0,1770887248.727316,0.0
22.0,-16414.048244,-10443.942004,-394.441234,-22077.041516,5022.012296,4752.562017,-6526.619974,859.737499,4879.363463,-10212.534393,-6176.077566,2916.276803,578.016112,1425.393096,-25942.194574,-11711.084749,-0.003,-0.016,1.005,192.0,0.0,0.0,0.0,0.0,0.0,0.0,0.0,0.0,0.0,1770887248.727335,0.0
24.0,-16484.031556,-10525.615278,-456.690843,-22146.80131,4960.790868,4717.514481,-6592.892896,798.180794,4909.69478,-10097.020578,-6076.567599,3006.421388,663.355072,1499.846756,-25825.116137,-11600.734186,-0.003,-0.016,1.005,192.0,0.0,0.0,0.0,0.0,0.0,0.0,0.0,0.0,0.0,1770887248.727352,0.0
26.0,-16515.681626,-10546.670621,-473.789927,-22170.561215,4939.310841,4706.852699,-6608.181489,776.119623,4855.335338,-10264.524551,-6220.803406,2875.663683,532.239739,1393.363046,-25993.044793,-11742.086618,-0.003,-0.016,1.005,192.0,0.0,0.0,0.0,0.0,0.0,0.0,0.0,0.0,0.0,1770887248.727392,0.0
28.0,-16395.742166,-10432.542614,-382.371292,-22067.60908,5030.617718,4761.212142,-6520.227375,870.600447,4915.059199,-10114.767863,-6085.351835,2989.65758,654.079098,1498.013913,-25842.103462,-11617.073311,-0.003,-0.016,1.005,192.0,0.0,0.0,127.5,88.0,15.5,56.0,0.0,0.0,0.0,1770887248.727412,0.0
30.0,-16548.516339,-10584.020386,-507.943393,-22214.862372,4908.756007,4683.271609,-6647.00647,751.085669,4878.17882,-10196.396434,-6152.921158,2927.966765,581.950019,1437.083058,-25928.671769,-11684.128545,-0.003,-0.016,1.005,192.0,0.0,0.0,0.0,0.0,0.0,0.0,0.0,0.0,0.0,1770887248.727432,0.0
32.0,-16394.51282,-10432.319097,-384.226487,-22076.035687,5035.244529,4757.255883,-6525.301221,864.632531,4893.333303,-10203.504289,-6166.354557,2922.825864,584.408711,1433.171503,-25935.556106,-11702.90401,-0.003,-0.016,1.005,192.0,0.0,0.0,0.0,0.0,0.0,0.0,0.0,0.0,0.0,1770887248.727453,0.0
34.0,-16475.895521,-10513.634743,-444.755011,-22150.265831,4973.486659,4722.521272,-6592.155289,806.920327,4930.817179,-10091.164421,-6062.530704,3009.371818,674.888572,1511.737884,-25819.327035,-11602.611733,-0.003,-0.016,1.005,192.0,0.0,0.0,0.0,0.0,0.0,0.0,0.0,0.0,0.0,1770887248.727473,0.0
36.0,-16495.252132,-10532.186691,-463.351663,-22169.309517,4955.225284,4712.88767,-6604.560507,790.827071,4873.507306,-10255.53915,-6205.023075,2883.866773,553.429193,1397.654581,-25987.993299,-11745.998173,-0.003,-0.016,1.005,192.0,0.0,0.0,0.0,0.0,0.0,0.0,0.0,0.0,0.0,1770887248.727493,0.0
38.0,-16379.090116,-10417.410483,-373.162374,-22056.969649,5045.705145,4759.155781,-6514.818253,883.497403,4929.610184,-10097.199392,-6073.818335,3006.242574,673.100433,1514.62126,-25833.498041,-11617.900326,-0.0035,-0.014,1.0035,192.0,127.5,112.0,127.5,80.0,15.5,40.0,0.0,0.0,0.0,1770887248.727514,0.0
40.0,-16537.698095,-10575.146744,-501.103759,-22208.916808,4924.223414,4692.033493,-6642.40201,757.232399,4899.345922,-10176.078698,-6142.102914,2944.529408,611.722542,1454.78564,-25917.585303,-11681.178115,-0.0035,-0.014,1.0035,192.0,0.0,0.0,0.0,0.0,0.0,0.0,0.0,0.0,0.0,1770887248.727534,0.0
42.0,-16396.680939,-10435.470693,-389.590906,-22076.862702,5027.510825,4747.287005,-6527.759913,863.514944,4899.278867,-10195.301198,-6165.393432,2927.00564,586.532126,1445.68848,-25937.52306,-11701.518202,-0.0035,-0.014,1.0035,192.0,0.0,0.0,0.0,0.0,0.0,0.0,0.0,0.0,0.0,1770887248.727554,0.0
44.0,-16476.163742,-10514.551164,-448.532456,-22152.523357,4972.167906,4712.150063,-6589.629542,812.128283,4929.81135,-10090.426813,-6061.547227,3012.992801,668.250104,1520.611527,-25825.317302,-11605.293942,-0.0035,-0.014,1.0035,192.0,0.0,0.0,0.0,0.0,0.0,0.0,0.0,0.0,0.0,1770887248.727574,0.0
46.0,-16502.40469,-10535.628859,-469.20782,-22171.432933,4944.094115,4698.135519,-6606.952144,786.602591,4867.695852,-10254.086286,-6208.241726,2887.331294,550.791687,1394.301819,-25991.815447,-11740.253775,-0.0035,-0.014,1.0035,192.0,0.0,0.0,0.0,0.0,0.0,0.0,0.0,0.0,0.0,1770887248.727593,0.0
48.0,-16380.699442,-10418.952753,-375.397548,-22062.35642,5037.144427,4757.255883,-6516.874613,877.529487,4923.53051,-10103.569639,-6081.909666,3000.118196,663.355072,1504.495919,-25838.370721,-11614.61462,-0.00075,-0.015,1.00275,192.0,0.0,8.0,127.5,64.0,15.5,40.0,0.0,0.0,0.0,1770887248.727614,0.0
50.0,-16543.241327,-10575.370261,-503.718913,-22206.726337,4909.515966,4682.981036,-6645.643013,752.918512,4893.445062,-10176.078698,-6145.25451,2943.92591,602.066589,1458.943064,-25920.759251,-11678.205333,-0.00075,-0.015,1.00275,192.0,0.0,0.0,0.0,0.0,0.0,0.0,0.0,0.0,0.0,1770887248.727636,0.0
52.0,-16388.522552,-10425.837091,-387.646304,-22074.672231,5023.845139,4751.19856,-6525.994125,871.270999,4902.721036,-10189.534448,-6161.280711,2928.749076,591.918897,1445.621424,-25943.267458,-11701.160574,-0.00075,-0.015,1.00275,192.0,0.0,0.0,0.0,0.0,0.0,0.0,0.0,0.0,0.0,1770887248.727654,0.0
54.0,-16470.709916,-10512.338342,-449.404174,-22141.392188,4961.126144,4710.987772,-6590.523611,814.00583,4932.337097,-10080.480287,-6054.774649,3018.200757,678.800127,1535.408382,-25824.959674,-11598.387253,-0.00075,-0.015,1.00275,192.0,0.0,0.0,0.0,0.0,0.0,0.0,0.0,0.0,0.0,1770887248.727673,0.0
56.0,-16489.351271,-10532.56667,-466.704424,-22166.828473,4951.671356,4708.752597,-6607.846213,786.759053,4879.631684,-10244.787961,-6204.307819,2888.292419,552.646882,1412.160863,-25993.7824,-11737.504511,-0.00075,-0.015,1.00275,192.0,0.0,0.0,0.0,0.0,0.0,0.0,0.0,0.0,0.0,1770887248.727693,0.0
58.0,-16378.531322,-10419.511547,-370.368406,-22055.628545,5042.218273,4760.385127,-6516.025247,880.63638,4936.695687,-10093.444299,-6074.980626,3004.342676,669.948837,1522.712591,-25834.839146,-11613.094701,-0.00075,-0.015,1.00275,192.0,0.0,0.0,127.5,64.0,15.5,48.0,0.0,0.0,0.0,1770887249.205946,0.0
60.0,-16544.269507,-10579.304168,-500.902593,-22211.867239,4923.597565,4686.602019,-6646.134752,752.270311,4901.715207,-10175.877532,-6141.834693,2947.770411,611.633135,1457.110221,-25914.880742,-11676.88658,-0.00075,-0.015,1.00275,192.0,0.0,0.0,0.0,0.0,0.0,0.0,0.0,0.0,0.0,1770887249.206032,0.0
62.0,-16403.766442,-10443.718486,-386.57342,-22075.208673,5038.507883,4753.6349,-6529.659811,861.816211,4898.29539,-10200.531507,-6168.32151,2924.368134,591.091882,1442.581587,-25933.589153,-11702.658141,-0.00075,-0.015,1.00275,192.0,0.0,0.0,0.0,0.0,0.0,0.0,0.0,0.0,0.0,1770887249.206086,0.0
64.0,-16479.807076,-10515.825214,-447.526627,-22145.840185,4979.231057,4711.837138,-6592.17764,803.276992,4925.631574,-10088.213991,-6067.045756,3012.881042,680.074177,1534.670774,-25816.622474,-11594.207477,-0.00075,-0.015,1.00275,192.0,0.0,0.0,0.0,0.0,0.0,0.0,0.0,0.0,0.0,1770887249.20614,0.0
66.0,-16503.052891,-10538.780455,-471.599456,-22171.52234,4952.945406,4702.449405,-6610.282553,775.002035,4863.56078,-10251.873464,-6219.194081,2880.558715,549.42823,1406.952906,-25986.585139,-11735.716371,-0.00075,-0.015,1.00275,192.0,0.0,0.0,0.0,0.0,0.0,0.0,0.0,0.0,0.0,1770887249.206222,0.0
68.0,-16384.633349,-10428.564004,-375.911638,-22065.910347,5037.613814,4746.571749,-6520.540299,868.946417,4923.195234,-10105.558944,-6089.956294,2993.591487,664.383252,1507.423998,-25838.661294,-11614.033474,0.000625,-0.0135,1.002375,192.0,0.0,8.0,127.5,80.0,15.5,40.0,0.0,0.0,0.0,1770887249.206244,0.0
70.0,-16544.582432,-10587.686072,-505.283535,-22220.003273,4902.989257,4666.641911,-6648.213464,749.118715,4894.272076,-10189.713262,-6150.64128,2928.92789,598.602068,1444.123858,-25920.692196,-11682.765088,0.000625,-0.0135,1.002375,192.0,0.0,0.0,0.0,0.0,0.0,0.0,0.0,0.0,0.0,1770887249.20626,0.0
72.0,-16405.018139,-10441.818588,-389.702665,-22082.09301,5019.88888,4740.022688,-6528.810445,858.463449,4894.205021,-10207.818175,-6174.669406,2914.220442,585.705112,1425.974241,-25943.446272,-11707.50847,0.000625,-0.0135,1.002375,192.0,0.0,0.0,0.0,0.0,0.0,0.0,0.0,0.0,0.0,1770887249.206276,0.0
74.0,-16480.187056,-10514.037074,-443.145686,-22147.471863,4965.730603,4711.9936,-6587.506126,807.076789,4924.871615,-10093.109023,-6066.57637,3008.455397,686.064444,1529.149893,-25823.842087,-11604.668093,0.000625,-0.0135,1.002375,192.0,0.0,0.0,0.0,0.0,0.0,0.0,0.0,0.0,0.0,1770887249.206293,0.0
76.0,-16497.755527,-10537.30524,-470.817145,-22171.00825,4946.195179,4705.221022,-6607.175661,785.596762,4870.780393,-10251.404077,-6210.320438,2884.559677,542.007451,1402.147281,-25993.625938,-11742.10897,0.000625,-0.0135,1.002375,192.0,0.0,0.0,0.0,0.0,0.0,0.0,0.0,0.0,0.0,1770887249.206321,0.0
78.0,-16377.793715,-10419.489195,-374.39172,-22062.87051,5043.604081,4751.71265,-6515.175881,882.268057,4923.329344,-10103.547287,-6077.528724,3001.995743,667.266627,1510.799111,-25843.109291,-11620.1355,0.001313,-0.01375,1.003187,192.0,0.0,8.0,127.5,72.0,15.5,48.0,0.0,0.0,0.0,1770887249.206349,0.0
80.0,-16535.217051,-10576.823125,-498.55566,-22209.900285,4917.093207,4684.724472,-6643.050211,757.321806,4898.608315,-10174.916407,-6136.313812,2941.936605,607.565118,1472.801146,-25917.428841,-11682.094536,0.001313,-0.01375,1.003187,192.0,0.0,0.0,0.0,0.0,0.0,0.0,0.0,0.0,0.0,1770887249.206367,0.0
82.0,-16400.614846,-10439.15873,-386.215792,-22075.543949,5028.002563,4755.624206,-6528.966907,859.49163,4900.508213,-10201.85026,-6161.973615,2920.881262,596.523356,1429.394058,-25939.154737,-11701.697016,0.001313,-0.01375,1.003187,192.0,0.0,0.0,0.0,0.0,0.0,0.0,0.0,0.0,0.0,1770887249.206392,0.0
84.0,-16477.169571,-10515.668752,-442.341023,-22142.532127,4973.576066,4714.541699,-6589.517783,805.489815,4928.850225,-10086.761127,-6061.591931,3013.193967,679.582438,1524.008992,-25818.991759,-11595.436823,0.001313,-0.01375,1.003187,192.0,0.0,0.0,0.0,0.0,0.0,0.0,0.0,0.0,0.0,1770887249.206411,0.0
86.0,-16504.393995,-10541.932051,-468.201991,-22173.913976,4949.79381,4699.409568,-6611.981286,780.478213,4867.315873,-10249.414772,-6209.001685,2883.732663,551.149315,1410.439779,-25983.590005,-11736.7222,0.001313,-0.01375,1.003187,192.0,0.0,0.0,0.0,0.0,0.0,0.0,0.0,0.0,0.0,1770887249.20643,0.0
88.0,-16385.16979,-10423.512509,-375.308141,-22060.322411,5043.961709,4755.333633,-6516.539337,875.137851,4919.104864,-10108.039988,-6084.748338,2997.324228,660.203476,1510.419132,-25836.202602,-11614.771082,0.001313,-0.01375,1.003187,192.0,0.0,0.0,0.0,0.0,0.0,0.0,0.0,0.0,0.0,1770887249.206447,0.0
90.0,-16556.428856,-10590.86002,-506.825806,-22214.32593,4908.890117,4676.543734,-6648.057002,740.803866,4886.448966,-10182.046614,-6148.607272,2937.846236,601.999533,1465.536829,-25913.472583,-11672.706803,0.002,-0.016,1.002,192.0,0.0,8.0,127.5,64.0,15.5,40.0,0.0,0.0,0.0,1770887249.20647,0.0
92.0,-16409.063805,-10448.322946,-392.630743,-22076.415667,5021.028819,4745.118886,-6528.631631,851.981443,4883.364425,-10211.796786,-6183.319531,2915.673305,584.922801,1426.108351,-25946.821385,-11707.061435,0.002,-0.016,1.002,192.0,0.0,0.0,0.0,0.0,0.0,0.0,0.0,0.0,0.0,1770887249.206501,0.0
94.0,-16478.354213,-10511.399568,-446.27493,-22140.162842,4963.338967,4710.048999,-6586.857925,806.987382,4928.671411,-10083.900104,-6066.263445,3019.273641,681.52704,1533.284966,-25826.770166,-11599.482489,0.002,-0.016,1.002,192.0,0.0,0.0,0.0,0.0,0.0,0.0,0.0,0.0,0.0,1770887249.206521,0.0
96.0,-16502.136469,-10536.478226,-471.867677,-22172.818741,4940.45078,4705.19867,-6610.528423,782.646332,4876.12246,-10248.118371,-6207.347656,2888.292419,551.819867,1399.867403,-25996.174037,-11742.846578,0.002,-0.016,1.002,192.0,0.0,0.0,0.0,0.0,0.0,0.0,0.0,0.0,0.0,1770887249.206539,0.0
98.0,-16380.185351,-10419.131567,-375.375196,-22055.002696,5036.742096,4751.399726,-6513.544203,882.133947,4929.096094,-10103.949619,-6077.752242,3000.408769,662.885685,1506.328762,-25844.986838,-11622.035399,0.002,-0.016,1.002,192.0,0.0,0.0,0.0,0.0,0.0,0.0,0.0,0.0,0.0,1770887249.206558,0.0
100.0,-16536.982839,-10576.063165,-505.551756,-22209.810878,4903.279829,4669.681748,-6644.748943,757.50062,4899.770606,-10168.970843,-6136.112647,2949.379736,609.397961,1468.531962,-25918.904056,-11678.205333,-0.002,-0.018,1.006,192.0,127.5,120.0,127.5,56.0,15.5,56.0,0.0,0.0,0.0,1770887249.206576,0.0
102.0,-16401.620674,-10438.175254,-394.865918,-22078.337917,5009.89765,4743.196636,-6528.8775,864.118441,4890.069948,-10204.2866,-6171.294292,2925.910404,583.425234,1437.820666,-25950.688237,-11710.123624,-0.002,-0.018,1.006,192.0,0.0,0.0,0.0,0.0,0.0,0.0,0.0,0.0,0.0,1770887249.206594,0.0
104.0,-16476.923701,-10510.617257,-448.688918,-22137.502985,4964.545961,4704.215193,-6585.270951,811.949469,4928.202024,-10082.938979,-6063.804753,3018.737199,678.688369,1531.340364,-25830.257038,-11602.656436,-0.002,-0.018,1.006,192.0,0.0,0.0,0.0,0.0,0.0,0.0,0.0,0.0,0.0,1770887249.206612,0.0
106.0,-16507.322074,-10546.91649,-474.706349,-22173.243424,4933.834664,4694.670998,-6611.176623,778.399501,4866.734727,-10246.509045,-6214.097883,2890.482889,543.214445,1406.394113,-25992.687165,-11737.660973,-0.002,-0.018,1.006,192.0,0.0,0.0,0.0,0.0,0.0,0.0,0.0,0.0,0.0,1770887249.206633,0.0
108.0,-16398.267913,-10430.687419,-377.453909,-22059.875376,5025.454465,4737.921624,-6517.589869,872.455641,4916.936745,-10107.928229,-6091.789137,2993.770301,663.869162,1515.090646,-25844.070416,-11617.721512,-0.002,-0.018,1.006,192.0,0.0,0.0,0.0,0.0,0.0,0.0,0.0,0.0,0.0,1770887249.206652,0.0
110.0,-16555.624194,-10592.223476,-509.664477,-22213.051881,4902.475167,4667.938312,-6647.945243,750.169247,4885.487841,-10186.874591,-6147.735554,2935.923986,601.418388,1446.806067,-25920.893362,-11677.311263,0.006,-0.018,1.006,192.0,0.0,24.0,127.5,56.0,15.5,56.0,0.0,0.0,0.0,1770887249.20667,0.0
112.0,-16409.220267,-10441.483312,-397.45872,-22078.494379,5016.849043,4735.775856,-6531.738523,862.620874,4882.582114,-10210.858013,-6175.272903,2915.315678,568.851896,1425.437799,-25950.263554,-11707.173193,0.006,-0.018,1.006,192.0,0.0,0.0,0.0,0.0,0.0,0.0,0.0,0.0,0.0,1770887249.206688,0.0
114.0,-16466.932472,-10501.788318,-444.822066,-22139.648752,4964.881237,4698.895478,-6584.578047,817.738571,4917.473187,-10084.503601,-6062.642463,3016.032638,672.720453,1526.646498,-25826.479593,-11598.633122,0.006,-0.018,1.006,192.0,0.0,0.0,0.0,0.0,0.0,0.0,0.0,0.0,0.0,1770887249.20671,0.0
116.0,-16503.142298,-10537.148778,-473.097023,-22178.630195,4935.153417,4684.031568,-6610.774292,784.725044,4873.954341,-10242.664545,-6205.201889,2887.912439,562.436946,1404.471863,-25993.692993,-11743.897109,0.006,-0.018,1.006,192.0,0.0,0.0,0.0,0.0,0.0,0.0,0.0,0.0,0.0,1770887249.20673,0.0
118.0,-16375.491485,-10408.179213,-366.523906,-22058.176644,5030.3942,4737.698106,-6508.62682,887.9454,4924.111655,-10104.173136,-6085.374187,2999.872327,668.630084,1507.893384,-25845.635038,-11625.678733,0.006,-0.018,1.006,192.0,0.0,0.0,0.0,0.0,0.0,0.0,0.0,0.0,0.0,1770887249.206748,0.0
120.0,-16544.1801,-10573.492715,-498.309791,-22214.057709,4900.776434,4666.865428,-6642.446714,759.199352,4895.412015,-10172.547123,-6136.090295,2949.513847,620.730295,1464.218076,-25917.965283,-11679.747603,0.006,-0.014,1.008,192.0,0.0,24.0,127.5,72.0,15.5,64.0,0.0,0.0,0.0,1770887249.206767,0.0
122.0,-16395.451593,-10435.649507,-386.931048,-22083.545874,5022.280517,4736.088781,-6529.570404,863.559647,4895.367312,-10203.951324,-6172.836563,2917.036762,587.336789,1428.276471,-25949.525946,-11715.935077,0.006,-0.014,1.008,192.0,0.0,0.0,0.0,0.0,0.0,0.0,0.0,0.0,0.0,1770887249.206785,0.0
124.0,-16458.170588,-10490.903019,-437.535398,-22137.502985,4969.105717,4708.037342,-6581.806431,819.549062,4930.079571,-10077.172229,-6058.440335,3017.396094,693.261706,1535.050754,-25821.070471,-11602.298808,0.006,-0.014,1.008,192.0,0.0,0.0,0.0,0.0,0.0,0.0,0.0,0.0,0.0,1770887249.206856,0.0
126.0,-16485.506771,-10517.658057,-470.861849,-22169.868311,4943.937653,4697.688484,-6609.254373,784.635637,4888.930009,-10230.505196,-6203.637267,2891.667532,563.755699,1418.709924,-25989.133237,-11736.521034,0.006,-0.014,1.008,192.0,0.0,0.0,0.0,0.0,0.0,0.0,0.0,0.0,0.0,1770887249.206875,0.0
128.0,-16372.965738,-10400.132585,-372.849449,-22058.243699,5039.35725,4747.465819,-6513.253631,877.417729,4940.629594,-10084.74947,-6086.648236,2999.447644,672.586342,1531.765048,-25841.187041,-11619.688466,0.006,-0.014,1.008,192.0,0.0,0.0,0.0,0.0,0.0,0.0,0.0,0.0,0.0,1770887249.206892,0.0
130.0,-16549.253946,-10586.188505,-502.26605,-22218.55041,4900.552917,4667.558332,-6643.899577,747.822314,4891.075777,-10179.118535,-6148.540217,2933.398239,614.605917,1462.206419,-25916.467716,-11676.707766,0.008,-0.014,1.006,192.0,0.0,32.0,127.5,72.0,15.5,56.0,0.0,0.0,0.0,1770887249.206911,0.0
132.0,-16415.545811,-10456.481332,-395.223545,-22089.044403,5011.752845,4721.962478,-6532.476131,848.941606,4885.286675,-10220.536318,-6183.453641,2906.196166,581.123004,1426.242462,-25948.318952,-11713.141109,0.008,-0.014,1.006,192.0,0.0,0.0,0.0,0.0,0.0,0.0,0.0,0.0,0.0,1770887249.20693,0.0
134.0,-16476.364908,-10518.485071,-443.011575,-22147.225994,4954.867656,4691.139423,-6584.198068,806.406236,4915.796806,-10105.782462,-6072.834858,2998.039484,672.94397,1519.873919,-25825.406709,-11606.322122,0.008,-0.014,1.006,192.0,0.0,0.0,0.0,0.0,0.0,0.0,0.0,0.0,0.0,1770887249.206949,0.0
136.0,-16503.81285,-10545.977717,-480.294285,-22183.592282,4922.055295,4674.800298,-6614.551737,771.582219,4868.209942,-10259.048374,-6213.449682,2871.327444,547.818905,1394.972371,-25998.431563,-11752.636642,0.008,-0.014,1.006,192.0,0.0,0.0,0.0,0.0,0.0,0.0,0.0,0.0,0.0,1770887249.206968,0.0
138.0,-16371.669337,-10408.358027,-377.789185,-22059.942431,5017.877223,4740.223854,-6512.113692,876.322493,4925.810388,-10111.079825,-6093.934905,2981.834469,647.530037,1498.4833,-25857.05678,-11632.339553,0.008,-0.014,1.006,192.0,0.0,0.0,0.0,0.0,0.0,0.0,0.0,0.0,0.0,1770887249.206987,0.0
140.0,-16535.194699,-10558.628805,-505.775274,-22215.018834,4882.470355,4670.888742,-6644.614833,752.180904,4901.469338,-10163.53937,-6140.672402,2940.394335,605.262888,1475.282189,-25926.883629,-11683.457992,0.006,-0.006,1.008,192.0,0.0,24.0,127.5,104.0,15.5,64.0,0.0,0.0,0.0,1770887249.207007,0.0
142.0,-16398.804355,-10433.034352,-392.027246,-22087.099801,5002.320409,4736.871092,-6531.336192,857.636435,4894.987332,-10198.966884,-6176.993987,2909.280707,579.267809,1461.804087,-25962.981696,-11721.880641,0.006,-0.006,1.008,192.0,0.0,0.0,0.0,0.0,0.0,0.0,0.0,0.0,0.0,1770887249.207026,0.0
144.0,-16456.494207,-10501.006007,-437.915377,-22143.515604,4963.428374,4699.43192,-6582.924018,814.966955,4933.164112,-10073.59595,-6060.541399,3012.054028,688.545488,1544.885522,-25832.827489,-11611.306561,0.006,-0.006,1.008,192.0,0.0,0.0,0.0,0.0,0.0,0.0,0.0,0.0,0.0,1770887249.207044,0.0
146.0,-16490.602969,-10535.003011,-469.408985,-22179.412506,4936.516873,4683.495126,-6610.997809,784.166251,4876.927123,-10250.711173,-6203.30199,2879.0835,559.754736,1396.916973,-25994.207083,-11752.368421,0.006,-0.006,1.008,192.0,0.0,0.0,0.0,0.0,0.0,0.0,0.0,0.0,0.0,1770887249.207067,0.0
148.0,-16360.784037,-10412.649561,-370.882496,-22055.092103,5038.507883,4745.454162,-6511.331381,886.447833,4934.259347,-10108.375264,-6077.238152,2990.283428,671.066424,1515.336515,-25849.546593,-11630.64082,0.006,-0.006,1.008,192.0,0.0,0.0,0.0,0.0,0.0,0.0,0.0,0.0,0.0,1770887249.207086,0.0
150.0,-16533.495967,-10570.36347,-503.361285,-22211.621369,4916.512062,4672.587475,-6646.067696,756.897122,4907.146681,-10171.22837,-6129.585937,2941.198998,611.208452,1464.463945,-25914.187838,-11673.980853,0.004,-0.008,1.01,192.0,0.0,8.0,127.5,88.0,15.5,80.0,0.0,0.0,0.0,1770887249.207105,0.0
152.0,-16403.453517,-10439.941041,-398.062217,-22092.844199,5025.923851,4742.391973,-6536.924128,856.965882,4892.953323,-10206.812347,-6174.84822,2905.995,584.498118,1441.173427,-25948.721284,-11710.727121,0.004,-0.008,1.01,192.0,0.0,0.0,0.0,0.0,0.0,0.0,0.0,0.0,0.0,1770887249.207124,0.0
154.0,-16463.758524,-10499.977827,-441.357546,-22142.330962,4972.212609,4702.851737,-6582.164059,814.966955,4920.289507,-10092.550229,-6065.481134,2998.263001,688.836061,1543.902045,-25821.137526,-11594.49805,0.004,-0.008,1.01,192.0,0.0,0.0,0.0,0.0,0.0,0.0,0.0,0.0,0.0,1770887249.207142,0.0
156.0,-16500.907123,-10541.708534,-473.611113,-22183.100543,4930.146626,4680.455289,-6613.121225,778.444204,4869.640454,-10254.712135,-6210.074569,2869.516953,560.224123,1414.574851,-25992.463647,-11745.081752,0.004,-0.008,1.01,192.0,0.0,0.0,0.0,0.0,0.0,0.0,0.0,0.0,0.0,1770887249.207162,0.0
158.0,-16377.145514,-10418.304553,-371.351882,-22064.703353,5028.136674,4733.853606,-6515.153529,877.529487,4914.500405,-10116.667761,-6093.934905,2975.240704,666.104337,1507.692219,-25848.965448,-11634.261803,0.004,-0.008,1.01,192.0,0.0,0.0,0.0,0.0,0.0,0.0,0.0,0.0,0.0,1770887249.207181,0.0
160.0,-16532.13251,-10575.683186,-500.656724,-22217.790451,4899.860013,4660.763402,-6644.145446,757.031233,4889.466451,-10176.257512,-6140.828865,2930.894843,608.593298,1468.643721,-25915.975978,-11686.184905,0.004,-0.008,1.01,192.0,0.0,0.0,127.5,72.0,15.5,48.0,0.0,0.0,0.0,1770887249.207198,0.0
162.0,-16403.028834,-10444.880777,-394.955325,-22091.726612,5008.467139,4726.835159,-6535.784189,858.552856,4892.193364,-10218.457606,-6176.681063,2899.736512,578.440795,1428.947023,-25955.806787,-11725.903955,0.004,-0.008,1.01,192.0,0.0,0.0,0.0,0.0,0.0,0.0,0.0,0.0,0.0,1770887249.207214,0.0
164.0,-16454.326088,-10497.094452,-440.597587,-22144.812005,4969.642159,4701.73415,-6582.611094,817.492702,4924.335173,-10088.325749,-6060.250826,2999.380588,677.973113,1527.495864,-25826.099613,-11609.451367,0.004,-0.008,1.01,192.0,0.0,0.0,0.0,0.0,0.0,0.0,0.0,0.0,0.0,1770887249.207229,0.0
166.0,-16505.86921,-10541.440313,-475.846288,-22184.508703,4931.130103,4683.450423,-6614.797606,775.337312,4870.221599,-10250.80058,-6207.548822,2867.102965,558.90537,1408.517529,-25994.877636,-11748.367458,0.004,-0.008,1.01,192.0,0.0,0.0,0.0,0.0,0.0,0.0,0.0,0.0,0.0,1770887249.207246,0.0
168.0,-16381.459401,-10418.550422,-374.861106,-22068.436094,5032.31645,4744.336575,-6514.237108,875.562534,4920.669487,-10116.153671,-6092.191469,2972.826716,668.294807,1514.62126,-25851.066512,-11635.647611,0.004,-0.008,1.01,192.0,0.0,0.0,0.0,0.0,0.0,0.0,0.0,0.0,0.0,1770887249.207263,0.0
170.0,-16541.184967,-10576.800773,-506.602288,-22222.707835,4899.502385,4666.306635,-6648.951071,749.56575,4886.314855,-10175.832829,-6144.583958,2928.212634,613.465978,1473.896381,-25916.892399,-11682.318054,0.004,-0.008,1.01,192.0,0.0,0.0,127.5,80.0,15.5,40.0,0.0,0.0,0.0,1770887249.20728,0.0
172.0,-16401.754785,-10439.471655,-400.27504,-22091.324281,5004.846156,4736.580519,-6538.734619,852.495534,4884.213791,-10212.48969,-6185.48765,2898.641276,581.033597,1442.335718,-25960.411246,-11721.724179,0.004,-0.008,1.01,192.0,0.0,0.0,0.0,0.0,0.0,0.0,0.0,0.0,0.0,1770887249.207296,0.0
174.0,-16456.985945,-10497.697949,-440.016441,-22144.789653,4967.09406,4706.875051,-6584.086309,813.335277,4928.716115,-10085.26356,-6067.22457,3002.107501,682.085834,1528.524045,-25826.904276,-11604.019893,0.004,-0.008,1.01,192.0,0.0,0.0,0.0,0.0,0.0,0.0,0.0,0.0,0.0,1770887249.207313,0.0
176.0,-16509.490193,-10546.648269,-482.015369,-22189.873122,4921.943536,4685.819708,-6617.569222,770.039948,4864.611312,-10257.193179,-6215.282525,2863.45963,543.370908,1402.460206,-25996.665775,-11748.456865,0.004,-0.008,1.01,192.0,0.0,0.0,0.0,0.0,0.0,0.0,0.0,0.0,0.0,1770887249.207332,0.0
178.0,-16377.033755,-10416.918745,-376.82806,-22066.513844,5030.058924,4749.119848,-6513.074817,875.607237,4914.299239,-10120.176985,-6094.448995,2970.859763,656.001348,1505.904079,-25861.147149,-11632.518367,0.004,-0.008,1.01,192.0,0.0,0.0,0.0,0.0,0.0,0.0,0.0,0.0,0.0,1770887249.686736,0.0
180.0,-16545.431798,-10577.40427,-503.137768,-22218.349244,4898.362446,4667.424222,-6646.1124,747.755259,4890.785204,-10179.766736,-6138.59369,2925.195149,614.3824,1466.45325,-25920.49103,-11678.182981,0.001,-0.01,1.008,192.0,127.5,120.0,127.5,80.0,15.5,56.0,0.0,0.0,0.0,1770887249.68685,0.0
182.0,-16402.179468,-10444.679611,-400.297391,-22095.92874,5003.974438,4728.623298,-6538.041715,850.081545,4885.554896,-10218.502309,-6181.911371,2889.901744,582.531164,1431.383363,-25965.32863,-11726.529804,0.001,-0.01,1.008,192.0,0.0,0.0,0.0,0.0,0.0,0.0,0.0,0.0,0.0,1770887249.686922,0.0
184.0,-16456.114227,-10499.37433,-440.619938,-22147.605973,4965.082403,4697.442615,-6581.717024,817.626812,4920.177748,-10088.571619,-6061.636634,2995.200812,680.230639,1536.905949,-25828.893581,-11615.754559,0.001,-0.01,1.008,192.0,0.0,0.0,0.0,0.0,0.0,0.0,0.0,0.0,0.0,1770887249.686976,0.0
186.0,-16501.935303,-10546.022421,-483.714102,-22194.20936,4924.513987,4684.009216,-6618.575051,777.259562,4868.276998,-10255.092115,-6207.571174,2864.197238,549.741155,1401.342619,-25997.649252,-11758.76102,0.001,-0.01,1.008,192.0,0.0,0.0,0.0,0.0,0.0,0.0,0.0,0.0,0.0,1770887249.68703,0.0
188.0,-16375.983223,-10414.661218,-376.939818,-22069.754847,5031.467084,4742.906063,-6513.544203,882.111595,4919.216623,-10119.104102,-6086.894105,2970.859763,662.662168,1503.803015,-25857.57087,-11640.766161,0.001,-0.01,1.008,192.0,0.0,0.0,0.0,0.0,0.0,0.0,0.0,0.0,0.0,1770887249.68707,0.0
190.0,-16532.020751,-10571.659872,-502.556622,-22220.070329,4901.446986,4669.681748,-6643.117266,756.047756,4894.607353,-10172.681233,-6132.759885,2931.811265,616.259946,1475.438651,-25915.148963,-11684.06149,0.0025,-0.011,1.005,192.0,0.0,16.0,127.5,80.0,15.5,40.0,0.0,0.0,0.0,1770887249.687089,0.0
192.0,-16393.75286,-10438.577585,-398.86688,-22098.253321,5005.382598,4734.881787,-6533.99605,856.720013,4889.667617,-10219.888117,-6179.184458,2892.226326,580.765376,1422.085037,-25964.680429,-11726.954487,0.0025,-0.011,1.005,192.0,0.0,0.0,0.0,0.0,0.0,0.0,0.0,0.0,0.0,1770887249.687108,0.0
194.0,-16452.761466,-10493.071138,-437.535398,-22142.219203,4961.103792,4706.785644,-6578.476021,820.93487,4925.005725,-10081.128488,-6058.932073,3001.079321,684.566877,1544.48319,-25829.340616,-11607.998503,0.0025,-0.011,1.005,192.0,0.0,0.0,0.0,0.0,0.0,0.0,0.0,0.0,0.0,1770887249.687127,0.0
196.0,-16499.431908,-10539.339249,-481.523631,-22187.481485,4919.507196,4688.03253,-6617.233946,779.226515,4869.394585,-10247.60428,-6206.252421,2871.52861,554.54678,1416.09477,-25995.324671,-11747.272223,0.0025,-0.011,1.005,192.0,0.0,0.0,0.0,0.0,0.0,0.0,0.0,0.0,0.0,1770887249.687147,0.0
198.0,-16370.30588,-10412.224878,-377.565667,-22062.35642,5022.012296,4740.290909,-6512.806596,884.324418,4918.456664,-10112.510337,-6092.280876,2979.912219,652.69329,1507.021666,-25859.49312,-11633.591251,0.0025,-0.011,1.005,192.0,0.0,0.0,0.0,0.0,0.0,0.0,0.0,0.0,0.0,1770887249.687166,0.0
200.0,-16534.591202,-10570.855209,-508.055151,-22216.717567,4892.349826,4666.530152,-6643.966632,757.478268,4890.449928,-10170.200189,-6134.950356,2939.276748,615.209414,1476.712701,-25920.915713,-11676.238379,0.00225,-0.0115,1.0025,192.0,0.0,8.0,127.5,80.0,15.5,32.0,0.0,0.0,0.0,1770887249.687185,0.0
202.0,-16395.518648,-10433.25787,-401.660848,-22092.799496,5002.298057,4724.778798,-6536.231224,858.038766,4893.266248,-10216.177728,-6181.26317,2897.568392,582.933495,1429.572872,-25965.753313,-11721.075978,0.00225,-0.0115,1.0025,192.0,0.0,0.0,0.0,0.0,0.0,0.0,0.0,0.0,0.0,1770887249.687204,0.0
204.0,-16452.672059,-10495.373368,-443.905645,-22138.888793,4953.191275,4699.163699,-6580.420623,822.85712,4930.034868,-10082.961331,-6061.8378,3001.056969,680.275342,1546.584254,-25831.575791,-11608.959628,0.00225,-0.0115,1.0025,192.0,0.0,0.0,0.0,0.0,0.0,0.0,0.0,0.0,0.0,1770887249.687223,0.0
206.0,-16509.870173,-10551.476246,-488.273858,-22195.818686,4916.445007,4676.946065,-6619.402065,777.036044,4864.521905,-10253.035754,-6209.180499,2872.087404,545.337861,1407.824625,-26003.728927,-11752.502531,0.00225,-0.0115,1.0025,192.0,0.0,0.0,0.0,0.0,0.0,0.0,0.0,0.0,0.0,1770887249.687243,0.0
208.0,-16372.697517,-10415.890564,-381.052539,-22069.643089,5027.734343,4728.980926,-6510.571421,886.067854,4911.013533,-10122.970953,-6096.706521,2974.592504,653.408546,1501.880765,-25860.722466,-11638.016896,0.00225,-0.0115,1.0025,192.0,0.0,0.0,0.0,0.0,0.0,0.0,0.0,0.0,0.0,1770887249.687262,0.0
210.0,-16531.797234,-10572.397479,-511.765541,-22222.126689,4893.355655,4650.213379,-6642.603176,755.600721,4891.723978,-10175.028166,-6137.900786,2934.381716,612.281336,1462.117012,-25917.048862,-11679.524085,0.003125,-0.01075,1.00025,192.0,0.0,16.0,127.5,88.0,15.5,24.0,0.0,0.0,0.0,1770887249.687293,0.0
212.0,-16411.43309,-10450.088733,-412.277926,-22105.003548,5000.129938,4715.033438,-6541.282718,848.60633,4879.385815,-10229.901699,-6187.834583,2886.705445,568.00253,1412.719657,-25970.916566,-11731.648354,0.003125,-0.01075,1.00025,192.0,0.0,0.0,0.0,0.0,0.0,0.0,0.0,0.0,0.0,1770887249.687312,0.0
214.0,-16455.309565,-10497.183859,-441.983395,-22144.208508,4961.349662,4687.920772,-6578.967759,819.683173,4925.810388,-10094.114851,-6064.676471,2993.25621,681.348226,1534.022574,-25827.954808,-11612.848832,0.003125,-0.01075,1.00025,192.0,0.0,0.0,0.0,0.0,0.0,0.0,0.0,0.0,0.0,1770887249.687337,0.0
216.0,-16507.27737,-10547.989374,-486.910401,-22194.991671,4918.590774,4669.368824,-6620.050266,778.600666,4870.445117,-10256.321461,-6206.386531,2866.14184,556.580789,1403.734255,-25995.972871,-11751.139075,0.003125,-0.01075,1.00025,192.0,0.0,0.0,0.0,0.0,0.0,0.0,0.0,0.0,0.0,1770887249.687356,0.0
218.0,-16375.782058,-10420.115044,-380.359635,-22069.53133,5025.812093,4735.038249,-6515.086474,883.989141,4919.17192,-10124.692038,-6093.756091,2973.609027,662.550409,1506.015838,-25860.856576,-11638.754504,0.003125,-0.01075,1.00025,192.0,0.0,0.0,0.0,0.0,0.0,0.0,0.0,0.0,0.0,1770887249.687375,0.0
220.0,-16534.479443,-10573.090383,-511.36321,-22226.194707,4888.751196,4656.024832,-6646.782952,757.299454,4890.293466,-10172.010681,-6134.324507,2933.308832,616.662278,1470.990654,-25915.730109,-11678.607664,0.003125,-0.01075,1.00025,192.0,0.0,0.0,0.0,0.0,0.0,0.0,0.0,0.0,0.0,1770887249.687396,0.0
222.0,-16409.667302,-10452.525074,-410.154511,-22106.121135,4986.495374,4714.787568,-6540.478056,852.517885,4882.26919,-10229.14174,-6189.041577,2886.347817,575.624475,1429.394058,-25970.558938,-11728.988496,0.002,-0.01,1.002,192.0,0.0,8.0,127.5,88.0,15.5,40.0,0.0,0.0,0.0,1770887249.687416,0.0
224.0,-16460.562224,-10501.229525,-448.375994,-22148.500043,4955.918188,4687.540792,-6581.873486,821.337202,4927.822045,-10093.913686,-6066.419907,2992.22803,678.151927,1527.652327,-25833.118061,-11609.384311,0.002,-0.01,1.002,192.0,0.0,0.0,0.0,0.0,0.0,0.0,0.0,0.0,0.0,1770887249.687435,0.0
226.0,-16499.945998,-10545.575386,-487.089215,-22192.8012,4915.260364,4672.296902,-6620.653763,781.662855,4867.6735,-10257.237882,-6208.889927,2864.86779,545.091992,1404.673029,-26002.611339,-11745.81936,0.002,-0.01,1.002,192.0,0.0,0.0,0.0,0.0,0.0,0.0,0.0,0.0,0.0,1770887249.687454,0.0
228.0,-16370.887026,-10410.056759,-375.308141,-22063.362248,5030.349497,4740.201502,-6514.617087,887.565421,4921.451798,-10121.562793,-6093.10789,2971.284446,662.282188,1509.703876,-25860.409541,-11631.646649,0.002,-0.01,1.002,192.0,0.0,0.0,0.0,0.0,0.0,0.0,0.0,0.0,0.0,1770887249.687473,0.0
230.0,-16528.556231,-10572.106906,-504.70239,-22212.828364,4903.324533,4664.07146,-6647.252339,760.361643,4901.648152,-10165.931006,-6131.575242,2938.092105,630.27449,1477.383253,-25908.421088,-11669.085821,0.002,-0.01,1.002,192.0,0.0,0.0,0.0,0.0,0.0,0.0,0.0,0.0,0.0,1770887249.687492,0.0
232.0,-16397.105622,-10443.740838,-402.420807,-22093.87238,5015.507938,4735.574691,-6541.752105,858.016414,4890.807556,-10214.076664,-6181.710205,2897.590744,590.398978,1434.4232,-25958.734865,-11721.187737,-0.004,-0.014,1.002,192.0,127.5,112.0,127.5,72.0,15.5,40.0,0.0,0.0,0.0,1770887249.687511,0.0
234.0,-16444.044285,-10485.426841,-434.987299,-22142.733293,4976.571199,4700.907135,-6581.53821,826.388696,4941.747182,-10080.435584,-6054.417021,3004.253269,699.07316,1543.991452,-25815.013148,-11596.4203,-0.004,-0.014,1.002,192.0,0.0,0.0,0.0,0.0,0.0,0.0,0.0,0.0,0.0,1770887249.687531,0.0
236.0,-16505.444527,-10544.033115,-488.162099,-22193.672919,4927.866748,4675.269684,-6625.347629,776.119623,4879.251704,-10248.677164,-6205.939496,2872.534439,562.548704,1415.871253,-25990.586101,-11743.673592,-0.004,-0.014,1.002,192.0,0.0,0.0,0.0,0.0,0.0,0.0,0.0,0.0,0.0,1770887249.687549,0.0
238.0,-16374.128029,-10418.52807,-376.0681,-22065.977402,5033.34463,4735.082952,-6514.930012,883.095072,4921.451798,-10120.445206,-6099.679303,2975.933609,659.890552,1514.107169,-25858.330829,-11634.73119,-0.004,-0.014,1.002,192.0,0.0,0.0,0.0,0.0,0.0,0.0,0.0,0.0,0.0,1770887249.687568,0.0
240.0,-16537.653391,-10574.744412,-503.67421,-22220.159736,4901.11171,4660.383422,-6645.464199,759.914608,4893.04273,-10173.329434,-6133.251623,2933.487646,630.386249,1476.288018,-25910.633911,-11671.63392,-0.004,-0.014,1.002,192.0,0.0,0.0,0.0,0.0,0.0,0.0,0.0,0.0,0.0,1770887249.687586,0.0
242.0,-16393.641102,-10441.528015,-403.426636,-22101.941359,5001.314581,4721.180167,-6542.601471,857.8376,4891.031073,-10222.257402,-6183.252476,2894.752073,593.774091,1431.137494,-25964.680429,-11724.42874,-0.002,-0.012,0.998,192.0,127.5,120.0,127.5,80.0,15.5,24.0,0.0,0.0,0.0,1770887249.68761,0.0
244.0,-16436.712913,-10486.633836,-436.194293,-22139.335828,4959.136839,4693.598115,-6578.140745,832.110743,4941.34485,-10077.373395,-6053.031212,3007.069589,700.481319,1545.645481,-25823.976198,-11603.751672,-0.002,-0.012,0.998,192.0,0.0,0.0,0.0,0.0,0.0,0.0,0.0,0.0,0.0,1770887249.687629,0.0
246.0,-16505.958617,-10548.525816,-485.703407,-22197.942102,4908.353675,4664.160867,-6620.787873,782.355759,4882.671521,-10254.689783,-6199.993932,2873.83084,568.38251,1401.297915,-26000.510275,-11753.106028,-0.002,-0.012,0.998,192.0,0.0,0.0,0.0,0.0,0.0,0.0,0.0,0.0,0.0,1770887249.687648,0.0
248.0,-16367.623671,-10411.934306,-373.63176,-22068.458446,5018.592479,4722.811845,-6510.593773,891.7899,4919.976583,-10127.195433,-6091.587972,2971.709129,658.929427,1511.313201,-25867.338582,-11643.895405,-0.002,-0.012,0.998,192.0,0.0,0.0,0.0,0.0,0.0,0.0,0.0,0.0,0.0,1770887249.687667,0.0
250.0,-16530.992571,-10577.560732,-505.529404,-22221.456137,4893.623876,4656.918902,-6641.999679,762.88739,4900.418806,-10169.931968,-6129.697696,2937.287442,630.766229,1484.982846,-25911.77385,-11677.937112,-0.002,-0.012,0.998,192.0,0.0,0.0,0.0,0.0,0.0,0.0,0.0,0.0,0.0,1770887249.687685,0.0
252.0,-16413.73532,-10455.922539,-411.29445,-22103.99772,5001.068711,4720.509615,-6545.127218,849.478048,4885.241972,-10228.046504,-6193.534278,2886.794852,573.925742,1427.181235,-25966.245051,-11725.32281,0.004,-0.012,1.006,192.0,0.0,16.0,127.5,80.0,15.5,56.0,0.0,0.0,0.0,1770887249.687704,0.0
254.0,-16457.544739,-10493.294655,-442.810409,-22138.061778,4978.76167,4708.39497,-6580.241809,821.404257,4922.055295,-10088.616322,-6070.711442,2991.780995,692.255878,1536.66008,-25823.842087,-11599.594247,0.004,-0.012,1.006,192.0,0.0,0.0,0.0,0.0,0.0,0.0,0.0,0.0,0.0,1770887249.687723,0.0
0.0,-16511.88183,-10549.017554,-490.710198,-22190.096639,4932.471208,4680.567048,-6624.632373,771.895143,4863.538428,-10248.565405,-6217.808273,2870.63454,552.959806,1425.951889,-25993.044793,-11734.241156,0.004,-0.012,1.006,192.0,0.0,0.0,0.0,0.0,0.0,0.0,0.0,0.0,0.0,1770887249.687743,0.0
2.0,-16378.128991,-10420.584431,-378.213868,-22062.021144,5036.585633,4745.05183,-6515.578212,880.099938,4917.38378,-10121.428683,-6105.826033,2968.624588,664.874991,1521.751466,-25861.482425,-11627.064541,0.004,-0.012,1.006,192.0,0.0,0.0,0.0,0.0,0.0,0.0,0.0,0.0,0.0,1770887249.687764,0.0
4.0,-16540.626173,-10582.679282,-507.049323,-22218.125727,4907.817234,4671.805164,-6644.748943,753.432602,4888.930009,-10165.618082,-6141.007679,2935.678117,633.046106,1488.313256,-25904.621292,-11659.631033,0.004,-0.012,1.006,192.0,0.0,0.0,0.0,0.0,0.0,0.0,0.0,0.0,0.0,1770887249.687783,0.0
6.0,-16417.57982,-10460.750516,-409.349848,-22103.908313,5004.51088,4726.656345,-6543.316727,848.248702,4879.229352,-10228.650001,-6195.948267,2883.509145,584.162841,1438.021831,-25963.249917,-11718.952563,0.002,-0.012,1.0,192.0,0.0,8.0,127.5,80.0,15.5,32.0,0.0,0.0,0.0,1770887249.687802,0.0
8.0,-16454.259033,-10495.552182,-442.475133,-22137.905316,4967.384633,4706.025685,-6577.894876,822.410085,4920.848301,-10086.872886,-6069.415041,2996.228992,687.763177,1541.219835,-25825.049081,-11598.521364,0.002,-0.012,1.0,192.0,0.0,0.0,0.0,0.0,0.0,0.0,0.0,0.0,0.0,1770887249.687821,0.0
10.0,-16511.077167,-10552.593834,-491.090177,-22195.058727,4914.545109,4679.650626,-6621.279612,775.82905,4865.125402,-10248.900682,-6211.527432,2871.841535,564.739175,1419.536939,-25997.001052,-11746.579319,0.002,-0.012,1.0,192.0,0.0,0.0,0.0,0.0,0.0,0.0,0.0,0.0,0.0,1770887249.68784,0.0
12.0,-16373.390421,-10416.695227,-380.203173,-22059.428341,5024.359229,4730.143217,-6511.085512,885.173784,4917.093207,-10117.003038,-6101.065111,2974.324283,659.778793,1530.155722,-25865.103408,-11640.855568,0.002,-0.012,1.0,192.0,0.0,0.0,0.0,0.0,0.0,0.0,0.0,0.0,0.0,1770887249.687859,0.0
14.0,-16534.792368,-10578.879485,-510.156215,-22218.4163,4898.653018,4665.211399,-6644.592481,757.880599,4890.293466,-10166.556855,-6137.69962,2935.700469,618.137493,1475.706872,-25913.874914,-11676.372489,0.002,-0.012,1.0,192.0,0.0,0.0,0.0,0.0,0.0,0.0,0.0,0.0,0.0,1770887249.687877,0.0
16.0,-16409.846116,-10453.75442,-410.154511,-22102.053118,4997.693598,4719.41438,-6544.054335,853.702528,4880.436347,-10226.258364,-6193.400168,2888.784157,589.259039,1438.155942,-25972.25767,-11729.614345,0.006,-0.01,1.0,192.0,0.0,24.0,127.5,88.0,15.5,32.0,0.0,0.0,0.0,1770887249.687896,0.0
18.0,-16454.795474,-10491.148888,-440.664642,-22137.726502,4962.690766,4702.583516,-6577.000806,828.288594,4926.190367,-10087.208162,-6063.961215,2998.553574,697.933221,1543.745583,-25828.290084,-11606.232715,0.006,-0.01,1.0,192.0,0.0,0.0,0.0,0.0,0.0,0.0,0.0,0.0,0.0,1770887249.687919,0.0
20.0,-16514.921667,-10555.723078,-496.320486,-22205.742861,4911.751141,4683.830402,-6626.576975,771.202239,4864.745422,-10253.661603,-6213.024999,2867.237075,561.319359,1422.844997,-25996.755182,-11741.885452,0.006,-0.01,1.0,192.0,0.0,0.0,0.0,0.0,0.0,0.0,0.0,0.0,0.0,1770887249.687938,0.0
22.0,-16379.91713,-10423.736027,-388.294505,-22069.799551,5022.235813,4736.468761,-6517.589869,877.708301,4900.128233,-10130.61525,-6113.09035,2959.862704,644.803124,1514.263632,-25865.282221,-11636.206405,0.006,-0.01,1.0,192.0,0.0,0.0,0.0,0.0,0.0,0.0,0.0,0.0,0.0,1770887249.687957,0.0
24.0,-16549.946851,-10586.367319,-515.073599,-22229.323951,4893.310951,4662.193914,-6648.369926,752.694995,4877.888248,-10177.017471,-6146.394449,2926.290384,610.314382,1477.249143,-25908.018757,-11665.084859,0.006,-0.01,1.0,192.0,0.0,0.0,0.0,0.0,0.0,0.0,0.0,0.0,0.0,1770887249.687976,0.0
26.0,-16422.720721,-10468.908902,-416.435351,-22113.60897,4988.887011,4713.714685,-6545.551902,849.455696,4869.685157,-10243.491559,-6200.172746,2877.094195,570.215353,1418.575814,-25972.034153,-11727.066246,0.008,-0.006,1.006,192.0,0.0,32.0,127.5,104.0,15.5,56.0,0.0,0.0,0.0,1770887249.687994,0.0
28.0,-16453.320259,-10502.771795,-445.224398,-22146.80131,4957.147534,4689.619504,-6577.604303,827.305118,4914.120425,-10105.156613,-6069.795021,2987.623571,681.258819,1535.028402,-25831.508736,-11608.378483,0.008,-0.006,1.006,192.0,0.0,0.0,0.0,0.0,0.0,0.0,0.0,0.0,0.0,1770887249.688013,0.0
30.0,-16507.903219,-10553.353793,-493.638276,-22206.145192,4911.773492,4673.794469,-6624.408856,777.728948,4862.599655,-10262.065859,-6210.611011,2861.157401,559.240646,1409.43395,-25999.92913,-11752.122551,0.008,-0.006,1.006,192.0,0.0,0.0,0.0,0.0,0.0,0.0,0.0,0.0,0.0,1770887249.688033,0.0
32.0,-16362.639232,-10413.610686,-374.615237,-22072.280594,5025.856796,4736.759333,-6509.722055,891.968714,4922.859958,-10127.843634,-6093.778443,2963.595446,666.551371,1512.788416,-25868.478521,-11647.203463,0.008,-0.006,1.006,192.0,0.0,0.0,0.0,0.0,0.0,0.0,0.0,0.0,0.0,1770887249.688054,0.0
34.0,-16525.650504,-10573.112735,-502.333105,-22219.422128,4892.953323,4669.212361,-6637.104647,775.717291,4905.626763,-10163.002928,-6117.851271,2939.477913,633.6049,1492.247163,-25908.197571,-11681.580446,0.008,-0.006,1.006,192.0,0.0,0.0,0.0,0.0,0.0,0.0,0.0,0.0,0.0,1770887249.688073,0.0
36.0,-16407.409776,-10449.105257,-405.885328,-22106.523467,4989.334046,4726.455179,-6535.67243,866.957112,4887.834774,-10224.671391,-6178.759775,2891.913401,578.530202,1440.525227,-25974.895176,-11733.838824,0.005,-0.007,1.007,192.0,0.0,8.0,127.5,96.0,15.5,64.0,0.0,0.0,0.0,1770887249.688092,0.0
38.0,-16446.748846,-10496.245086,-436.708383,-22141.258078,4960.05326,4712.641801,-6568.842419,838.816266,4922.345867,-10093.064319,-6057.47921,2997.078359,689.953648,1544.036155,-25829.407672,-11611.172451,0.005,-0.007,1.007,192.0,0.0,0.0,0.0,0.0,0.0,0.0,0.0,0.0,0.0,1770887249.688111,0.0
40.0,-16515.659275,-10563.143857,-494.733512,-22202.613616,4909.001876,4673.258027,-6623.514786,778.243038,4871.808573,-10257.215531,-6204.620743,2867.237075,565.163859,1425.907186,-26000.577331,-11748.836845,0.005,-0.007,1.007,192.0,0.0,0.0,0.0,0.0,0.0,0.0,0.0,0.0,0.0,1770887249.68813,0.0
42.0,-16370.529398,-10425.18889,-385.16526,-22071.744153,5023.778084,4739.821522,-6513.410093,884.212659,4915.528585,-10132.716314,-6106.407178,2961.85201,658.728261,1510.575594,-25868.433817,-11642.844873,0.005,-0.007,1.007,192.0,0.0,0.0,0.0,0.0,0.0,0.0,0.0,0.0,0.0,1770887250.167528,0.0
44.0,-16544.336563,-10586.523782,-517.241718,-22224.652436,4900.105882,4671.24637,-6644.480722,755.824239,4885.510193,-10175.452849,-6137.453751,2929.218463,627.011135,1489.833175,-25906.543542,-11666.671832,0.005,-0.007,1.007,192.0,0.0,0.0,0.0,0.0,0.0,0.0,0.0,0.0,0.0,1770887250.167606,0.0
46.0,-16421.692541,-10467.880722,-423.453799,-22108.088089,4993.178546,4729.785589,-6544.590777,844.828885,4873.976692,-10238.350658,-6199.368083,2880.312846,567.086109,1430.511645,-25968.860205,-11722.797063,0.005,-0.007,1.007,192.0,0.0,0.0,127.5,88.0,15.5,80.0,0.0,0.0,0.0,1770887250.167667,0.0
48.0,-16465.144332,-10507.175089,-449.538284,-22142.44272,4962.86958,4707.5009,-6577.090213,817.827978,4911.907603,-10103.390825,-6074.667701,2991.06574,672.161659,1546.338385,-25823.126831,-11596.755576,0.005,-0.007,1.007,192.0,0.0,0.0,0.0,0.0,0.0,0.0,0.0,0.0,0.0,1770887250.167722,0.0
50.0,-16524.711731,-10564.574369,-500.880241,-22209.810878,4913.628687,4684.880934,-6628.476873,766.2178,4858.688099,-10262.512894,-6217.383589,2863.951369,550.299948,1407.489348,-25992.910682,-11737.996249,0.005,-0.007,1.007,192.0,0.0,0.0,0.0,0.0,0.0,0.0,0.0,0.0,0.0,1770887250.167792,0.0
52.0,-16379.894779,-10424.361876,-385.500537,-22069.307812,5023.196938,4749.075144,-6516.762855,877.462432,4915.014495,-10131.598727,-6108.977629,2959.303911,664.271493,1522.31026,-25862.242384,-11635.267631,0.005,-0.007,1.007,192.0,0.0,0.0,0.0,0.0,0.0,0.0,0.0,0.0,0.0,1770887250.167847,0.0
54.0,-16528.042141,-10577.068994,-510.536195,-22220.629122,4897.200155,4679.717681,-6644.525426,760.115774,4899.994123,-10163.114686,-6133.385734,2939.679079,635.303633,1503.065408,-25904.241312,-11663.654347,0.005,-0.007,1.007,192.0,0.0,0.0,0.0,0.0,0.0,0.0,0.0,0.0,0.0,1770887250.167864,0.0
56.0,-16405.331064,-10453.37444,-419.005802,-22108.669234,4988.439976,4733.00424,-6543.160265,854.306025,4887.14187,-10231.33221,-6195.255362,2886.548982,575.468013,1439.497046,-25974.068162,-11723.937002,0.0035,-0.0085,1.0075,192.0,0.0,8.0,127.5,88.0,15.5,64.0,0.0,0.0,0.0,1770887250.167883,0.0
58.0,-16449.498111,-10491.148888,-447.705441,-22134.37374,4951.961929,4704.103435,-6571.010538,832.781295,4926.279774,-10081.754337,-6067.179867,3002.845109,682.242296,1559.369452,-25832.223991,-11600.667131,0.0035,-0.0085,1.0075,192.0,0.0,0.0,0.0,0.0,0.0,0.0,0.0,0.0,0.0,1770887250.167903,0.0
60.0,-16519.57083,-10556.527741,-505.127073,-22198.456192,4892.036902,4679.740033,-6625.191167,773.638579,4862.197323,-10248.453647,-6212.533261,2878.18943,554.457373,1422.37561,-26008.065165,-11742.354839,0.0035,-0.0085,1.0075,192.0,0.0,0.0,0.0,0.0,0.0,0.0,0.0,0.0,0.0,1770887250.167919,0.0
62.0,-16380.878255,-10418.148091,-385.969923,-22071.230062,5014.457406,4742.704897,-6512.963058,880.546973,4903.749216,-10131.039933,-6113.179757,2964.355405,640.377479,1511.067332,-25876.525149,-11644.431847,0.0035,-0.0085,1.0075,192.0,0.0,0.0,0.0,0.0,0.0,0.0,0.0,0.0,0.0,1770887250.167932,0.0
64.0,-16534.770016,-10577.136049,-511.11734,-22224.451271,4884.70553,4665.904303,-6641.23972,762.50741,4895.970809,-10168.881436,-6132.536367,2935.991041,630.609766,1493.811785,-25912.086774,-11667.945882,0.0035,-0.0085,1.0075,192.0,0.0,0.0,0.0,0.0,0.0,0.0,0.0,0.0,0.0,1770887250.167944,0.0
66.0,-16414.607038,-10460.459943,-415.921261,-22109.697415,4982.47206,4719.392028,-6543.249672,857.8376,4881.933913,-10236.629574,-6189.153336,2886.616038,574.484536,1436.300747,-25977.89031,-11731.134263,0.00275,-0.01125,1.00475,192.0,0.0,8.0,127.5,72.0,15.5,40.0,0.0,0.0,0.0,1770887250.167962,0.0
68.0,-16440.803282,-10494.054615,-440.463476,-22142.599182,4955.717022,4703.388179,-6573.648044,835.999946,4925.117484,-10089.443337,-6059.312053,3002.107501,693.798148,1549.020594,-25829.430023,-11604.332817,0.00275,-0.01125,1.00475,192.0,0.0,0.0,0.0,0.0,0.0,0.0,0.0,0.0,0.0,1770887250.167977,0.0
70.0,-16513.28999,-10562.786229,-496.946334,-22210.123802,4912.287582,4685.037397,-6626.442865,777.930114,4866.13123,-10261.663528,-6208.979334,2866.946503,566.549667,1419.626346,-25994.922339,-11745.662897,0.00275,-0.01125,1.00475,192.0,0.0,0.0,0.0,0.0,0.0,0.0,0.0,0.0,0.0,1770887250.167994,0.0
72.0,-16368.361279,-10414.862384,-381.656037,-22073.062905,5026.16972,4752.003223,-6511.398436,891.1417,4916.132082,-10138.147788,-6104.239059,2962.053175,663.131555,1512.654306,-25864.723428,-11641.816693,0.00275,-0.01125,1.00475,192.0,0.0,0.0,0.0,0.0,0.0,0.0,0.0,0.0,0.0,1770887250.168007,0.0
74.0,-16530.07615,-10578.208933,-510.759713,-22220.137384,4895.054387,4678.153059,-6643.229025,764.854344,4894.406187,-10170.155486,-6131.083504,2937.332146,628.262833,1499.332666,-25902.006138,-11660.592158,0.00275,-0.01125,1.00475,192.0,0.0,0.0,0.0,0.0,0.0,0.0,0.0,0.0,0.0,1770887250.168025,0.0
76.0,-16419.412663,-10464.259739,-416.234185,-22111.753775,4992.217421,4735.038249,-6547.250634,845.6559,4884.70553,-10237.098961,-6199.144566,2880.62577,579.446623,1432.344488,-25974.224624,-11727.021542,0.002375,-0.010625,1.004375,192.0,0.0,8.0,127.5,88.0,15.5,48.0,0.0,0.0,0.0,1770887250.16804,0.0
78.0,-16450.995678,-10491.841792,-436.171941,-22138.307648,4965.775307,4711.680676,-6572.083422,825.002888,4932.068876,-10090.337406,-6067.805716,2991.959809,700.458968,1555.815525,-25825.004378,-11600.689483,0.002375,-0.010625,1.004375,192.0,0.0,0.0,0.0,0.0,0.0,0.0,0.0,0.0,0.0,1770887250.168056,0.0
80.0,-16519.660237,-10563.769706,-496.544003,-22205.496991,4906.587888,4682.712815,-6626.711086,770.397576,4869.528695,-10254.555673,-6213.561441,2866.544171,568.226048,1421.906224,-25992.75422,-11741.684287,0.002375,-0.010625,1.004375,192.0,0.0,0.0,0.0,0.0,0.0,0.0,0.0,0.0,0.0,1770887250.16807,0.0
82.0,-16372.518703,-10420.115044,-385.746406,-22070.447751,5013.697447,4748.605758,-6511.353733,886.716054,4912.935783,-10130.570546,-6111.637486,2963.483687,656.873066,1520.611527,-25876.100466,-11644.387143,0.002375,-0.010625,1.004375,192.0,0.0,0.0,0.0,0.0,0.0,0.0,0.0,0.0,0.0,1770887250.168091,0.0
84.0,-16523.840013,-10570.296415,-513.352515,-22214.772965,4886.963056,4675.247332,-6638.04342,768.743547,4897.893059,-10155.716259,-6130.345897,2942.026012,640.26572,1507.267536,-25912.399699,-11667.185923,0.002375,-0.010625,1.004375,192.0,0.0,0.0,0.0,0.0,0.0,0.0,0.0,0.0,0.0,1770887250.168109,0.0
86.0,-16404.861677,-10457.576568,-424.817255,-22111.731423,4982.60617,4731.774894,-6544.300204,857.390566,4883.006797,-10228.270021,-6191.2544,2886.683093,576.607952,1448.795372,-25982.025383,-11735.336391,0.002375,-0.010625,1.004375,192.0,0.0,0.0,127.5,104.0,15.5,8.0,0.0,0.0,0.0,1770887250.168127,0.0
88.0,-16434.343628,-10481.112955,-435.791962,-22130.52924,4958.265121,4720.643725,-6564.684995,844.717126,4928.134969,-10086.515258,-6062.642463,2999.045312,680.811784,1551.27812,-25830.480555,-11608.803166,0.002375,-0.010625,1.004375,192.0,0.0,0.0,0.0,0.0,0.0,0.0,0.0,0.0,0.0,1770887250.168144,0.0
90.0,-16512.842955,-10557.824142,-497.795701,-22213.565971,4899.748254,4692.949914,-6626.979307,775.44907,4876.480088,-10248.654812,-6202.586735,2870.969817,575.69153,1425.19193,-25993.469476,-11749.708563,0.002375,-0.010625,1.004375,192.0,0.0,0.0,0.0,0.0,0.0,0.0,0.0,0.0,0.0,1770887250.168158,0.0
92.0,-16377.637253,-10426.529995,-384.025321,-22076.125094,5021.073523,4762.21797,-6512.784244,884.48088,4914.790978,-10135.622041,-6109.782292,2955.235893,658.147115,1518.935146,-25869.461998,-11645.437675,0.002375,-0.010625,1.004375,192.0,0.0,0.0,0.0,0.0,0.0,0.0,0.0,0.0,0.0,1770887250.168176,0.0
94.0,-16540.179138,-10584.71329,-512.436093,-22220.98675,4890.829908,4685.752652,-6641.37383,761.546285,4895.568478,-10169.976672,-6137.677269,2931.163064,633.671955,1497.879803,-25903.906036,-11661.218007,0.002375,-0.010625,1.004375,192.0,0.0,0.0,0.0,0.0,0.0,0.0,0.0,0.0,0.0,1770887250.16819,0.0
96.0,-16412.058939,-10463.008042,-425.13018,-22111.038519,4975.610074,4743.621319,-6545.730715,849.545103,4873.127326,-10234.237937,-6204.374874,2876.691863,577.122042,1452.595169,-25976.906833,-11727.066246,0.002188,-0.010312,1.003188,192.0,0.0,8.0,127.5,88.0,15.5,40.0,0.0,0.0,0.0,1770887250.168207,0.0
98.0,-16437.227003,-10486.030339,-443.123334,-22130.819813,4948.765629,4733.071295,-6569.155344,835.66467,4923.53051,-10078.379223,-6068.431564,2998.911202,682.219944,1567.349025,-25829.698244,-11597.470832,0.002188,-0.010312,1.003188,192.0,0.0,0.0,0.0,0.0,0.0,0.0,0.0,0.0,0.0,1770887250.168221,0.0
100.0,-16510.831298,-10557.511217,-505.149425,-22205.675805,4895.948457,4695.319199,-6628.56628,773.839745,4873.574361,-10239.602356,-6208.241726,2869.114622,561.2076,1449.689442,-25997.6269,-11736.789255,0.002188,-0.010312,1.003188,192.0,0.0,0.0,0.0,0.0,0.0,0.0,0.0,0.0,0.0,1770887250.168237,0.0
102.0,-16366.550787,-10415.801157,-385.880516,-22068.033763,5020.604136,4749.119848,-6511.309029,888.303028,4916.892042,-10125.161424,-6107.45771,2958.968634,649.36288,1517.325821,-25872.770056,-11642.911928,0.002188,-0.010312,1.003188,192.0,0.0,0.0,0.0,0.0,0.0,0.0,0.0,0.0,0.0,1770887250.168251,0.0
104.0,-16525.47169,-10572.28572,-511.452617,-22225.434747,4896.797824,4673.481545,-6641.105609,767.469498,4897.468376,-10159.158428,-6130.3906,2937.600367,639.773982,1502.864242,-25902.430821,-11666.783591,0.002188,-0.010312,1.003188,192.0,0.0,0.0,0.0,0.0,0.0,0.0,0.0,0.0,0.0,1770887250.168268,0.0
106.0,-16417.602172,-10464.215036,-421.911528,-22117.364063,4993.960857,4737.094609,-6545.887178,852.204961,4885.376082,-10238.216548,-6196.931743,2873.562619,584.520469,1436.434857,-25974.291679,-11735.582261,0.002188,-0.010312,1.003188,192.0,0.0,0.0,0.0,0.0,0.0,0.0,0.0,0.0,0.0,1770887250.168283,0.0
108.0,-16436.66821,-10481.738804,-439.658813,-22138.933496,4973.50901,4720.509615,-6568.507143,838.771562,4934.125237,-10088.526915,-6062.463649,2991.33396,700.794244,1558.028347,-25822.143355,-11606.389178,0.004,-0.01,1.008,192.0,0.0,16.0,127.5,88.0,15.5,64.0,0.0,0.0,0.0,1770887250.168299,0.0
110.0,-16504.572809,-10551.073915,-503.070712,-22212.850715,4911.348809,4691.519402,-6629.192129,774.376187,4874.20021,-10242.35162,-6206.6324,2868.309959,565.789707,1425.035468,-25991.636633,-11744.075923,0.004,-0.01,1.008,192.0,0.0,0.0,0.0,0.0,0.0,0.0,0.0,0.0,0.0,1770887250.168313,0.0
112.0,-16366.282566,-10411.822547,-386.774586,-22064.345725,5013.630392,4747.398764,-6510.794939,891.454624,4914.992144,-10126.636639,-6109.89405,2962.410803,661.723395,1531.094495,-25871.563062,-11649.013954,0.004,-0.01,1.008,192.0,0.0,0.0,0.0,0.0,0.0,0.0,0.0,0.0,0.0,1770887250.168331,0.0
114.0,-16529.539708,-10574.945578,-516.258242,-22221.836117,4885.152565,4677.303693,-6641.552644,766.620131,4899.256515,-10151.670593,-6126.724914,2948.239797,627.815798,1505.993486,-25905.470658,-11668.571731,0.004,-0.01,1.008,192.0,0.0,0.0,0.0,0.0,0.0,0.0,0.0,0.0,0.0,1770887250.168352,0.0
116.0,-16421.469023,-10464.639719,-427.141837,-22115.687682,4973.643121,4730.5679,-6549.552864,848.628682,4876.435384,-10234.573213,-6200.083339,2883.196221,569.991835,1441.486352,-25982.025383,-11736.141054,0.004,-0.01,1.008,192.0,0.0,0.0,0.0,0.0,0.0,0.0,0.0,0.0,0.0,1770887250.168365,0.0
118.0,-16446.950012,-10485.069214,-443.503313,-22135.357217,4955.851132,4719.079103,-6570.809373,833.764772,4920.647135,-10085.64354,-6070.599684,2997.34658,677.839002,1558.564789,-25830.659369,-11602.879954,-0.002,-0.014,1.01,192.0,127.5,120.0,127.5,72.0,15.5,72.0,0.0,0.0,0.0,1770887250.168382,0.0
120.0,-16523.281219,-10562.16038,-509.820939,-22213.230695,4902.072835,4687.89842,-6635.316507,762.842687,4866.935893,-10248.073667,-6215.59545,2863.392575,560.69351,1421.839168,-25994.654118,-11737.124531,-0.002,-0.014,1.01,192.0,0.0,0.0,0.0,0.0,0.0,0.0,0.0,0.0,0.0,1770887250.168396,0.0
122.0,-16367.646023,-10415.95762,-387.735711,-22064.613946,5024.292174,4757.434697,-6514.035942,884.547935,4913.852205,-10132.470445,-6117.96303,2955.258245,650.301653,1524.970117,-25870.557233,-11640.296774,-0.002,-0.014,1.01,192.0,0.0,0.0,0.0,0.0,0.0,0.0,0.0,0.0,0.0,1770887250.168413,0.0
124.0,-16524.82349,-10571.078726,-510.536195,-22215.801146,4901.87167,4687.831365,-6639.406876,762.976797,4908.018399,-10149.770695,-6129.116551,2945.892864,642.769115,1516.789379,-25895.054745,-11658.289928,-0.002,-0.014,1.01,192.0,0.0,0.0,0.0,0.0,0.0,0.0,0.0,0.0,0.0,1770887250.16843,0.0
126.0,-16414.696445,-10456.034297,-422.582081,-22113.720729,4988.372921,4742.079048,-6547.429448,848.60633,4884.906695,-10229.499367,-6203.860784,2878.144727,581.502984,1444.615596,-25973.710534,-11731.335429,-0.002,-0.014,1.01,192.0,0.0,0.0,0.0,0.0,0.0,0.0,0.0,0.0,0.0,1770887250.168446,0.0
128.0,-16433.941297,-10478.22958,-438.183598,-22127.824679,4960.81322,4727.773932,-6565.087326,843.443077,4931.152455,-10077.015767,-6065.123506,3000.788748,691.13829,1561.358757,-25828.223029,-11604.064596,-0.002,-0.014,1.01,192.0,0.0,0.0,127.5,72.0,15.5,56.0,0.0,0.0,0.0,1770887250.168477,0.0
130.0,-16513.267638,-10554.158456,-504.814149,-22210.392023,4904.866803,4691.988789,-6628.767446,777.863059,4873.30614,-10232.382742,-6203.726674,2879.932866,571.824678,1447.521323,-25992.575406,-11743.025391,-0.002,-0.014,1.01,192.0,0.0,0.0,0.0,0.0,0.0,0.0,0.0,0.0,0.0,1770887250.168495,0.0
132.0,-16360.337002,-10403.798271,-380.67256,-22068.614908,5018.212499,4758.664043,-6506.235183,899.568307,4915.483882,-10124.98261,-6108.396483,2962.88019,657.096583,1523.003164,-25878.156826,-11650.936204,-0.002,-0.014,1.01,192.0,0.0,0.0,0.0,0.0,0.0,0.0,0.0,0.0,0.0,1770887250.168512,0.0
134.0,-16523.057702,-10562.406249,-506.646992,-22213.320102,4888.482975,4673.861524,-6632.880167,777.550134,4909.538318,-10146.596747,-6120.332315,2951.257283,640.623348,1518.644574,-25905.224789,-11668.191751,-0.002,-0.014,1.01,192.0,0.0,0.0,0.0,0.0,0.0,0.0,0.0,0.0,0.0,1770887250.16853,0.0
136.0,-16414.316465,-10456.257815,-421.151569,-22115.106537,4978.359339,4736.267595,-6541.550939,858.239932,4882.425652,-10226.392475,-6192.66256,2887.398349,572.87521,1443.00627,-25980.259595,-11739.471464,-0.002,-0.014,1.01,192.0,0.0,0.0,0.0,0.0,0.0,0.0,0.0,0.0,0.0,1770887250.16855,0.0
138.0,-16432.264916,-10482.498763,-439.301186,-22134.843127,4955.627615,4721.001353,-6565.534361,840.40324,4923.306992,-10081.709633,-6064.78823,3000.051141,688.947819,1550.227588,-25830.637018,-11601.650608,0.004,-0.01,1.002,192.0,0.0,16.0,127.5,88.0,15.5,40.0,0.0,0.0,0.0,1770887250.168569,0.0
140.0,-16518.095615,-10557.690031,-506.803454,-22213.990654,4896.060216,4689.328931,-6630.957917,771.291646,4871.361538,-10244.497388,-6206.520642,2873.719081,555.530257,1445.062631,-25994.095325,-11737.571566,0.004,-0.01,1.002,192.0,0.0,0.0,0.0,0.0,0.0,0.0,0.0,0.0,0.0,1770887250.168591,0.0
142.0,-16376.229093,-10412.470748,-385.656999,-22071.654746,5017.586651,4756.920607,-6512.270154,886.179612,4914.410998,-10130.682305,-6112.106873,2955.034727,650.100487,1510.419132,-25879.810855,-11647.158759,0.004,-0.01,1.002,192.0,0.0,0.0,0.0,0.0,0.0,0.0,0.0,0.0,0.0,1770887250.16861,0.0
144.0,-16525.71756,-10568.284758,-512.994887,-22217.812803,4896.23903,4694.715702,-6638.803379,766.2178,4900.061178,-10150.150675,-6124.400332,2941.891902,635.281281,1515.068294,-25897.28992,-11658.558149,0.004,-0.01,1.002,192.0,0.0,0.0,0.0,0.0,0.0,0.0,0.0,0.0,0.0,1770887250.168629,0.0
146.0,-16415.992846,-10453.285033,-426.918319,-22114.435984,4983.723758,4750.595063,-6549.754029,850.327414,4884.83964,-10225.408998,-6200.508022,2884.403215,572.674045,1438.312404,-25978.471455,-11729.30142,0.004,-0.01,1.002,192.0,0.0,0.0,0.0,0.0,0.0,0.0,0.0,0.0,0.0,1770887250.168656,0.0
148.0,-16426.878146,-10468.148943,-436.730735,-22124.047235,4971.877333,4738.368659,-6565.489658,844.717126,4935.153417,-10069.438525,-6064.497657,3007.158996,694.446348,1574.233362,-25825.585523,-11599.862468,0.002,-0.01,1.0,192.0,0.0,8.0,127.5,88.0,15.5,32.0,0.0,0.0,0.0,1770887250.168675,0.0
150.0,-16500.393033,-10542.535549,-500.388503,-22199.931407,4911.058236,4701.600039,-6626.733437,779.584143,4889.757024,-10225.856033,-6201.200926,2885.610209,577.904353,1455.389137,-25990.83197,-11741.505473,0.002,-0.01,1.0,192.0,0.0,0.0,0.0,0.0,0.0,0.0,0.0,0.0,0.0,1770887250.168694,0.0
152.0,-16344.534319,-10394.410538,-378.817365,-22059.763617,5026.236776,4773.840877,-6505.8105,899.143624,4936.315708,-10112.085654,-6104.373169,2974.212524,669.322988,1535.453085,-25873.865291,-11648.365754,0.002,-0.01,1.0,192.0,0.0,0.0,0.0,0.0,0.0,0.0,0.0,0.0,0.0,1770887250.168713,0.0
154.0,-16511.568905,-10550.559825,-510.133864,-22214.840021,4896.663713,4694.939219,-6634.601251,776.276085,4915.126254,-10133.118645,-6116.756036,2959.728594,641.651528,1526.020649,-25898.943949,-11663.587292,0.002,-0.01,1.0,192.0,0.0,0.0,0.0,0.0,0.0,0.0,0.0,0.0,0.0,1770887250.168732,0.0
156.0,-16406.314541,-10443.00323,-426.024249,-22116.537048,4975.29715,4741.989641,-6548.837608,856.876475,4893.601524,-10219.329324,-6188.616894,2889.030026,580.251286,1444.682651,-25984.506426,-11741.684287,0.002,-0.01,1.0,192.0,0.0,0.0,0.0,0.0,0.0,0.0,0.0,0.0,0.0,1770887250.16875,0.0
158.0,-16423.525384,-10465.80201,-439.547055,-22126.885906,4959.762688,4731.037287,-6564.483829,847.734612,4940.31667,-10071.025499,-6054.908759,3004.52149,692.859375,1566.477307,-25832.782785,-11607.05973,-0.002,-0.008,1.006,192.0,127.5,120.0,127.5,96.0,15.5,56.0,0.0,0.0,0.0,1770887250.16877,0.0
160.0,-16514.96637,-10556.594796,-510.737361,-22214.080061,4898.854184,4700.84008,-6632.455484,770.509335,4876.189515,-10235.400228,-6205.067778,2877.138898,564.515658,1434.870235,-25997.470438,-11741.885452,-0.002,-0.008,1.006,192.0,0.0,0.0,0.0,0.0,0.0,0.0,0.0,0.0,0.0,1770887250.168788,0.0
162.0,-16373.189255,-10412.806024,-391.133176,-22069.53133,5014.747979,4765.481325,-6512.158395,886.447833,4914.299239,-10129.385904,-6119.5053,2955.057079,653.296787,1505.322934,-25881.420181,-11642.129617,-0.002,-0.008,1.006,192.0,0.0,0.0,0.0,0.0,0.0,0.0,0.0,0.0,0.0,1770887250.64886,102.0
164.0,-16526.611629,-10567.345985,-513.307811,-22215.577628,4892.52864,4682.936333,-6638.356345,766.307207,4894.272076,-10149.368364,-6130.211786,2945.669347,631.16856,1518.242242,-25901.559103,-11654.512483,-0.002,-0.008,1.006,192.0,0.0,0.0,0.0,0.0,0.0,0.0,0.0,0.0,0.0,1770887250.648942,10.0
166.0,-16425.335875,-10470.607635,-430.248729,-22119.733348,4976.347682,4735.798208,-6551.698631,844.270092,4873.999044,-10232.22628,-6205.693627,2878.994093,565.722652,1442.179256,-25982.673583,-11737.012772,-0.002,-0.008,1.006,192.0,0.0,0.0,0.0,0.0,0.0,0.0,0.0,0.0,0.0,1770887250.648995,0.0
168.0,-16442.479663,-10486.81265,-439.815276,-22135.737197,4963.003691,4730.70201,-6566.182562,835.374097,4931.264213,-10083.497773,-6071.404346,2991.915106,688.657247,1555.189676,-25829.050044,-11604.042244,-0.002,-0.008,1.006,192.0,0.0,0.0,127.5,96.0,15.5,48.0,0.0,0.0,0.0,1770887250.649049,0.0
170.0,-16521.984818,-10566.809543,-508.725704,-22211.196686,4906.543184,4694.335722,-6630.7344,770.844611,4866.220637,-10246.95608,-6211.259211,2867.751165,562.302835,1426.913014,-25991.368412,-11735.82813,-0.002,-0.008,1.006,192.0,0.0,0.0,0.0,0.0,0.0,0.0,0.0,0.0,0.0,1770887250.649098,0.0
172.0,-16372.675165,-10414.951791,-385.969923,-22070.850083,5022.258165,4760.183961,-6512.516023,889.130043,4911.326457,-10131.241099,-6115.549042,2956.420536,647.910017,1507.893384,-25878.84973,-11643.873053,-0.002,-0.008,1.006,192.0,0.0,0.0,0.0,0.0,0.0,0.0,0.0,0.0,0.0,1770887250.649161,0.0
174.0,-16526.119891,-10574.118563,-508.412779,-22219.466832,4896.551954,4682.086966,-6638.691621,767.827126,4903.190422,-10146.395582,-6124.668553,2948.083335,646.904188,1519.851568,-25897.28992,-11655.406553,-0.002,-0.008,1.006,192.0,0.0,0.0,0.0,0.0,0.0,0.0,0.0,0.0,0.0,1770887250.649184,0.0
176.0,-16418.540945,-10467.947777,-428.482941,-22121.007397,4969.820973,4734.322993,-6548.949367,847.287577,4878.894076,-10232.673315,-6205.268944,2880.804584,575.69153,1444.526189,-25985.601662,-11739.918499,-0.002,-0.008,1.006,192.0,0.0,0.0,0.0,0.0,0.0,0.0,0.0,0.0,0.0,1770887250.649203,0.0
178.0,-16428.509823,-10479.235408,-437.669508,-22136.005418,4957.371051,4721.381333,-6563.254483,841.856103,4929.163149,-10081.79904,-6067.448088,3001.034618,689.640723,1554.116792,-25833.162765,-11607.43971,0.0,-0.01,1.005,192.0,0.0,8.0,127.5,80.0,15.5,48.0,0.0,0.0,0.0,1770887250.649233,0.0
180.0,-16515.458109,-10558.785267,-510.044457,-22214.795317,4901.201117,4686.602019,-6631.293193,772.342178,4875.116631,-10239.803522,-6205.537165,2878.949389,560.514696,1431.718639,-25996.799886,-11745.81936,0.0,-0.01,1.005,192.0,0.0,0.0,0.0,0.0,0.0,0.0,0.0,0.0,0.0,1770887250.649253,0.0
182.0,-16368.093058,-10416.9858,-385.746406,-22067.452618,5024.180415,4752.517313,-6509.431482,888.83947,4914.120425,-10134.07977,-6118.454768,2961.583789,647.015947,1509.681524,-25884.460018,-11654.445428,0.0,-0.01,1.005,192.0,0.0,0.0,0.0,0.0,0.0,0.0,0.0,0.0,0.0,1770887250.649272,0.0
184.0,-16524.9576,-10571.615168,-512.681963,-22217.52223,4901.938725,4679.270646,-6637.52933,767.536553,4905.000914,-10146.999079,-6127.350763,2949.670309,652.8274,1507.133425,-25891.65728,-11657.820542,0.0,-0.01,1.005,192.0,0.0,0.0,0.0,0.0,0.0,0.0,0.0,0.0,0.0,1770887250.649292,0.0
186.0,-16419.144442,-10459.901149,-436.551921,-22122.504964,4983.053205,4733.719496,-6553.263253,845.454734,4877.575323,-10231.421617,-6207.481767,2879.284665,568.986007,1445.196741,-25983.612357,-11736.073999,0.0,-0.01,1.005,192.0,0.0,0.0,0.0,0.0,0.0,0.0,0.0,0.0,0.0,1770887250.649311,0.0
188.0,-16430.387369,-10476.888475,-439.055316,-22130.90922,4969.128069,4724.220005,-6563.589759,840.40324,4926.257423,-10076.367566,-6068.588027,3000.006437,686.064444,1569.897124,-25827.284256,-11602.119994,0.001,-0.013,1.0045,192.0,0.0,8.0,127.5,64.0,15.5,48.0,0.0,0.0,0.0,1770887250.649329,0.0
190.0,-16513.468804,-10561.243959,-510.916175,-22215.577628,4903.525699,4692.681693,-6631.851987,769.324692,4877.642379,-10241.569309,-6205.872441,2872.445032,570.058891,1438.893549,-25989.580272,-11735.44815,0.001,-0.013,1.0045,192.0,0.0,0.0,0.0,0.0,0.0,0.0,0.0,0.0,0.0,1770887250.649352,0.0
192.0,-16358.906491,-10405.58641,-386.484013,-22066.267975,5021.565261,4762.553246,-6509.14091,895.008551,4916.601469,-10130.034105,-6114.364399,2961.494382,643.037336,1509.569765,-25879.855559,-11645.683544,0.001,-0.013,1.0045,192.0,0.0,0.0,0.0,0.0,0.0,0.0,0.0,0.0,0.0,1770887250.649371,0.0
194.0,-16508.797289,-10553.644366,-509.642125,-22209.609712,4902.542222,4695.654475,-6633.729533,778.019521,4917.562594,-10132.425741,-6113.157405,2960.95794,653.252083,1522.265556,-25891.590225,-11647.136408,0.001,-0.013,1.0045,192.0,0.0,0.0,0.0,0.0,0.0,0.0,0.0,0.0,0.0,1770887250.649386,0.0
196.0,-16414.204706,-10458.224768,-433.176808,-22116.022958,4986.897705,4741.833179,-6551.922149,848.047536,4888.527678,-10221.050408,-6201.647961,2885.766671,580.385397,1441.866331,-25978.694973,-11730.843691,0.001,-0.013,1.0045,192.0,0.0,0.0,0.0,0.0,0.0,0.0,0.0,0.0,0.0,1770887250.649406,0.0
198.0,-16426.386407,-10475.368556,-436.373107,-22122.19204,4966.71408,4727.170435,-6558.180637,847.086411,4933.27587,-10069.460877,-6065.436431,3007.270754,698.290849,1578.100214,-25826.032558,-11597.917866,0.0035,-0.0135,1.00725,192.0,0.0,24.0,127.5,72.0,15.5,72.0,0.0,0.0,0.0,1770887250.649426,0.0
200.0,-16520.241382,-10567.27893,-511.609079,-22214.102413,4896.462547,4685.775004,-6630.644993,771.98455,4873.283788,-10239.557652,-6209.269906,2877.29536,573.210487,1441.799276,-25991.815447,-11736.878662,0.0035,-0.0135,1.00725,192.0,0.0,0.0,0.0,0.0,0.0,0.0,0.0,0.0,0.0,1770887250.649446,0.0
202.0,-16361.186369,-10406.659294,-386.551069,-22065.418609,5022.436979,4762.486191,-6505.654038,896.796691,4921.876481,-10125.787273,-6115.750207,2964.221294,650.279301,1517.102303,-25882.470713,-11650.131542,0.0035,-0.0135,1.00725,192.0,0.0,0.0,0.0,0.0,0.0,0.0,0.0,0.0,0.0,1770887250.649464,0.0
204.0,-16524.197641,-10567.703613,-514.760675,-22220.003273,4899.770606,4680.567048,-6637.350516,766.2178,4910.72296,-10140.271204,-6126.076713,2951.145524,642.009156,1521.796169,-25897.222864,-11654.892463,0.0035,-0.0135,1.00725,192.0,0.0,0.0,0.0,0.0,0.0,0.0,0.0,0.0,0.0,1770887250.649477,0.0
206.0,-16423.123052,-10472.529885,-437.758915,-22124.136642,4982.114432,4733.51833,-6553.643233,839.419763,4886.11369,-10232.60626,-6211.102749,2871.90859,564.828582,1437.507741,-25984.864054,-11740.365534,0.0035,-0.0135,1.00725,192.0,0.0,0.0,0.0,0.0,0.0,0.0,0.0,0.0,0.0,1770887250.649491,0.0
208.0,-16434.813015,-10482.252894,-437.982433,-22132.384435,4967.451688,4720.844891,-6563.187428,837.497513,4933.566443,-10080.212066,-6074.198314,2994.105577,692.993485,1561.112888,-25828.737119,-11604.556335,0.00375,-0.01275,1.004625,192.0,0.0,16.0,127.5,80.0,15.5,40.0,0.0,0.0,0.0,1770887250.649505,0.0
210.0,-16522.700074,-10568.105944,-510.08916,-22216.561105,4899.457681,4687.853716,-6632.544891,765.793117,4877.53062,-10240.630536,-6212.823834,2868.667587,572.383472,1436.546616,-25990.876674,-11744.746476,0.00375,-0.01275,1.004625,192.0,0.0,0.0,0.0,0.0,0.0,0.0,0.0,0.0,0.0,1770887250.649522,0.0
212.0,-16376.45261,-10422.797253,-393.837737,-22072.973498,5018.033685,4751.667947,-6512.761892,883.363293,4919.68601,-10135.800855,-6127.998963,2949.983233,644.065516,1506.664038,-25882.068382,-11654.534835,0.00375,-0.01275,1.004625,192.0,0.0,0.0,0.0,0.0,0.0,0.0,0.0,0.0,0.0,1770887250.649536,0.0
214.0,-16529.584411,-10573.649177,-517.085256,-22216.292884,4896.708417,4693.464004,-6638.445751,764.876695,4897.356617,-10143.378096,-6134.10099,2946.250492,631.749705,1504.473568,-25894.428896,-11653.797228,0.00375,-0.01275,1.004625,192.0,0.0,0.0,0.0,0.0,0.0,0.0,0.0,0.0,0.0,1770887250.649549,0.0
216.0,-16430.029742,-10474.206266,-437.17777,-22124.293104,4974.336025,4740.715592,-6555.341966,838.235121,4878.491745,-10232.807426,-6213.449682,2873.45086,564.180382,1448.214227,-25983.52295,-11731.648354,0.00375,-0.01275,1.004625,192.0,0.0,0.0,0.0,0.0,0.0,0.0,0.0,0.0,0.0,1770887250.649566,0.0
218.0,-16433.494262,-10476.597902,-440.955215,-22128.271714,4971.698519,4724.979964,-6562.114544,840.872626,4930.660716,-10077.708671,-6073.058375,2996.363103,687.941991,1564.242132,-25828.781823,-11600.175393,0.003875,-0.013375,1.001313,192.0,0.0,16.0,127.5,72.0,15.5,24.0,0.0,0.0,0.0,1770887250.649579,0.0
220.0,-16519.637885,-10565.781363,-517.733457,-22215.108241,4898.071873,4692.569934,-6635.271804,765.860172,4873.082623,-10236.696629,-6211.013342,2873.808488,559.955902,1438.51357,-25992.865979,-11738.689153,0.003875,-0.013375,1.001313,192.0,0.0,0.0,0.0,0.0,0.0,0.0,0.0,0.0,0.0,1770887250.649592,0.0
222.0,-16366.573139,-10410.369684,-395.312952,-22068.927833,5027.779046,4760.854514,-6512.538375,884.525583,4922.278812,-10128.268317,-6122.366324,2954.699451,647.597092,1515.872957,-25883.990632,-11651.27148,0.003875,-0.013375,1.001313,192.0,0.0,0.0,0.0,0.0,0.0,0.0,0.0,0.0,0.0,1770887250.649606,0.0
224.0,-16523.057702,-10564.686127,-517.241718,-22212.560143,4896.328437,4682.77987,-6636.031763,767.357739,4905.827928,-10136.203186,-6127.57428,2955.302948,642.970281,1528.948728,-25895.658242,-11654.736001,0.003875,-0.013375,1.001313,192.0,0.0,0.0,0.0,0.0,0.0,0.0,0.0,0.0,0.0,1770887250.64962,0.0
226.0,-16431.080274,-10468.37246,-440.910511,-22128.0929,4975.833592,4736.401705,-6555.52078,835.351746,4884.683178,-10228.962926,-6214.209642,2879.798756,574.931571,1444.235616,-25989.580272,-11742.980688,0.003875,-0.013375,1.001313,192.0,0.0,0.0,0.0,0.0,0.0,0.0,0.0,0.0,0.0,1770887250.649633,0.0
228.0,-16434.857718,-10475.010929,-443.100982,-22128.875211,4975.230095,4723.616507,-6562.092192,832.915405,4930.124275,-10070.734927,-6080.792079,3000.609934,687.316142,1568.891295,-25828.223029,-11606.590343,0.004938,-0.014688,1.004656,192.0,0.0,24.0,127.5,64.0,15.5,64.0,0.0,0.0,0.0,1770887250.649646,0.0
230.0,-16523.840013,-10561.892159,-517.308774,-22217.477526,4900.396454,4690.737091,-6635.383562,760.294588,4875.563666,-10232.22628,-6217.562403,2877.004788,569.567152,1445.844942,-25989.088534,-11740.365534,0.004938,-0.014688,1.004656,192.0,0.0,0.0,0.0,0.0,0.0,0.0,0.0,0.0,0.0,1770887250.64966,0.0
232.0,-16365.544959,-10408.514489,-391.982543,-22064.569243,5027.041438,4770.778688,-6509.766759,886.358426,4926.458588,-10126.435474,-6126.277879,2959.192152,656.090755,1527.093533,-25880.056725,-11648.656326,0.004938,-0.014688,1.004656,192.0,0.0,0.0,0.0,0.0,0.0,0.0,0.0,0.0,0.0,1770887250.649674,0.0
234.0,-16527.952734,-10572.755107,-520.639184,-22218.93039,4906.520832,4697.867298,-6638.356345,759.065242,4913.718094,-10133.94566,-6127.328411,2951.458448,642.545598,1522.332611,-25887.835132,-11644.767123,0.004938,-0.014688,1.004656,192.0,0.0,0.0,0.0,0.0,0.0,0.0,0.0,0.0,0.0,1770887250.649687,0.0
236.0,-16428.889803,-10472.485181,-443.905645,-22127.57881,4979.946313,4735.172359,-6558.381803,829.450885,4880.659864,-10237.076609,-6223.038581,2867.371186,569.857725,1452.48341,-25982.405362,-11736.252813,0.004938,-0.014688,1.004656,192.0,0.0,0.0,0.0,0.0,0.0,0.0,0.0,0.0,0.0,1770887250.6497,0.0
238.0,-16432.086102,-10474.787411,-443.212741,-22128.98697,4964.054223,4724.063542,-6560.773439,838.391583,4932.538263,-10075.451145,-6078.579256,2996.676027,693.8205,1562.990435,-25822.948017,-11601.985884,0.004938,-0.014688,1.004656,192.0,0.0,0.0,127.5,72.0,15.5,32.0,0.0,0.0,0.0,1770887250.649714,0.0
240.0,-16530.21026,-10574.766764,-518.828692,-22226.127651,4878.715262,4670.240542,-6634.243624,765.167268,4876.681254,-10244.787961,-6213.740255,2868.689939,559.710033,1435.83136,-25995.168208,-11746.199339,0.004938,-0.014688,1.004656,192.0,0.0,0.0,0.0,0.0,0.0,0.0,0.0,0.0,0.0,1770887250.649727,0.0
242.0,-16372.272834,-10418.304553,-393.368351,-22078.136751,5012.289287,4744.873016,-6509.900869,889.487671,4913.807501,-10140.673535,-6124.75796,2948.083335,636.242406,1509.748579,-25890.852617,-11661.240359,0.004938,-0.014688,1.004656,192.0,0.0,0.0,0.0,0.0,0.0,0.0,0.0,0.0,0.0,1770887250.649741,0.0
244.0,-16518.29678,-10565.043755,-516.414704,-22217.321064,4893.243896,4680.365882,-6636.232929,768.989416,4905.313838,-10146.149712,-6124.579146,2946.943396,637.874083,1517.57169,-25893.691289,-11656.099457,0.004938,-0.014688,1.004656,192.0,0.0,0.0,0.0,0.0,0.0,0.0,0.0,0.0,0.0,1770887250.649754,0.0
246.0,-16418.630352,-10473.356899,-439.61411,-22124.449566,4974.067804,4726.186958,-6555.1408,843.599539,4886.76189,-10231.555728,-6209.851052,2875.75309,566.527315,1447.633081,-25989.200293,-11739.896147,0.004938,-0.014688,1.004656,192.0,0.0,0.0,0.0,0.0,0.0,0.0,0.0,0.0,0.0,1770887250.649768,0.0
248.0,-16430.990867,-10475.748536,-440.530531,-22128.450528,4971.899685,4726.768103,-6560.326405,845.968824,4935.667507,-10075.607607,-6066.151686,2999.045312,688.277267,1569.33833,-25827.775994,-11601.583553,0.004938,-0.014688,1.004656,192.0,0.0,0.0,0.0,0.0,0.0,0.0,0.0,0.0,0.0,1770887250.649781,0.0
250.0,-16523.616496,-10566.742488,-516.37,-22219.288018,4906.453777,4688.144289,-6633.997754,765.055509,4880.659864,-10236.45076,-6203.145528,2869.338139,571.511754,1437.194817,-25988.39563,-11733.14592,0.004,-0.01,0.996,192.0,0.0,16.0,127.5,88.0,15.5,16.0,0.0,0.0,0.0,1770887250.649794,0.0
252.0,-16371.982261,-10416.941096,-395.894098,-22075.454542,5026.370886,4752.852589,-6511.823119,881.306932,4920.378914,-10137.700753,-6126.836673,2946.071678,640.869217,1518.286946,-25881.956623,-11652.791399,0.004,-0.01,0.996,192.0,0.0,0.0,0.0,0.0,0.0,0.0,0.0,0.0,0.0,1770887250.649807,0.0
