Sample_index,EXG Channel 0,EXG Channel 1,EXG Channel 2,EXG Channel 3,EXG Channel 4,EXG Channel 5,EXG Channel 6,EXG Channel 7,EXG Channel 8,EXG Channel 9,EXG Channel 10,EXG Channel 11,EXG Channel 12,EXG Channel 13,EXG Channel 14,EXG Channel 15,Accel Channel 0,Accel Channel 1,Accel Channel 2,Not Used,Digital Channel 0 (D11),Digital Channel 1 (D12),Digital Channel 2 (D13),Digital Channel 3 (D17),Not Used,Digital Channel 4 (D18),Analog Channel 0,Analog Channel 1,Analog Channel 2,Timestamp,Marker Channel
90.000000,15351.423961,14324.987152,3430.813960,-3203.720236,6337.814789,-10241.569309,600.993705,-17970.959004,12722.612944,11189.953827,-9054.289347,535.480742,21494.398593,12556.137151,-484.541116,3558.196552,0.004000,-0.010000,1.008000,192.000000,0.000000,0.000000,0.000000,0.000000,0.000000,0.000000,0.000000,0.000000,0.000000,1769524053.347686,111.000000
92.000000,15323.216060,14295.348739,3439.620547,-3191.717349,6312.736131,-10234.662620,612.214281,-17956.542129,12594.023358,11216.328885,-8957.953329,603.921783,21530.921344,12608.596695,-406.444121,3608.197404,0.004000,-0.010000,1.008000,192.000000,0.000000,0.000000,0.000000,0.000000,0.000000,0.000000,0.000000,0.000000,0.000000,1769524053.347773,0.000000
94.000000,15332.402627,14305.429376,3382.534192,-3252.469391,6310.612716,-10273.308787,558.279521,-18027.911249,12668.007632,11179.828486,-9039.023106,544.957882,21483.289776,12555.332488,-475.421605,3563.136287,0.002000,-0.014000,1.008000,192.000000,0.000000,8.000000,127.500000,72.000000,15.500000,64.000000,0.000000,0.000000,0.000000,1769524053.347840,0.000000
96.000000,15338.929336,14316.448786,3467.962559,-3167.152782,6329.432884,-10220.961001,642.187970,-17920.421710,12663.805504,11204.750681,-8997.650027,573.970446,21513.442280,12586.155544,-453.293378,3568.433651,0.002000,-0.014000,1.008000,192.000000,0.000000,0.000000,0.000000,0.000000,0.000000,0.000000,0.000000,0.000000,0.000000,1769524053.347880,0.000000
98.000000,15306.385196,14273.779306,3391.720759,-3243.126362,6295.905268,-10277.332101,568.963655,-18022.345665,12604.439271,11192.211353,-8983.076690,587.739120,21508.100213,12588.100146,-436.864845,3576.547334,0.002000,-0.014000,1.008000,192.000000,0.000000,0.000000,0.000000,0.000000,0.000000,0.000000,0.000000,0.000000,0.000000,1769524053.347904,0.000000
100.000000,15325.160661,14297.941541,3418.967535,-3214.918460,6308.489300,-10264.122220,596.724522,-17987.655757,12684.927903,11159.242530,-9072.751888,514.939489,21471.845683,12531.617288,-489.749073,3559.470601,0.002000,-0.014000,1.008000,192.000000,0.000000,0.000000,0.000000,0.000000,0.000000,0.000000,0.000000,0.000000,0.000000,1769524053.347928,0.000000
102.000000,15322.634914,14284.485791,3442.593329,-3192.611419,6314.434864,-10244.229167,615.768208,-17959.760780,12572.655090,11194.692396,-8969.397422,593.036484,21514.492812,12597.554934,-412.836720,3603.637648,0.002000,-0.014000,1.008000,192.000000,0.000000,0.000000,0.000000,0.000000,0.000000,0.000000,0.000000,0.000000,0.000000,1769524053.347974,0.000000
104.000000,15341.119807,14307.686902,3385.842250,-3249.921292,6316.602983,-10271.185371,561.118193,-18029.654685,12667.225321,11182.644806,-9036.698525,548.780030,21494.420945,12565.524884,-483.244715,3554.061479,0.004000,-0.018000,1.006000,192.000000,0.000000,16.000000,127.500000,56.000000,15.500000,56.000000,0.000000,0.000000,0.000000,1769524053.347998,0.000000
106.000000,15306.720472,14285.290454,3458.194847,-3179.021559,6316.424169,-10244.430333,632.532016,-17941.544109,12639.285641,11190.132641,-9012.692751,560.559399,21504.702747,12574.465582,-445.246750,3585.420976,0.004000,-0.018000,1.006000,192.000000,0.000000,0.000000,0.000000,0.000000,0.000000,0.000000,0.000000,0.000000,0.000000,1769524053.348022,0.000000
108.000000,15310.095586,14274.114582,3396.414625,-3241.964071,6302.051997,-10273.398194,568.963655,-18019.506993,12585.552047,11183.404766,-8994.274914,571.668216,21500.187695,12576.499590,-419.899871,3591.165375,0.004000,-0.018000,1.006000,192.000000,0.000000,0.000000,0.000000,0.000000,0.000000,0.000000,0.000000,0.000000,0.000000,1769524053.348045,0.000000
110.000000,15335.531871,14304.915286,3426.589480,-3211.096312,6331.980983,-10258.199007,599.384379,-17979.676185,12697.936618,11173.659405,-9065.487571,522.427323,21479.087648,12542.234366,-482.596515,3553.033299,0.004000,-0.018000,1.006000,192.000000,0.000000,0.000000,0.000000,0.000000,0.000000,0.000000,0.000000,0.000000,0.000000,1769524053.348120,0.000000
112.000000,15313.247182,14282.272969,3438.234739,-3195.517146,6314.188995,-10247.738391,614.024772,-17961.615975,12584.792088,11199.274504,-8965.262349,596.769225,21519.141974,12598.404300,-402.957249,3603.660000,0.004000,-0.018000,1.006000,192.000000,0.000000,0.000000,0.000000,0.000000,0.000000,0.000000,0.000000,0.000000,0.000000,1769524053.348145,0.000000
114.000000,15326.390007,14294.074690,3379.404948,-3255.062193,6317.228832,-10283.590589,558.748908,-18034.437959,12659.111638,11173.547646,-9045.303946,540.822809,21482.485113,12551.420933,-470.794793,3560.632892,0.008000,-0.021000,1.007000,192.000000,0.000000,48.000000,127.500000,32.000000,15.500000,64.000000,0.000000,0.000000,0.000000,1769524053.348169,0.000000
116.000000,15328.088740,14294.454669,3455.423231,-3176.339349,6322.593251,-10238.864748,635.638909,-17937.364332,12646.996992,11192.434870,-9012.782158,563.241609,21503.361643,12577.997157,-444.129162,3577.508459,0.008000,-0.021000,1.007000,192.000000,0.000000,0.000000,0.000000,0.000000,0.000000,0.000000,0.000000,0.000000,0.000000,1769524053.348193,0.000000
118.000000,15323.551336,14274.583968,3390.916096,-3243.327527,6307.394064,-10271.028909,568.740138,-18026.033703,12589.798878,11183.047138,-9000.309885,571.735271,21496.991396,12580.053518,-429.064087,3584.795127,0.008000,-0.021000,1.007000,192.000000,0.000000,0.000000,0.000000,0.000000,0.000000,0.000000,0.000000,0.000000,0.000000,1769524053.348217,0.000000
120.000000,15322.903135,14302.568353,3423.236719,-3211.744513,6333.143274,-10255.114467,597.328019,-17985.577045,12699.143612,11173.257074,-9072.885999,517.264070,21478.730020,12544.760113,-485.256372,3548.071211,0.008000,-0.021000,1.007000,192.000000,0.000000,0.000000,0.000000,0.000000,0.000000,0.000000,0.000000,0.000000,0.000000,1769524053.348241,0.000000
122.000000,15305.647588,14283.971701,3435.865454,-3196.679437,6319.285192,-10246.240824,610.694362,-17967.628594,12581.618140,11194.468879,-8970.157381,593.774091,21516.280951,12601.310027,-403.739560,3598.384988,0.008000,-0.021000,1.007000,192.000000,0.000000,0.000000,0.000000,0.000000,0.000000,0.000000,0.000000,0.000000,0.000000,1769524053.348264,0.000000
124.000000,15316.935219,14291.012501,3374.711081,-3255.352766,6319.173434,-10281.958912,556.044347,-18041.031723,12657.301147,11177.593312,-9052.881188,536.352460,21481.501637,12557.455904,-469.185468,3555.246121,0.008000,-0.025500,1.007500,192.000000,0.000000,32.000000,127.500000,8.000000,15.500000,64.000000,0.000000,0.000000,0.000000,1769524053.348288,0.000000
126.000000,15326.814690,14298.992073,3453.769201,-3174.081823,6324.135521,-10232.829777,635.169522,-17938.303106,12642.660754,11193.910085,-9017.051341,563.219257,21503.249884,12580.142925,-443.682127,3578.648398,0.008000,-0.025500,1.007500,192.000000,0.000000,0.000000,0.000000,0.000000,0.000000,0.000000,0.000000,0.000000,0.000000,1769524053.348311,0.000000
128.000000,15327.507595,14287.570332,3391.966628,-3237.873702,6311.439730,-10263.809295,571.914085,-18017.741205,12594.559800,11186.086975,-8997.135937,577.658484,21502.422869,12590.022396,-429.332307,3588.706683,0.008000,-0.025500,1.007500,192.000000,0.000000,0.000000,0.000000,0.000000,0.000000,0.000000,0.000000,0.000000,0.000000,1769524053.348335,0.000000
130.000000,15344.181996,14323.869565,3428.176454,-3204.122568,6347.537797,-10239.669411,604.279411,-17972.121295,12701.512897,11186.422251,-9062.201865,532.843236,21491.559922,12558.439381,-484.675227,3541.164522,0.008000,-0.025500,1.007500,192.000000,0.000000,0.000000,0.000000,0.000000,0.000000,0.000000,0.000000,0.000000,0.000000,1769524053.348358,0.000000
132.000000,15323.886612,14282.809410,3430.813960,-3196.634733,6307.125843,-10243.312745,612.013115,-17968.254443,12586.312006,11207.455243,-8965.619977,602.781844,21524.729910,12611.301257,-409.305144,3590.159546,0.008000,-0.025500,1.007500,192.000000,0.000000,0.000000,0.000000,0.000000,0.000000,0.000000,0.000000,0.000000,0.000000,1769524053.348382,0.000000
134.000000,15319.729187,14292.532419,3372.744128,-3260.024281,6305.851794,-10280.528400,555.597312,-18042.864566,12649.053353,11165.813943,-9057.284481,531.971518,21479.802904,12550.102180,-478.908477,3568.031319,0.007000,-0.020750,1.006750,192.000000,0.000000,24.000000,127.500000,64.000000,15.500000,56.000000,0.000000,0.000000,0.000000,1769524053.348406,0.000000
136.000000,15327.731112,14300.959027,3452.361042,-3178.596876,6317.318239,-10234.394399,635.862426,-17937.163167,12644.583004,11192.144298,-9018.593612,560.492344,21501.461744,12575.806686,-449.024194,3579.855392,0.007000,-0.020750,1.006750,192.000000,0.000000,0.000000,0.000000,0.000000,0.000000,0.000000,0.000000,0.000000,0.000000,1769524053.348429,0.000000
138.000000,15312.934257,14286.340986,3392.860698,-3242.075830,6302.454329,-10270.626577,574.015149,-18014.790775,12589.664768,11180.320225,-8993.649065,576.630303,21498.108983,12578.444192,-431.500427,3586.873840,0.007000,-0.020750,1.006750,192.000000,0.000000,0.000000,0.000000,0.000000,0.000000,0.000000,0.000000,0.000000,0.000000,1769524053.348452,0.000000
140.000000,15341.946821,14318.013408,3423.236719,-3213.867928,6330.371658,-10255.360336,600.814891,-17977.910397,12700.283551,11177.459202,-9062.537141,525.176588,21478.998241,12542.569642,-489.771425,3547.378307,0.007000,-0.020750,1.006750,192.000000,0.000000,0.000000,0.000000,0.000000,0.000000,0.000000,0.000000,0.000000,0.000000,1769524053.348475,0.000000
142.000000,15318.991580,14290.476059,3436.960690,-3198.445225,6313.920774,-10244.363277,612.907185,-17962.532397,12582.579265,11197.978103,-8965.619977,591.807138,21517.197373,12599.477184,-405.862976,3598.921430,0.007000,-0.020750,1.006750,192.000000,0.000000,0.000000,0.000000,0.000000,0.000000,0.000000,0.000000,0.000000,0.000000,1769524053.348499,0.000000
144.000000,15333.699028,14304.378844,3379.427299,-3259.040804,6314.747788,-10277.779135,555.910236,-18035.332028,12654.618937,11170.641919,-9046.510940,533.044402,21477.992413,12551.040954,-468.939599,3558.017738,0.007000,-0.020750,1.006750,192.000000,0.000000,0.000000,127.500000,64.000000,15.500000,56.000000,0.000000,0.000000,0.000000,1769524053.348522,0.000000
146.000000,15339.957516,14304.177678,3457.032556,-3178.663931,6321.833291,-10236.473112,634.744839,-17933.698646,12654.484827,11196.905219,-9007.395388,565.297969,21506.446183,12581.841657,-443.749183,3571.093508,0.007000,-0.020750,1.006750,192.000000,0.000000,0.000000,0.000000,0.000000,0.000000,0.000000,0.000000,0.000000,0.000000,1769524053.348545,0.000000
148.000000,15331.329743,14279.099021,3388.770329,-3248.133153,6294.921791,-10279.589627,568.963655,-18022.792700,12585.060309,11180.230818,-8997.627675,570.416518,21494.264483,12575.270245,-428.885273,3586.337398,0.007000,-0.020750,1.006750,192.000000,0.000000,0.000000,0.000000,0.000000,0.000000,0.000000,0.000000,0.000000,0.000000,1769524053.348569,0.000000
150.000000,15328.848699,14307.530440,3415.860643,-3217.310097,6318.748751,-10267.899664,595.539879,-17987.901627,12691.119336,11165.992757,-9073.690662,512.614907,21467.621203,12533.651296,-487.558602,3547.355956,0.007000,-0.020750,1.006750,192.000000,0.000000,0.000000,0.000000,0.000000,0.000000,0.000000,0.000000,0.000000,0.000000,1769524053.348592,0.000000
152.000000,15321.562031,14289.827858,3435.731344,-3193.483137,6306.120015,-10250.979394,614.158882,-17960.945423,12578.757117,11196.815812,-8971.006748,590.957772,21509.687186,12598.337245,-408.992220,3598.988485,0.007000,-0.020750,1.006750,192.000000,0.000000,0.000000,0.000000,0.000000,0.000000,0.000000,0.000000,0.000000,0.000000,1769524053.348615,0.000000
154.000000,15335.777740,14303.820050,3378.220305,-3250.748307,6311.305620,-10280.640159,557.832486,-18031.152252,12664.476057,11180.431984,-9042.778199,540.733402,21483.155666,12558.394677,-472.627637,3556.296653,0.005500,-0.022375,1.009375,192.000000,0.000000,16.000000,127.500000,32.000000,15.500000,80.000000,0.000000,0.000000,0.000000,1769524053.348638,0.000000
156.000000,15355.581386,14316.940524,3457.054908,-3166.079899,6332.316259,-10220.201042,637.941138,-17925.048521,12669.818124,11211.210336,-9004.333199,574.126908,21510.782422,12590.268265,-448.845380,3569.975921,0.005500,-0.022375,1.009375,192.000000,0.000000,0.000000,0.000000,0.000000,0.000000,0.000000,0.000000,0.000000,0.000000,1769524053.348662,0.000000
158.000000,15330.636839,14286.788021,3385.506974,-3236.800818,6298.945105,-10261.931749,571.556457,-18017.763557,12608.060254,11207.321132,-8987.882315,582.218240,21511.855306,12597.599637,-447.973662,3587.633799,0.005500,-0.022375,1.009375,192.000000,0.000000,0.000000,0.000000,0.000000,0.000000,0.000000,0.000000,0.000000,0.000000,1769524053.348686,0.000000
160.000000,15349.568766,14313.096024,3413.133730,-3216.214861,6321.341553,-10254.242749,595.673990,-17988.125144,12698.473060,11177.392146,-9074.249455,512.324335,21474.214968,12547.419971,-493.995904,3558.643586,0.005500,-0.022375,1.009375,192.000000,0.000000,0.000000,0.000000,0.000000,0.000000,0.000000,0.000000,0.000000,0.000000,1769524053.348708,0.000000
162.000000,15323.685446,14284.463440,3430.813960,-3197.215879,6301.180279,-10242.664545,611.074342,-17965.862807,12583.719204,11204.728330,-8970.537361,590.667199,21513.196410,12605.243934,-410.422732,3607.504500,0.005500,-0.022375,1.009375,192.000000,0.000000,0.000000,0.000000,0.000000,0.000000,0.000000,0.000000,0.000000,0.000000,1769524053.348732,0.000000
164.000000,15326.255897,14295.728719,3375.985131,-3261.275978,6313.317277,-10278.226170,553.540951,-18042.752807,12655.088324,11173.927626,-9051.473028,526.070658,21479.087648,12555.712468,-471.375939,3559.425898,0.003750,-0.025188,1.010687,192.000000,0.000000,8.000000,127.500000,16.000000,15.500000,80.000000,0.000000,0.000000,0.000000,1769524053.348756,0.000000
166.000000,15329.206327,14304.356492,3456.920797,-3176.875791,6323.219099,-10233.455626,633.560197,-17938.459568,12659.983356,11202.962542,-9013.296248,551.931626,21508.927227,12582.132230,-440.016441,3573.172220,0.003750,-0.025188,1.010687,192.000000,0.000000,0.000000,0.000000,0.000000,0.000000,0.000000,0.000000,0.000000,0.000000,1769524053.348779,0.000000
168.000000,15305.893458,14273.533436,3393.754768,-3245.853275,6297.671056,-10272.504124,569.231876,-18024.469081,12586.267303,11185.461126,-8997.717082,567.622550,21501.215875,12581.461678,-421.620956,3590.517174,0.003750,-0.025188,1.010687,192.000000,0.000000,0.000000,0.000000,0.000000,0.000000,0.000000,0.000000,0.000000,0.000000,1769524053.348802,0.000000
170.000000,15345.053714,14306.412853,3422.767332,-3219.455864,6325.789550,-10262.937577,595.875155,-17988.661586,12696.997845,11168.876132,-9072.885999,509.351553,21480.942843,12539.507453,-479.914305,3544.629043,0.003750,-0.025188,1.010687,192.000000,0.000000,0.000000,0.000000,0.000000,0.000000,0.000000,0.000000,0.000000,0.000000,1769524053.348826,0.000000
172.000000,15317.583420,14283.323501,3439.665251,-3199.719274,6311.484434,-10249.638289,611.074342,-17965.996917,12589.709471,11199.766242,-8970.202085,583.715806,21519.276085,12598.873687,-400.297391,3596.194517,0.003750,-0.025188,1.010687,192.000000,0.000000,0.000000,0.000000,0.000000,0.000000,0.000000,0.000000,0.000000,0.000000,1769524053.348850,0.000000
174.000000,15340.896289,14300.422585,3381.662474,-3258.034975,6313.741960,-10279.679034,552.378661,-18039.891784,12661.123295,11176.118097,-9046.041554,527.992908,21489.905893,12555.891282,-465.855058,3557.525999,0.004875,-0.026594,1.007344,192.000000,0.000000,24.000000,127.500000,16.000000,15.500000,48.000000,0.000000,0.000000,0.000000,1769524053.348873,0.000000
176.000000,15336.761217,14311.263181,3461.480553,-3173.321864,6329.119960,-10231.421617,633.381383,-17933.676295,12659.648080,11204.080129,-9011.329295,558.592446,21516.325655,12582.981596,-438.027136,3576.592037,0.004875,-0.026594,1.007344,192.000000,0.000000,0.000000,0.000000,0.000000,0.000000,0.000000,0.000000,0.000000,0.000000,1769524053.348897,0.000000
178.000000,15325.965324,14298.053300,3399.722683,-3238.074867,6308.444596,-10269.888970,574.149260,-18010.208668,12608.529640,11197.754585,-8983.076690,581.033597,21517.264428,12592.525791,-421.911528,3583.722244,0.004875,-0.026594,1.007344,192.000000,0.000000,0.000000,0.000000,0.000000,0.000000,0.000000,0.000000,0.000000,0.000000,1769524053.348920,0.000000
180.000000,15349.367601,14307.686902,3419.816902,-3218.606498,6323.822597,-10262.199970,597.238612,-17983.811257,12704.284514,11178.397975,-9064.302929,516.258242,21481.054602,12542.815512,-487.759768,3550.239331,0.004875,-0.026594,1.007344,192.000000,0.000000,0.000000,0.000000,0.000000,0.000000,0.000000,0.000000,0.000000,0.000000,1769524053.348944,0.000000
182.000000,15337.521176,14296.756899,3442.794495,-3197.640562,6314.792492,-10244.184464,616.125836,-17955.335135,12588.748346,11203.901315,-8964.435335,589.504908,21516.638579,12598.381948,-404.924203,3601.827157,0.004875,-0.026594,1.007344,192.000000,0.000000,0.000000,0.000000,0.000000,0.000000,0.000000,0.000000,0.000000,0.000000,1769524053.348967,0.000000
184.000000,15349.591118,14311.933733,3389.127957,-3257.744403,6326.214233,-10271.274778,556.759603,-18028.313581,12675.316653,11182.287178,-9031.848196,539.280538,21497.125506,12555.891282,-464.715119,3555.000252,0.004875,-0.026594,1.007344,192.000000,0.000000,0.000000,0.000000,0.000000,0.000000,0.000000,0.000000,0.000000,0.000000,1769524053.348990,0.000000
186.000000,15352.809769,14311.285533,3460.497077,-3177.926323,6327.957669,-10233.500330,631.034449,-17934.100978,12675.361356,11206.225897,-9002.321542,563.442774,21519.566657,12584.590922,-445.157343,3573.038110,0.006000,-0.022000,1.008000,192.000000,0.000000,24.000000,127.500000,40.000000,15.500000,64.000000,0.000000,0.000000,0.000000,1769524053.349013,0.000000
188.000000,15319.371560,14282.317672,3390.558468,-3248.379022,6296.106433,-10273.465249,565.365024,-18024.446729,12597.756099,11189.618550,-8994.632541,566.281446,21504.345120,12584.009777,-425.264290,3596.753311,0.006000,-0.022000,1.008000,192.000000,0.000000,0.000000,0.000000,0.000000,0.000000,0.000000,0.000000,0.000000,0.000000,1769524053.349036,0.000000
190.000000,15338.683467,14317.342856,3418.386390,-3217.712428,6322.012105,-10252.007574,596.031618,-17984.705327,12699.612999,11178.822658,-9072.796592,508.345724,21476.427791,12545.453017,-485.256372,3553.569740,0.006000,-0.022000,1.008000,192.000000,0.000000,0.000000,0.000000,0.000000,0.000000,0.000000,0.000000,0.000000,0.000000,1769524053.349060,0.000000
192.000000,15320.533850,14291.191315,3434.926681,-3201.462710,6307.148195,-10246.039658,609.397961,-17965.952214,12588.524829,11212.506737,-8966.715213,595.249307,21518.337312,12611.770643,-411.473264,3604.375256,0.006000,-0.022000,1.008000,192.000000,0.000000,0.000000,0.000000,0.000000,0.000000,0.000000,0.000000,0.000000,0.000000,1769524053.349082,0.000000
194.000000,15343.667906,14295.996940,3377.326235,-3261.790068,6316.424169,-10279.343758,551.864571,-18041.836386,12663.090248,11174.508771,-9049.215501,529.445771,21483.356831,12558.551140,-461.027081,3562.488087,0.006000,-0.022000,1.008000,192.000000,0.000000,0.000000,0.000000,0.000000,0.000000,0.000000,0.000000,0.000000,0.000000,1769524053.349094,0.000000
196.000000,15351.356906,14307.798661,3455.602045,-3176.428756,6326.929489,-10230.482844,630.050973,-17938.437216,12665.280719,11207.678760,-9014.927925,555.954940,21510.670663,12591.989349,-437.736563,3583.096395,0.012000,-0.012000,1.008000,192.000000,0.000000,48.000000,127.500000,80.000000,15.500000,64.000000,0.000000,0.000000,0.000000,1769524053.349106,0.000000
198.000000,15328.871051,14295.058166,3392.123090,-3237.605481,6307.952858,-10258.601339,567.756661,-18015.774252,12596.794974,11199.319208,-8991.749166,573.590466,21503.182829,12597.018492,-419.810464,3592.975866,0.012000,-0.012000,1.008000,192.000000,0.000000,0.000000,0.000000,0.000000,0.000000,0.000000,0.000000,0.000000,0.000000,1769524053.349118,0.000000
200.000000,15368.679508,14319.041588,3419.213405,-3215.544309,6334.462027,-10247.134894,594.891679,-17982.134877,12708.039607,11190.624379,-9064.772316,524.416628,21489.503561,12560.763962,-487.826823,3555.670804,0.012000,-0.012000,1.008000,192.000000,0.000000,0.000000,0.000000,0.000000,0.000000,0.000000,0.000000,0.000000,0.000000,1769524053.349129,0.000000
202.000000,15315.527059,14288.419698,3436.401896,-3197.528803,6310.836233,-10240.451722,614.248289,-17961.191292,12591.966998,11212.193812,-8968.682166,592.812966,21524.864021,12613.625838,-403.516043,3604.598773,0.012000,-0.012000,1.008000,192.000000,0.000000,0.000000,0.000000,0.000000,0.000000,0.000000,0.000000,0.000000,0.000000,1769524053.349140,0.000000
204.000000,15337.074141,14304.334140,3376.990959,-3259.174914,6314.926602,-10275.968644,554.166800,-18037.857775,12658.977527,11182.845972,-9045.035725,534.050230,21487.782477,12560.942776,-467.173811,3560.118802,0.012000,-0.012000,1.008000,192.000000,0.000000,0.000000,0.000000,0.000000,0.000000,0.000000,0.000000,0.000000,0.000000,1769524053.349152,0.000000
206.000000,15358.665926,14319.801548,3460.564132,-3170.103213,6329.835216,-10225.766626,635.705964,-17928.624800,12668.477019,11210.495080,-9011.239888,565.096803,21512.749375,12587.653111,-445.403212,3576.681444,0.012000,-0.016000,1.004000,192.000000,0.000000,48.000000,127.500000,64.000000,15.500000,48.000000,0.000000,0.000000,0.000000,1769524053.349163,0.000000
208.000000,15339.532833,14306.502260,3398.068654,-3234.029202,6309.629239,-10255.919129,572.048196,-18007.302941,12608.194364,11207.634057,-8984.484850,591.158937,21515.141012,12603.567553,-424.034944,3593.244087,0.012000,-0.016000,1.004000,192.000000,0.000000,0.000000,0.000000,0.000000,0.000000,0.000000,0.000000,0.000000,0.000000,1769524053.349174,0.000000
210.000000,15356.788380,14338.107626,3425.784817,-3212.325658,6341.614585,-10242.642193,597.037446,-17975.474057,12716.242697,11198.603952,-9058.357365,530.630413,21490.956425,12564.809628,-489.480852,3555.044956,0.012000,-0.016000,1.004000,192.000000,0.000000,0.000000,0.000000,0.000000,0.000000,0.000000,0.000000,0.000000,0.000000,1769524053.828571,0.000000
212.000000,15340.851586,14305.719948,3448.293024,-3192.522012,6331.153969,-10226.101902,618.070438,-17946.863824,12601.578248,11220.754531,-8959.540303,601.418388,21527.076844,12616.151585,-402.823139,3598.206174,0.012000,-0.016000,1.004000,192.000000,0.000000,0.000000,0.000000,0.000000,0.000000,0.000000,0.000000,0.000000,0.000000,1769524053.828674,0.000000
214.000000,15359.448237,14317.722835,3387.093948,-3256.716222,6329.410533,-10265.060993,556.536085,-18026.145461,12674.422583,11204.571868,-9029.993001,553.809172,21501.215875,12577.661881,-465.206857,3548.250025,0.012000,-0.016000,1.004000,192.000000,0.000000,0.000000,0.000000,0.000000,0.000000,0.000000,0.000000,0.000000,0.000000,1769524053.828761,0.000000
216.000000,15337.588231,14313.610114,3455.266768,-3182.217858,6321.900347,-10241.703420,627.905205,-17937.520795,12662.710269,11211.947943,-9013.162138,564.090975,21514.045777,12585.753213,-444.285625,3575.943837,0.012000,-0.018000,1.006000,192.000000,0.000000,48.000000,127.500000,56.000000,15.500000,56.000000,0.000000,0.000000,0.000000,1769524053.828848,0.000000
218.000000,15325.473586,14296.935713,3395.185279,-3242.008775,6306.209422,-10265.508028,568.270751,-18013.002636,12589.642416,11193.395995,-8993.358492,574.305722,21504.613340,12589.396547,-417.776456,3597.021532,0.012000,-0.018000,1.006000,192.000000,0.000000,0.000000,0.000000,0.000000,0.000000,0.000000,0.000000,0.000000,0.000000,1769524053.828955,0.000000
220.000000,15365.930243,14332.296173,3421.962669,-3213.778521,6333.545605,-10247.648984,595.517528,-17974.736449,12705.692673,11192.300760,-9061.419554,525.221291,21487.380145,12559.914596,-481.836555,3554.262645,0.012000,-0.018000,1.006000,192.000000,0.000000,0.000000,0.000000,0.000000,0.000000,0.000000,0.000000,0.000000,0.000000,1769524053.829015,0.000000
222.000000,15345.925432,14305.183507,3438.055925,-3195.517146,6310.232736,-10242.262213,614.695324,-17951.736504,12595.364463,11219.793406,-8962.378974,598.378551,21526.696864,12616.442158,-404.745389,3607.102168,0.012000,-0.018000,1.006000,192.000000,0.000000,0.000000,0.000000,0.000000,0.000000,0.000000,0.000000,0.000000,0.000000,1769524053.829052,0.000000
224.000000,15335.598926,14305.384672,3375.292227,-3260.828943,6312.736131,-10282.271836,553.496248,-18033.677999,12656.608243,11183.203600,-9046.443885,536.777143,21476.897177,12559.981651,-463.664587,3561.705775,0.012000,-0.018000,1.006000,192.000000,0.000000,0.000000,0.000000,0.000000,0.000000,0.000000,0.000000,0.000000,0.000000,1769524053.829075,0.000000
226.000000,15346.707743,14321.433225,3459.245379,-3175.422928,6328.069428,-10231.108693,634.074287,-17927.283696,12653.478998,11207.388187,-9015.643181,560.671158,21505.306245,12585.887323,-442.698651,3574.803898,0.010000,-0.016000,1.002000,192.000000,0.000000,40.000000,127.500000,64.000000,15.500000,40.000000,0.000000,0.000000,0.000000,1769524053.829098,0.000000
228.000000,15344.696086,14310.592629,3398.783910,-3237.538426,6309.651591,-10260.233016,572.450527,-18004.844249,12589.016567,11204.996551,-8986.027120,580.318341,21508.368434,12596.660864,-422.962060,3590.628933,0.010000,-0.016000,1.002000,192.000000,0.000000,0.000000,0.000000,0.000000,0.000000,0.000000,0.000000,0.000000,0.000000,1769524053.829120,0.000000
230.000000,15353.882653,14330.977420,3424.801341,-3212.750341,6333.143274,-10252.119333,597.059798,-17973.842379,12701.267028,11192.300760,-9061.486609,529.266957,21486.173151,12556.651241,-485.926924,3554.240293,0.010000,-0.016000,1.002000,192.000000,0.000000,0.000000,0.000000,0.000000,0.000000,0.000000,0.000000,0.000000,0.000000,1769524053.829142,0.000000
232.000000,15345.210176,14312.626638,3446.236664,-3188.453995,6317.877033,-10234.483806,620.439723,-17944.583946,12589.731823,11224.353161,-8961.507256,601.932478,21522.874716,12615.905716,-400.744426,3606.498671,0.010000,-0.016000,1.002000,192.000000,0.000000,0.000000,0.000000,0.000000,0.000000,0.000000,0.000000,0.000000,0.000000,1769524053.829165,0.000000
234.000000,15354.977888,14327.088216,3385.104643,-3254.950435,6316.580631,-10272.794696,559.330053,-18025.385502,12661.592682,11200.526202,-9037.011449,544.689661,21494.130372,12570.889303,-471.845325,3563.315101,0.010000,-0.016000,1.002000,192.000000,0.000000,0.000000,0.000000,0.000000,0.000000,0.000000,0.000000,0.000000,0.000000,1769524053.829188,0.000000
236.000000,15359.381182,14328.541080,3466.017957,-3171.779593,6329.946975,-10229.655830,635.884778,-17923.349789,12664.788981,11219.547536,-9008.803547,567.197867,21517.264428,12590.983521,-442.631595,3576.927313,0.010000,-0.020000,1.006000,192.000000,0.000000,40.000000,127.500000,48.000000,15.500000,56.000000,0.000000,0.000000,0.000000,1769524053.829210,0.000000
238.000000,15345.076066,14311.374940,3406.070579,-3231.704620,6313.250221,-10262.155266,574.976274,-18001.156211,12600.103033,11213.937248,-8979.925094,586.934458,21518.650236,12600.728881,-417.441179,3589.019607,0.010000,-0.020000,1.006000,192.000000,0.000000,0.000000,0.000000,0.000000,0.000000,0.000000,0.000000,0.000000,0.000000,1769524053.829233,0.000000
240.000000,15366.377278,14340.186338,3428.064695,-3210.314001,6337.233643,-10252.275795,597.350371,-17973.238882,12714.074578,11204.281295,-9055.943377,531.457428,21496.231436,12562.485047,-482.507108,3547.311252,0.010000,-0.020000,1.006000,192.000000,0.000000,0.000000,0.000000,0.000000,0.000000,0.000000,0.000000,0.000000,0.000000,1769524053.829256,0.000000
242.000000,15341.388028,14307.284571,3444.761448,-3190.622114,6312.043227,-10241.859882,618.048086,-17950.685972,12596.079719,11225.358990,-8962.066050,598.713827,21528.842631,12614.788129,-406.868804,3603.771759,0.010000,-0.020000,1.006000,192.000000,0.000000,0.000000,0.000000,0.000000,0.000000,0.000000,0.000000,0.000000,0.000000,1769524053.829278,0.000000
244.000000,15345.880728,14317.767539,3383.249448,-3258.839638,6316.021838,-10284.261141,555.664367,-18033.812110,12653.993088,11187.182210,-9043.918138,538.967614,21479.311166,12561.501570,-467.889067,3559.068270,0.010000,-0.020000,1.006000,192.000000,0.000000,0.000000,0.000000,0.000000,0.000000,0.000000,0.000000,0.000000,0.000000,1769524053.829301,0.000000
246.000000,15349.591118,14325.680056,3468.722519,-3174.439451,6331.645707,-10226.079551,635.862426,-17926.054350,12661.369164,11212.126757,-9010.032893,556.513733,21514.224591,12583.763907,-441.111677,3571.764060,0.010000,-0.016000,1.004000,192.000000,0.000000,40.000000,127.500000,64.000000,15.500000,48.000000,0.000000,0.000000,0.000000,1769524053.829323,0.000000
248.000000,15326.546470,14298.500335,3406.137634,-3238.611309,6308.265782,-10265.776249,573.925742,-18007.124127,12595.342111,11205.153013,-8981.333254,580.944190,21515.990378,12594.023358,-418.201139,3584.415148,0.010000,-0.016000,1.004000,192.000000,0.000000,0.000000,0.000000,0.000000,0.000000,0.000000,0.000000,0.000000,0.000000,1769524053.829346,0.000000
250.000000,15363.024516,14336.833577,3431.104533,-3211.588050,6333.232681,-10251.292318,599.719655,-17974.334118,12701.490545,11190.825545,-9059.720821,523.097875,21484.340308,12551.733858,-485.703407,3546.864217,0.010000,-0.016000,1.004000,192.000000,0.000000,0.000000,0.000000,0.000000,0.000000,0.000000,0.000000,0.000000,0.000000,1769524053.829371,0.000000
252.000000,15335.464816,14303.261257,3446.035498,-3194.868945,6311.417378,-10246.620804,616.751685,-17954.128141,12586.736689,11223.973182,-8962.803657,596.143376,21523.969951,12609.088434,-405.147720,3596.462738,0.010000,-0.016000,1.004000,192.000000,0.000000,0.000000,0.000000,0.000000,0.000000,0.000000,0.000000,0.000000,0.000000,1769524053.829393,0.000000
254.000000,15346.685391,14321.634391,3388.546811,-3255.777449,6322.414437,-10272.526475,558.123059,-18027.151290,12651.288527,11190.020882,-9039.023106,536.151294,21485.904930,12563.245006,-466.257389,3555.983729,0.010000,-0.016000,1.004000,192.000000,0.000000,0.000000,0.000000,0.000000,0.000000,0.000000,0.000000,0.000000,0.000000,1769524053.829416,0.000000
0.000000,15354.732019,14331.446806,3463.246341,-3170.930227,6332.807998,-10224.403170,635.571854,-17923.238030,12661.391516,11214.049007,-9008.244754,563.599236,21510.916532,12589.530657,-446.341985,3580.302427,0.012000,-0.016000,1.003000,192.000000,0.000000,56.000000,127.500000,64.000000,15.500000,40.000000,0.000000,0.000000,0.000000,1769524053.829438,0.000000
2.000000,15351.513368,14312.246658,3404.260088,-3233.336298,6311.573841,-10255.226225,575.624475,-18002.050281,12599.030149,11209.623362,-8982.897876,583.738158,21507.407309,12599.633646,-425.040773,3605.023456,0.012000,-0.016000,1.003000,192.000000,0.000000,0.000000,0.000000,0.000000,0.000000,0.000000,0.000000,0.000000,0.000000,1769524053.829461,0.000000
4.000000,15368.098362,14340.655725,3429.338745,-3210.224594,6336.943071,-10241.770475,598.378551,-17968.880292,12703.368092,11197.464013,-9059.564359,527.590576,21489.660023,12560.383983,-483.758805,3560.699947,0.012000,-0.016000,1.003000,192.000000,0.000000,0.000000,0.000000,0.000000,0.000000,0.000000,0.000000,0.000000,0.000000,1769524053.829484,0.000000
6.000000,15341.164510,14319.890954,3449.544722,-3187.247001,6318.458178,-10229.521719,619.053914,-17939.644210,12591.519963,11225.180176,-8951.672489,607.833339,21529.513184,12621.516004,-409.282793,3612.846567,0.012000,-0.016000,1.003000,192.000000,0.000000,0.000000,0.000000,0.000000,0.000000,0.000000,0.000000,0.000000,0.000000,1769524053.829506,0.000000
8.000000,15346.797150,14322.819033,3385.439919,-3256.805629,6323.867300,-10267.564388,556.849010,-18024.647894,12652.495522,11191.361987,-9034.061019,544.488495,21491.716384,12568.408259,-461.094136,3569.305369,0.012000,-0.016000,1.003000,192.000000,0.000000,0.000000,0.000000,0.000000,0.000000,0.000000,0.000000,0.000000,0.000000,1769524053.829529,0.000000
10.000000,15364.633842,14334.754865,3471.315321,-3170.639654,6343.045097,-10212.601449,640.645700,-17915.481975,12663.626690,11216.507699,-9002.701521,567.264923,21516.817393,12593.352806,-437.021308,3577.240238,0.013000,-0.019000,1.004500,192.000000,0.000000,56.000000,127.500000,40.000000,15.500000,56.000000,0.000000,0.000000,0.000000,1769524053.829551,0.000000
12.000000,15329.653362,14322.282591,3407.478739,-3234.096257,6316.804149,-10250.308842,577.412615,-17996.551752,12600.974751,11214.697208,-8970.984396,590.555440,21521.511259,12606.182707,-416.524758,3596.753311,0.013000,-0.019000,1.004500,192.000000,0.000000,0.000000,0.000000,0.000000,0.000000,0.000000,0.000000,0.000000,0.000000,1769524053.829574,0.000000
14.000000,15371.272310,14340.789836,3423.482588,-3213.890280,6338.306527,-10241.904586,594.578754,-17974.155304,12703.993941,11201.263809,-9056.122190,526.718858,21487.156628,12560.965128,-482.238887,3560.901113,0.013000,-0.019000,1.004500,192.000000,0.000000,0.000000,0.000000,0.000000,0.000000,0.000000,0.000000,0.000000,0.000000,1769524053.829597,0.000000
16.000000,15344.718438,14319.645085,3450.259978,-3187.582277,6325.633088,-10225.766626,618.383362,-17942.035847,12599.119556,11221.961525,-8956.589872,607.900394,21528.552059,12617.380931,-396.721112,3610.633744,0.013000,-0.019000,1.004500,192.000000,0.000000,0.000000,0.000000,0.000000,0.000000,0.000000,0.000000,0.000000,0.000000,1769524053.829619,0.000000
18.000000,15335.218946,14330.262164,3387.250410,-3252.603501,6325.566033,-10261.261196,557.899542,-18018.679979,12665.168961,11195.497059,-9024.986210,550.121135,21502.579332,12570.151695,-458.076651,3569.998273,0.013000,-0.019000,1.004500,192.000000,0.000000,0.000000,0.000000,0.000000,0.000000,0.000000,0.000000,0.000000,0.000000,1769524053.829642,0.000000
20.000000,15355.246109,14339.046399,3464.341577,-3169.522067,6338.753562,-10219.105806,635.527150,-17918.924143,12680.122278,11223.749664,-8997.337103,578.641960,21527.881506,12599.454832,-445.313805,3579.542468,0.013500,-0.018500,1.010250,192.000000,0.000000,56.000000,127.500000,56.000000,15.500000,96.000000,0.000000,0.000000,0.000000,1769524053.829665,0.000000
22.000000,15326.546470,14308.871544,3403.164852,-3234.811513,6312.534966,-10252.409905,572.517582,-18002.921999,12603.321684,11211.255039,-8976.617035,588.655542,21522.025349,12602.964056,-411.003877,3598.943782,0.013500,-0.018500,1.010250,192.000000,0.000000,0.000000,0.000000,0.000000,0.000000,0.000000,0.000000,0.000000,0.000000,1769524053.829687,0.000000
24.000000,15359.694107,14341.818016,3425.606003,-3215.410199,6341.413419,-10243.893891,592.656504,-17976.681051,12706.765557,11191.607856,-9055.988080,524.103704,21494.800925,12558.417029,-472.158250,3559.358842,0.013500,-0.018500,1.010250,192.000000,0.000000,0.000000,0.000000,0.000000,0.000000,0.000000,0.000000,0.000000,0.000000,1769524053.829710,0.000000
26.000000,15340.181034,14314.660646,3451.019937,-3188.901030,6325.633088,-10225.453702,616.505816,-17945.500367,12599.968922,11219.055798,-8955.405230,599.674952,21539.750283,12618.900850,-389.903830,3607.213927,0.013500,-0.018500,1.010250,192.000000,0.000000,0.000000,0.000000,0.000000,0.000000,0.000000,0.000000,0.000000,0.000000,1769524053.829734,0.000000
28.000000,15346.707743,14322.729626,3388.345645,-3252.245873,6326.683620,-10258.467228,556.401975,-18024.357322,12668.700536,11196.659350,-9030.104760,544.242626,21503.831029,12576.834867,-455.059165,3568.858334,0.013500,-0.018500,1.010250,192.000000,0.000000,0.000000,0.000000,0.000000,0.000000,0.000000,0.000000,0.000000,0.000000,1769524053.829757,0.000000
30.000000,15336.068313,14322.126129,3462.508734,-3172.226628,6332.405666,-10221.899774,634.409563,-17926.747254,12671.583911,11209.489251,-9010.122300,564.783879,21520.214858,12594.559800,-436.171941,3577.128479,0.011750,-0.018250,1.009125,192.000000,0.000000,40.000000,127.500000,56.000000,15.500000,64.000000,0.000000,0.000000,0.000000,1769524053.829780,0.000000
32.000000,15327.641705,14304.580010,3400.952029,-3233.671574,6306.276477,-10254.153342,574.283370,-18005.760670,12588.860105,11200.682664,-8983.099041,580.452452,21516.191544,12602.606428,-417.262365,3593.087625,0.011750,-0.018250,1.009125,192.000000,0.000000,0.000000,0.000000,0.000000,0.000000,0.000000,0.000000,0.000000,0.000000,1769524053.829803,0.000000
34.000000,15355.469627,14336.364190,3420.755675,-3214.784350,6326.147178,-10246.017307,592.455339,-17979.340908,12702.071691,11188.009225,-9061.911292,520.147445,21488.542436,12559.109933,-481.814203,3552.966243,0.011750,-0.018250,1.009125,192.000000,0.000000,0.000000,0.000000,0.000000,0.000000,0.000000,0.000000,0.000000,0.000000,1769524053.829826,0.000000
36.000000,15327.284077,14314.370074,3445.342594,-3188.074015,6321.810940,-10225.721923,615.164711,-17946.506196,12589.843582,11216.641810,-8962.803657,596.031618,21529.982570,12615.391626,-391.647266,3607.102168,0.011750,-0.018250,1.009125,192.000000,0.000000,0.000000,0.000000,0.000000,0.000000,0.000000,0.000000,0.000000,0.000000,1769524053.829848,0.000000
38.000000,15339.912813,14321.321466,3380.276666,-3253.184647,6323.487320,-10261.328252,552.088088,-18028.157118,12663.134952,11196.502888,-9033.368115,548.847085,21498.690128,12578.153620,-455.036814,3564.075060,0.011750,-0.018250,1.009125,192.000000,0.000000,0.000000,0.000000,0.000000,0.000000,0.000000,0.000000,0.000000,0.000000,1769524053.829871,0.000000
40.000000,15352.228624,14333.033780,3459.804172,-3168.471535,6339.111190,-10217.317667,633.403734,-17925.741425,12663.202007,11210.338618,-9014.637353,561.431117,21519.790175,12595.923256,-435.099058,3584.661017,0.009875,-0.017125,1.007563,192.000000,0.000000,32.000000,127.500000,64.000000,15.500000,56.000000,0.000000,0.000000,0.000000,1769524053.829893,0.000000
42.000000,15336.224775,14320.405045,3403.477776,-3224.820283,6324.560204,-10239.803522,575.624475,-17999.502182,12593.576323,11210.584487,-8983.948408,587.984990,21521.578314,12611.994161,-412.501444,3601.402474,0.009875,-0.017125,1.007563,192.000000,0.000000,0.000000,0.000000,0.000000,0.000000,0.000000,0.000000,0.000000,0.000000,1769524053.829915,0.000000
44.000000,15349.278194,14337.370019,3423.616698,-3210.403408,6350.376469,-10235.154359,592.343580,-17976.770458,12712.889935,11202.269638,-9060.190208,531.748001,21504.568637,12571.448096,-471.733567,3558.129496,0.009875,-0.017125,1.007563,192.000000,0.000000,0.000000,0.000000,0.000000,0.000000,0.000000,0.000000,0.000000,0.000000,1769524053.829938,0.000000
46.000000,15341.075103,14311.956085,3446.594292,-3187.135242,6328.315297,-10222.726789,613.913013,-17946.997934,12596.079719,11218.809929,-8960.836704,602.334810,21539.996152,12621.091321,-385.724054,3613.383009,0.009875,-0.017125,1.007563,192.000000,0.000000,0.000000,0.000000,0.000000,0.000000,0.000000,0.000000,0.000000,0.000000,1769524053.829961,0.000000
48.000000,15343.019705,14325.098911,3383.361206,-3253.452868,6330.729286,-10259.540112,552.088088,-18025.988999,12657.591719,11196.502888,-9035.513882,549.607044,21504.613340,12573.727974,-449.918264,3572.456965,0.009875,-0.017125,1.007563,192.000000,0.000000,0.000000,0.000000,0.000000,0.000000,0.000000,0.000000,0.000000,0.000000,1769524053.829983,0.000000
50.000000,15347.981792,14333.883147,3463.805135,-3170.349082,6338.798265,-10216.736521,633.359031,-17925.070873,12668.856999,11216.641810,-9010.681094,567.644902,21523.969951,12596.079719,-431.723944,3582.604657,0.008938,-0.017563,1.007781,192.000000,0.000000,32.000000,127.500000,56.000000,15.500000,64.000000,0.000000,0.000000,0.000000,1769524053.830006,0.000000
52.000000,15332.536737,14305.094100,3402.829576,-3233.984498,6318.212309,-10252.387554,571.377644,-18007.638217,12594.448041,11207.768167,-8985.848306,583.827565,21519.320788,12605.758024,-412.389685,3597.066235,0.008938,-0.017563,1.007781,192.000000,0.000000,0.000000,0.000000,0.000000,0.000000,0.000000,0.000000,0.000000,0.000000,1769524053.830037,0.000000
54.000000,15357.078952,14334.553699,3423.974326,-3215.164329,6343.738001,-10229.097036,590.711902,-17982.268987,12704.664493,11195.385301,-9064.437039,523.947242,21497.371375,12566.798933,-476.136860,3554.195589,0.008938,-0.017563,1.007781,192.000000,0.000000,0.000000,0.000000,0.000000,0.000000,0.000000,0.000000,0.000000,0.000000,1769524053.830052,0.000000
56.000000,15329.809824,14311.419643,3445.879036,-3188.096367,6322.034457,-10217.474129,612.974240,-17951.758856,12589.664768,11222.341504,-8965.083535,595.606935,21530.139033,12622.611239,-391.893136,3612.690105,0.008938,-0.017563,1.007781,192.000000,0.000000,0.000000,0.000000,0.000000,0.000000,0.000000,0.000000,0.000000,0.000000,1769524053.830068,0.000000
58.000000,15344.740790,14322.282591,3383.875297,-3253.475219,6328.047076,-10257.841379,550.903446,-18029.408816,12660.944481,11197.508716,-9039.336030,542.387431,21500.254750,12579.137096,-451.035851,3573.306331,0.008938,-0.017563,1.007781,192.000000,0.000000,0.000000,0.000000,0.000000,0.000000,0.000000,0.000000,0.000000,0.000000,1769524053.830084,0.000000
60.000000,15351.826292,14338.085274,3465.347405,-3167.063375,6342.240434,-10214.568402,633.247272,-17923.081568,12671.583911,11222.855594,-9010.837556,570.237705,21528.887335,12599.186611,-436.216645,3585.398625,0.008938,-0.017563,1.007781,192.000000,0.000000,0.000000,0.000000,0.000000,0.000000,0.000000,0.000000,0.000000,0.000000,1769524053.830098,0.000000
62.000000,15330.122749,14314.504184,3404.505957,-3228.642431,6316.424169,-10248.900682,572.964617,-18003.234923,12595.610332,11216.172423,-8981.020329,587.672065,21525.266352,12607.300294,-409.662772,3599.480224,0.006000,-0.028000,1.006000,192.000000,0.000000,24.000000,127.500000,16.000000,15.500000,56.000000,0.000000,0.000000,0.000000,1769524053.830112,0.000000
64.000000,15374.558017,14349.328202,3424.689582,-3211.610402,6345.950824,-10237.411885,591.024827,-17979.631481,12707.458461,11202.470804,-9063.252397,532.776181,21495.493829,12569.302329,-475.443956,3556.564874,0.006000,-0.028000,1.006000,192.000000,0.000000,0.000000,0.000000,0.000000,0.000000,0.000000,0.000000,0.000000,0.000000,1769524053.830122,0.000000
66.000000,15332.335571,14308.089233,3449.142390,-3188.968085,6325.007239,-10226.236013,615.477635,-17948.629612,12592.548143,11223.079112,-8969.397422,598.400903,21532.083634,12617.895021,-385.344074,3609.694971,0.006000,-0.028000,1.006000,192.000000,0.000000,0.000000,0.000000,0.000000,0.000000,0.000000,0.000000,0.000000,0.000000,1769524053.830132,0.000000
68.000000,15345.031362,14325.545946,3387.630390,-3255.866856,6326.147178,-10263.496371,553.719765,-18026.078406,12653.389591,11196.547591,-9037.682001,547.684794,21497.326672,12573.146829,-447.817200,3567.628988,0.006000,-0.028000,1.006000,192.000000,0.000000,0.000000,0.000000,0.000000,0.000000,0.000000,0.000000,0.000000,0.000000,1769524053.830142,0.000000
70.000000,15357.078952,14333.369056,3467.068489,-3172.852477,6340.228777,-10217.652943,633.023755,-17923.774472,12669.214626,11220.687475,-9014.212670,566.951998,21519.633713,12595.006835,-435.814313,3578.737805,0.006000,-0.028000,1.006000,192.000000,0.000000,0.000000,0.000000,0.000000,0.000000,0.000000,0.000000,0.000000,0.000000,1769524053.830152,0.000000
72.000000,15335.621278,14309.229172,3407.992829,-3233.984498,6313.607849,-10252.365202,573.031673,-18005.872429,12593.039881,11209.891583,-8987.345873,584.788690,21522.986474,12603.791070,-407.651115,3595.613372,0.010000,-0.022000,1.010000,192.000000,0.000000,40.000000,127.500000,40.000000,15.500000,72.000000,0.000000,0.000000,0.000000,1769524053.830162,0.000000
74.000000,15354.910833,14336.945336,3425.404838,-3214.963164,6338.194768,-10245.771437,588.521432,-17985.331176,12708.084310,11196.569943,-9067.879208,521.756771,21495.918512,12559.556968,-476.114509,3555.491991,0.010000,-0.022000,1.010000,192.000000,0.000000,0.000000,0.000000,0.000000,0.000000,0.000000,0.000000,0.000000,0.000000,1769524054.309506,0.000000
76.000000,15336.269478,14313.341893,3451.578731,-3184.989474,6322.257974,-10222.167995,613.533034,-17948.920184,12595.967960,11222.855594,-8969.822105,597.417426,21536.375169,12618.520870,-397.212851,3609.337343,0.010000,-0.022000,1.010000,192.000000,0.000000,0.000000,0.000000,0.000000,0.000000,0.000000,0.000000,0.000000,0.000000,1769524054.309557,0.000000
78.000000,15345.768970,14326.261202,3389.105605,-3254.101068,6323.777893,-10265.485676,551.775164,-18026.972476,12661.413868,11202.515507,-9037.771408,549.741155,21504.367471,12577.594826,-451.460535,3569.394776,0.010000,-0.022000,1.010000,192.000000,0.000000,0.000000,0.000000,0.000000,0.000000,0.000000,0.000000,0.000000,0.000000,1769524054.309599,0.000000
80.000000,15361.191673,14338.398199,3469.191905,-3173.254809,6338.217120,-10221.922126,631.190912,-17922.589829,12674.534342,11213.758435,-9013.408007,566.326149,21521.265390,12592.749309,-427.968851,3579.184840,0.010000,-0.022000,1.010000,192.000000,0.000000,0.000000,0.000000,0.000000,0.000000,0.000000,0.000000,0.000000,0.000000,1769524054.309638,0.000000
82.000000,15341.700952,14318.348684,3410.675038,-3234.677402,6323.375562,-10249.235958,572.919914,-17997.982263,12604.662788,11212.842013,-8981.489716,588.923763,21523.880544,12605.802727,-402.733732,3595.032226,0.010000,-0.018000,1.012000,192.000000,0.000000,40.000000,127.500000,56.000000,15.500000,80.000000,0.000000,0.000000,0.000000,1769524054.309676,0.000000
84.000000,15365.840836,14347.562414,3426.656535,-3217.175986,6345.034402,-10238.194196,589.571963,-17975.541112,12721.830633,11201.643789,-9059.832580,529.088143,21503.451050,12566.038974,-469.408985,3550.954586,0.010000,-0.018000,1.012000,192.000000,0.000000,0.000000,0.000000,0.000000,0.000000,0.000000,0.000000,0.000000,0.000000,1769524054.309714,0.000000
86.000000,15343.846720,14318.996885,3447.175437,-3187.917553,6324.403742,-10228.538242,613.823606,-17947.288507,12604.975713,11224.397865,-8963.161285,600.032580,21534.587030,12618.163242,-388.227449,3609.762026,0.010000,-0.018000,1.012000,192.000000,0.000000,0.000000,0.000000,0.000000,0.000000,0.000000,0.000000,0.000000,0.000000,1769524054.309733,0.000000
88.000000,15337.744693,14324.003675,3383.584724,-3253.855199,6323.397913,-10263.786943,551.059908,-18030.101720,12657.681126,11191.049062,-9041.548853,541.359251,21497.147858,12570.956358,-454.500372,3574.334511,0.010000,-0.018000,1.012000,192.000000,0.000000,0.000000,0.000000,0.000000,0.000000,0.000000,0.000000,0.000000,0.000000,1769524054.309745,0.000000
90.000000,15352.183920,14340.879243,3469.683644,-3168.203314,6344.117980,-10217.630591,634.230749,-17919.058254,12681.686900,11220.463958,-9010.636391,564.158030,21522.874716,12600.594771,-433.288566,3573.753366,0.010000,-0.018000,1.012000,192.000000,0.000000,0.000000,0.000000,0.000000,0.000000,0.000000,0.000000,0.000000,0.000000,1769524054.309763,0.000000
92.000000,15330.256859,14308.692731,3406.472910,-3230.989365,6312.400855,-10256.477923,571.735271,-18000.887990,12602.002931,11213.266696,-8982.115565,585.436891,21515.900971,12606.719149,-407.427598,3601.223660,0.010000,-0.024000,1.008000,192.000000,0.000000,40.000000,127.500000,32.000000,15.500000,64.000000,0.000000,0.000000,0.000000,1769524054.309774,0.000000
94.000000,15386.247979,14343.695562,3425.315431,-3212.415065,6341.815751,-10244.095057,589.616667,-17976.234016,12713.314618,11195.407652,-9061.821885,524.841312,21492.722212,12565.524884,-473.409948,3557.101316,0.010000,-0.024000,1.008000,192.000000,0.000000,0.000000,0.000000,0.000000,0.000000,0.000000,0.000000,0.000000,0.000000,1769524054.309785,0.000000
96.000000,15327.664057,14318.527498,3451.221103,-3184.810660,6321.274498,-10227.599469,613.711848,-17944.561594,12606.629742,11225.001362,-8964.748259,598.087978,21535.101120,12623.706475,-393.256592,3605.291677,0.010000,-0.024000,1.008000,192.000000,0.000000,0.000000,0.000000,0.000000,0.000000,0.000000,0.000000,0.000000,0.000000,1769524054.309796,0.000000
98.000000,15348.294717,14329.524556,3389.552640,-3251.307100,6330.639879,-10263.272853,551.819867,-18023.239735,12663.693746,11201.308513,-9033.390466,547.640091,21504.143954,12580.388794,-452.265197,3568.098374,0.010000,-0.024000,1.008000,192.000000,0.000000,0.000000,0.000000,0.000000,0.000000,0.000000,0.000000,0.000000,0.000000,1769524054.309807,0.000000
100.000000,15362.130447,14342.712086,3470.600065,-3169.767936,6346.375507,-10211.260344,630.967394,-17920.399358,12685.956083,11221.603897,-9009.295286,567.287274,21523.344102,12600.170088,-430.293433,3579.274247,0.010000,-0.024000,1.008000,192.000000,0.000000,0.000000,0.000000,0.000000,0.000000,0.000000,0.000000,0.000000,0.000000,1769524054.309819,0.000000
102.000000,15346.998316,14325.389484,3417.805245,-3227.591899,6329.634050,-10238.775341,573.478707,-17991.857885,12613.648190,11220.910993,-8971.431431,593.081187,21534.542326,12614.698722,-400.520909,3599.279058,0.008000,-0.026000,1.010000,192.000000,0.000000,32.000000,127.500000,24.000000,15.500000,72.000000,0.000000,0.000000,0.000000,1769524054.309830,0.000000
104.000000,15373.820409,14361.331089,3433.563225,-3209.241117,6354.422135,-10231.846301,589.996647,-17969.304975,12729.184357,11213.423158,-9046.823865,534.430210,21511.430623,12574.823210,-471.085366,3553.122706,0.008000,-0.026000,1.010000,192.000000,0.000000,0.000000,0.000000,0.000000,0.000000,0.000000,0.000000,0.000000,0.000000,1769524054.309841,0.000000
106.000000,15357.235415,14332.452635,3457.166667,-3179.133317,6334.171454,-10217.541184,617.936327,-17931.999914,12612.798823,11241.161673,-8954.309994,606.872214,21549.473292,12629.786149,-394.173013,3606.744541,0.008000,-0.026000,1.010000,192.000000,0.000000,0.000000,0.000000,0.000000,0.000000,0.000000,0.000000,0.000000,0.000000,1769524054.309853,0.000000
108.000000,15362.689240,14329.099873,3386.468099,-3251.865894,6327.220062,-10263.071688,551.305777,-18021.362188,12674.042603,11213.087882,-9021.879318,558.100707,21515.364530,12586.334358,-463.686939,3568.254837,0.008000,-0.026000,1.010000,192.000000,0.000000,0.000000,0.000000,0.000000,0.000000,0.000000,0.000000,0.000000,0.000000,1769524054.309864,0.000000
110.000000,15366.511389,14342.935603,3464.609798,-3169.209143,6340.653460,-10214.210774,629.223958,-17920.354655,12677.417717,11218.005266,-9013.072731,562.682815,21521.466556,12593.978655,-432.640366,3580.213020,0.008000,-0.026000,1.010000,192.000000,0.000000,0.000000,0.000000,0.000000,0.000000,0.000000,0.000000,0.000000,0.000000,1769524054.309874,0.000000
112.000000,15345.679563,14325.970629,3407.590497,-3226.586071,6323.062637,-10235.534338,570.081242,-17992.528438,12604.908658,11219.346371,-8978.472230,591.427158,21528.149727,12616.330399,-404.052485,3599.569631,0.008000,-0.026000,1.008000,192.000000,0.000000,32.000000,127.500000,24.000000,15.500000,64.000000,0.000000,0.000000,0.000000,1769524054.309885,0.000000
114.000000,15371.764049,14351.384562,3423.192015,-3211.476292,6344.989699,-10237.545995,584.632228,-17973.909435,12720.355418,11204.348350,-9055.563397,531.792704,21500.411212,12575.270245,-473.633465,3562.398680,0.008000,-0.026000,1.008000,192.000000,0.000000,0.000000,0.000000,0.000000,0.000000,0.000000,0.000000,0.000000,0.000000,1769524054.309896,0.000000
116.000000,15346.864205,14325.411835,3446.638995,-3185.615323,6320.000448,-10223.956135,610.984935,-17940.672391,12604.640437,11231.125740,-8960.702593,603.184176,21533.916477,12628.757969,-391.781377,3612.377180,0.008000,-0.026000,1.008000,192.000000,0.000000,0.000000,0.000000,0.000000,0.000000,0.000000,0.000000,0.000000,0.000000,1769524054.309906,0.000000
118.000000,15364.678546,14333.816091,3383.204744,-3255.531580,6319.419303,-10260.255368,548.131829,-18023.798528,12658.530493,11200.548554,-9031.915251,547.327166,21495.829105,12576.946625,-448.085421,3577.486107,0.008000,-0.026000,1.008000,192.000000,0.000000,0.000000,0.000000,0.000000,0.000000,0.000000,0.000000,0.000000,0.000000,1769524054.309917,0.000000
120.000000,15365.907892,14348.165911,3463.894542,-3172.628960,6340.094666,-10214.344885,625.781790,-17920.667579,12678.490600,11222.050932,-9012.513937,562.571056,21517.264428,12596.951437,-429.756991,3582.761119,0.008000,-0.026000,1.008000,192.000000,0.000000,0.000000,0.000000,0.000000,0.000000,0.000000,0.000000,0.000000,0.000000,1769524054.309928,0.000000
122.000000,15363.471551,14330.217460,3410.071541,-3227.390734,6319.329896,-10244.542091,572.048196,-17990.516781,12602.271152,11217.804100,-8977.175829,590.197812,21522.606495,12612.061216,-402.197290,3600.977790,0.004000,-0.020000,1.010000,192.000000,0.000000,16.000000,127.500000,48.000000,15.500000,72.000000,0.000000,0.000000,0.000000,1769524054.309941,0.000000
124.000000,15395.635712,14355.854911,3422.543814,-3214.292611,6343.335669,-10243.089228,584.073434,-17973.462400,12723.194089,11207.544650,-9054.468161,531.546835,21500.321806,12570.062288,-471.130070,3555.760211,0.004000,-0.020000,1.010000,192.000000,0.000000,0.000000,0.000000,0.000000,0.000000,0.000000,0.000000,0.000000,0.000000,1769524054.309952,0.000000
126.000000,15353.994412,14330.217460,3450.997585,-3180.630884,6327.376524,-10222.100940,613.309516,-17935.620896,12608.082605,11230.768112,-8960.121448,607.520414,21537.649219,12625.226393,-388.361560,3612.421884,0.004000,-0.020000,1.010000,192.000000,0.000000,0.000000,0.000000,0.000000,0.000000,0.000000,0.000000,0.000000,0.000000,1769524054.309963,0.000000
128.000000,15359.023554,14339.649897,3386.781023,-3249.675423,6331.064562,-10254.265100,548.154181,-18020.222249,12667.895874,11202.806080,-9029.724780,553.898579,21501.282931,12584.188591,-447.280758,3576.524982,0.004000,-0.020000,1.010000,192.000000,0.000000,0.000000,0.000000,0.000000,0.000000,0.000000,0.000000,0.000000,0.000000,1769524054.309974,0.000000
130.000000,15370.937034,14343.293231,3466.822620,-3166.146954,6344.699126,-10208.444024,627.793447,-17916.219582,12688.526534,11222.341504,-9011.351646,564.359196,21526.473347,12601.220620,-435.546092,3582.939933,0.004000,-0.020000,1.010000,192.000000,0.000000,0.000000,0.000000,0.000000,0.000000,0.000000,0.000000,0.000000,0.000000,1769524054.309985,0.000000
132.000000,15352.854473,14325.344780,3409.266878,-3224.037972,6322.168567,-10237.233071,569.500097,-17989.533304,12612.798823,11221.782711,-8975.208876,594.042312,21526.719216,12619.481995,-404.834796,3606.945706,0.004000,-0.019000,1.008000,192.000000,0.000000,16.000000,127.500000,56.000000,15.500000,56.000000,0.000000,0.000000,0.000000,1769524054.309996,0.000000
134.000000,15377.620206,14353.306812,3423.415533,-3214.225556,6344.967347,-10238.037734,583.469937,-17973.104772,12722.121206,11202.739024,-9056.926853,529.110495,21493.236303,12572.051593,-473.342892,3561.750479,0.004000,-0.019000,1.008000,192.000000,0.000000,0.000000,0.000000,0.000000,0.000000,0.000000,0.000000,0.000000,0.000000,1769524054.310007,0.000000
136.000000,15361.303432,14338.755827,3455.892617,-3179.468594,6327.510634,-10217.541184,617.288127,-17930.100015,12607.836736,11234.702019,-8958.489771,601.776016,21535.324637,12629.540280,-391.244935,3612.757160,0.004000,-0.019000,1.008000,192.000000,0.000000,0.000000,0.000000,0.000000,0.000000,0.000000,0.000000,0.000000,0.000000,1769524054.310018,0.000000
138.000000,15374.088630,14342.712086,3391.318427,-3247.462600,6336.317222,-10257.819028,552.982158,-18013.874354,12669.996938,11204.527164,-9026.036742,556.759603,21505.149782,12585.686157,-447.101944,3575.452098,0.004000,-0.019000,1.008000,192.000000,0.000000,0.000000,0.000000,0.000000,0.000000,0.000000,0.000000,0.000000,0.000000,1769524054.310029,0.000000
140.000000,15382.962273,14350.557548,3470.465955,-3165.185829,6350.667042,-10212.489690,630.855636,-17913.358559,12687.699519,11223.660257,-9009.965838,573.121080,21522.606495,12602.069986,-429.175845,3582.582305,0.004000,-0.019000,1.008000,192.000000,0.000000,0.000000,0.000000,0.000000,0.000000,0.000000,0.000000,0.000000,0.000000,1769524054.310040,0.000000
142.000000,15352.966231,14329.703370,3415.279498,-3222.786274,6330.148140,-10239.691763,573.523411,-17984.593568,12612.932934,11220.843937,-8972.213742,599.160862,21531.413082,12617.760911,-399.492729,3603.123558,0.005000,-0.018500,1.016000,192.000000,0.000000,24.000000,127.500000,56.000000,16.000000,0.000000,0.000000,0.000000,0.000000,1769524054.310052,0.000000
144.000000,15375.742659,14359.565301,3429.651669,-3210.269297,6350.868207,-10238.462417,586.353312,-17967.539187,12723.574069,11203.767205,-9052.255339,538.319413,21501.752317,12571.403393,-466.458555,3557.637758,0.005000,-0.018500,1.016000,192.000000,0.000000,0.000000,0.000000,0.000000,0.000000,0.000000,0.000000,0.000000,0.000000,1769524054.310070,0.000000
146.000000,15355.022592,14332.966725,3457.591350,-3181.301437,6334.663193,-10224.202004,615.008249,-17930.837623,12615.816309,11235.372571,-8956.567521,608.660353,21539.392655,12626.500443,-386.998103,3607.728017,0.005000,-0.018500,1.016000,192.000000,0.000000,0.000000,0.000000,0.000000,0.000000,0.000000,0.000000,0.000000,0.000000,1769524054.310081,0.000000
148.000000,15368.500694,14351.563376,3396.884012,-3246.836751,6342.240434,-10253.348679,552.937454,-18007.772327,12670.756897,11209.243382,-9022.080484,557.899542,21508.703710,12583.585093,-442.810409,3563.918598,0.005000,-0.018500,1.016000,192.000000,0.000000,0.000000,0.000000,0.000000,0.000000,0.000000,0.000000,0.000000,0.000000,1769524054.310092,0.000000
150.000000,15381.889389,14363.163932,3472.388205,-3162.682433,6352.209312,-10212.512042,628.843979,-17907.256533,12702.608133,11237.764208,-8999.840498,579.401920,21531.278972,12608.976675,-425.420752,3572.300502,0.005000,-0.018500,1.016000,192.000000,0.000000,0.000000,0.000000,0.000000,0.000000,0.000000,0.000000,0.000000,0.000000,1769524054.310103,0.000000
152.000000,15357.190711,14329.457501,3412.440826,-3221.579280,6320.827463,-10247.783094,572.539934,-17983.498333,12620.823100,11236.333696,-8969.240960,603.027714,21527.456823,12619.459643,-395.581173,3603.682352,0.008500,-0.020250,1.011000,192.000000,0.000000,48.000000,127.500000,40.000000,15.500000,56.000000,0.000000,0.000000,0.000000,1769524054.310114,0.000000
154.000000,15375.496790,14352.882129,3427.796474,-3210.559870,6349.907082,-10243.066876,588.834356,-17966.309841,12729.877261,11198.134565,-9052.456504,534.631376,21499.137163,12570.464619,-466.883238,3553.748554,0.008500,-0.020250,1.011000,192.000000,0.000000,0.000000,0.000000,0.000000,0.000000,0.000000,0.000000,0.000000,0.000000,1769524054.310127,0.000000
156.000000,15347.646516,14314.660646,3452.048117,-3184.363626,6324.381390,-10228.448835,615.678801,-17935.531489,12619.571402,11221.648600,-8956.187541,602.200699,21536.039893,12620.241954,-387.243973,3611.684276,0.008500,-0.020250,1.011000,192.000000,0.000000,0.000000,0.000000,0.000000,0.000000,0.000000,0.000000,0.000000,0.000000,1769524054.310138,0.000000
158.000000,15353.234452,14316.426434,3386.937486,-3256.962092,6329.142312,-10263.094039,547.058946,-18023.999694,12672.321519,11170.351347,-9030.261222,540.152257,21498.354852,12569.816419,-445.805543,3575.943837,0.008500,-0.020250,1.011000,192.000000,0.000000,0.000000,0.000000,0.000000,0.000000,0.000000,0.000000,0.000000,0.000000,1769524054.310149,0.000000
160.000000,15356.967194,14320.382693,3467.068489,-3176.495812,6348.744792,-10221.989181,622.071400,-17927.797786,12698.406005,11184.991739,-9017.140748,549.830562,21524.573448,12578.868875,-429.600528,3582.515250,0.008500,-0.020250,1.011000,192.000000,0.000000,0.000000,0.000000,0.000000,0.000000,0.000000,0.000000,0.000000,0.000000,1769524054.310160,0.000000
162.000000,15335.397760,14291.414832,3416.307678,-3233.559815,6327.980021,-10251.247615,569.298931,-17998.474002,12627.953306,11166.529198,-8979.411004,572.137603,21534.587030,12593.553971,-395.648229,3601.402474,0.009250,-0.020125,1.006500,192.000000,0.000000,40.000000,127.500000,48.000000,15.500000,40.000000,0.000000,0.000000,0.000000,1769524054.310171,0.000000
164.000000,15360.476418,14314.571239,3430.456332,-3221.065190,6350.599986,-10248.341888,583.581696,-17980.547903,12745.590537,11139.438884,-9058.111496,512.011410,21511.028291,12544.178968,-465.989168,3553.390927,0.009250,-0.020125,1.006500,192.000000,0.000000,0.000000,0.000000,0.000000,0.000000,0.000000,0.000000,0.000000,0.000000,1769524054.310182,0.000000
166.000000,15336.358885,14281.781230,3462.419327,-3190.443300,6333.232681,-10232.650963,613.756551,-17942.639344,12645.074742,11161.120076,-8956.813390,581.838260,21551.887280,12602.159393,-383.868859,3605.582250,0.009250,-0.020125,1.006500,192.000000,0.000000,0.000000,0.000000,0.000000,0.000000,0.000000,0.000000,0.000000,0.000000,1769524054.310193,0.000000
168.000000,15340.605717,14279.724870,3396.481680,-3264.248760,6332.740943,-10275.409851,544.555550,-18033.476834,12698.048377,11112.594439,-9028.808359,519.901576,21516.571524,12552.069134,-439.994090,3567.047842,0.009250,-0.020125,1.006500,192.000000,0.000000,0.000000,0.000000,0.000000,0.000000,0.000000,0.000000,0.000000,0.000000,1769524054.310204,0.000000
170.000000,15359.247072,14298.008597,3476.590333,-3178.418062,6349.996489,-10228.001801,625.088885,-17926.657847,12733.475892,11123.859718,-9010.748149,533.290271,21538.185661,12565.770753,-425.912491,3576.279113,0.009250,-0.020125,1.006500,192.000000,0.000000,0.000000,0.000000,0.000000,0.000000,0.000000,0.000000,0.000000,0.000000,1769524054.310214,0.000000
172.000000,15338.996391,14271.812352,3421.180358,-3234.453885,6319.531062,-10262.378784,569.410690,-17999.345720,12654.373068,11121.512785,-8969.978567,562.302835,21545.986419,12581.327567,-405.706514,3598.027360,0.009625,-0.021062,1.005250,192.000000,0.000000,40.000000,127.500000,40.000000,15.500000,48.000000,0.000000,0.000000,0.000000,1769524054.310225,0.000000
174.000000,15363.113923,14297.874486,3435.329012,-3224.462655,6343.715649,-10265.709193,582.441757,-17984.839438,12768.389317,11100.300980,-9053.484685,497.773349,21518.940809,12528.510395,-466.771479,3551.289863,0.009625,-0.021062,1.005250,192.000000,0.000000,0.000000,0.000000,0.000000,0.000000,0.000000,0.000000,0.000000,0.000000,1769524054.310236,0.000000
176.000000,15329.228679,14268.861922,3463.693376,-3193.281972,6321.498015,-10253.371030,613.868310,-17945.925050,12657.077629,11122.406855,-8959.853227,567.510792,21556.111760,12578.645358,-381.499574,3599.234354,0.009625,-0.021062,1.005250,192.000000,0.000000,0.000000,0.000000,0.000000,0.000000,0.000000,0.000000,0.000000,0.000000,1769524054.310247,0.000000
178.000000,15340.896289,14278.361413,3399.409759,-3262.930007,6321.743884,-10287.502144,549.182361,-18030.526403,12714.432205,11091.337930,-9024.315658,519.141617,21523.388806,12536.244099,-438.876502,3557.481296,0.009625,-0.021062,1.005250,192.000000,0.000000,0.000000,0.000000,0.000000,0.000000,0.000000,0.000000,0.000000,0.000000,1769524054.310258,0.000000
180.000000,15358.800037,14294.253504,3473.304626,-3181.882582,6324.716666,-10245.771437,625.155941,-17930.211774,12738.013296,11101.597381,-9011.016370,528.015259,21537.693922,12546.347087,-432.506255,3571.227619,0.009625,-0.021062,1.005250,192.000000,0.000000,0.000000,0.000000,0.000000,0.000000,0.000000,0.000000,0.000000,0.000000,1769524054.310269,0.000000
182.000000,15346.528929,14278.182599,3423.527291,-3237.001984,6311.819710,-10274.314615,572.159955,-17995.635330,12655.244786,11095.249485,-8974.337158,553.876228,21535.548155,12556.025393,-403.069008,3594.585192,0.008813,-0.022531,1.002625,192.000000,0.000000,32.000000,127.500000,32.000000,15.500000,32.000000,0.000000,0.000000,0.000000,1769524054.310281,0.000000
184.000000,15374.982700,14317.074635,3437.720649,-3223.680344,6341.368716,-10277.153287,585.906277,-17977.441010,12779.475782,11093.729567,-9045.728629,501.059055,21519.231381,12521.737817,-460.244770,3536.783580,0.008813,-0.022531,1.002625,192.000000,0.000000,0.000000,0.000000,0.000000,0.000000,0.000000,0.000000,0.000000,0.000000,1769524054.310292,0.000000
186.000000,15361.594005,14293.113565,3464.252170,-3185.838841,6313.943125,-10247.112542,617.466941,-17933.966867,12662.330289,11126.385465,-8956.254596,574.752757,21547.439283,12575.538465,-384.785281,3607.303334,0.008813,-0.022531,1.002625,192.000000,0.000000,0.000000,0.000000,0.000000,0.000000,0.000000,0.000000,0.000000,0.000000,1769524054.310304,0.000000
188.000000,15367.047830,14312.514879,3399.789739,-3247.574359,6325.811902,-10275.521609,554.524428,-18012.980284,12722.612944,11111.521555,-9014.033856,538.051193,21517.912628,12548.582262,-449.426526,3575.876781,0.008813,-0.022531,1.002625,192.000000,0.000000,0.000000,0.000000,0.000000,0.000000,0.000000,0.000000,0.000000,0.000000,1769524054.310315,0.000000
190.000000,15386.605607,14328.742245,3482.871173,-3167.443355,6340.049963,-10239.334135,632.777886,-17909.156431,12746.551662,11129.984096,-8999.661684,549.875265,21541.806643,12559.735782,-428.885273,3577.173183,0.008813,-0.022531,1.002625,192.000000,0.000000,0.000000,0.000000,0.000000,0.000000,0.000000,0.000000,0.000000,0.000000,1769524054.310326,0.000000
192.000000,15375.608549,14311.531402,3430.724553,-3223.076847,6320.022800,-10265.105696,578.865478,-17975.898740,12671.360394,11135.080294,-8952.074820,583.134661,21555.910594,12580.612311,-396.452891,3596.753311,0.009406,-0.023266,1.003313,192.000000,0.000000,40.000000,127.500000,32.000000,15.500000,48.000000,0.000000,0.000000,0.000000,1769524054.310337,0.000000
194.000000,15403.525877,14345.684868,3440.626376,-3214.538481,6349.236530,-10259.003670,587.984990,-17960.744257,12788.841163,11123.926774,-9034.508054,520.058038,21531.055454,12538.233404,-467.553791,3551.558083,0.009406,-0.023266,1.003313,192.000000,0.000000,0.000000,0.000000,0.000000,0.000000,0.000000,0.000000,0.000000,0.000000,1769524054.789858,0.000000
196.000000,15378.178999,14320.092120,3468.230780,-3184.587143,6327.153006,-10243.960946,614.918842,-17926.546088,12683.273874,11152.514655,-8939.066105,592.120062,21565.723010,12592.928123,-385.724054,3602.743578,0.009406,-0.023266,1.003313,192.000000,0.000000,0.000000,0.000000,0.000000,0.000000,0.000000,0.000000,0.000000,0.000000,1769524054.789912,0.000000
198.000000,15381.755278,14322.059074,3401.376712,-3256.023318,6325.543681,-10284.305845,549.495286,-18013.717891,12732.291249,11117.914154,-9008.602382,537.626509,21529.334370,12549.744552,-442.810409,3570.624122,0.009406,-0.023266,1.003313,192.000000,0.000000,0.000000,0.000000,0.000000,0.000000,0.000000,0.000000,0.000000,0.000000,1769524054.789957,0.000000
200.000000,15393.556999,14334.173719,3479.831336,-3176.138184,6336.876015,-10244.095057,629.581586,-17911.346902,12752.653689,11134.923832,-9000.175774,546.164876,21541.203146,12557.411201,-433.109752,3569.461831,0.009406,-0.023266,1.003313,192.000000,0.000000,0.000000,0.000000,0.000000,0.000000,0.000000,0.000000,0.000000,0.000000,1769524054.789994,0.000000
202.000000,15368.098362,14312.581934,3428.019992,-3233.671574,6314.434864,-10273.509952,575.892696,-17980.234978,12667.918225,11132.733361,-8958.981509,576.719710,21545.561736,12575.426707,-395.625877,3592.662942,0.009406,-0.023266,1.003313,192.000000,0.000000,0.000000,0.000000,0.000000,0.000000,0.000000,0.000000,0.000000,0.000000,1769524054.790032,0.000000
204.000000,15400.106061,14343.136769,3441.989832,-3224.283841,6341.279309,-10268.480810,586.330961,-17963.918205,12784.683738,11118.607058,-9039.380734,514.827730,21516.616227,12530.544404,-467.442032,3546.283072,0.010000,-0.024000,1.002000,192.000000,0.000000,40.000000,127.500000,32.000000,15.500000,40.000000,0.000000,0.000000,0.000000,1769524054.790071,0.000000
206.000000,15388.840781,14321.768501,3479.205487,-3186.017655,6332.539777,-10238.305955,619.657412,-17918.745329,12690.940522,11150.413591,-8934.573404,592.343580,21565.432437,12591.587018,-389.456795,3598.072064,0.010000,-0.024000,1.002000,192.000000,0.000000,0.000000,0.000000,0.000000,0.000000,0.000000,0.000000,0.000000,0.000000,1769524054.790084,0.000000
208.000000,15393.087613,14326.998809,3406.003524,-3263.980539,6326.817730,-10287.636255,547.282463,-18012.779118,12740.293174,11123.524442,-8998.365283,541.158085,21535.034065,12550.124532,-436.976604,3559.269435,0.010000,-0.024000,1.002000,192.000000,0.000000,0.000000,0.000000,0.000000,0.000000,0.000000,0.000000,0.000000,0.000000,1769524054.790094,0.000000
210.000000,15389.243113,14330.709199,3481.239495,-3183.000169,6340.787571,-10248.118371,626.295880,-17912.553896,12750.820845,11127.346590,-8997.471213,536.486570,21533.223573,12548.939890,-428.080610,3576.457927,0.010000,-0.024000,1.002000,192.000000,0.000000,0.000000,0.000000,0.000000,0.000000,0.000000,0.000000,0.000000,0.000000,1769524054.790105,0.000000
212.000000,15370.378240,14304.378844,3426.500073,-3236.107914,6316.468873,-10271.990034,575.132737,-17983.073650,12671.159228,11134.320335,-8952.454800,573.143431,21546.925193,12571.224579,-398.755121,3596.820366,0.010000,-0.024000,1.002000,192.000000,0.000000,0.000000,0.000000,0.000000,0.000000,0.000000,0.000000,0.000000,0.000000,1769524054.790116,0.000000
214.000000,15384.325729,14325.814167,3434.412591,-3230.095295,6339.379411,-10270.626577,581.726501,-17975.764629,12776.905331,11103.027892,-9045.460408,505.819977,21514.716329,12520.039084,-461.630578,3552.921540,0.012000,-0.024000,1.004000,192.000000,0.000000,48.000000,127.500000,32.000000,15.500000,48.000000,0.000000,0.000000,0.000000,1769524054.790133,0.000000
216.000000,15360.208197,14302.098966,3466.844972,-3196.791195,6321.587422,-10257.751972,612.795426,-17935.687952,12676.613054,11132.241622,-8948.230320,572.986969,21557.497568,12576.410183,-384.829984,3608.264459,0.012000,-0.024000,1.004000,192.000000,0.000000,0.000000,0.000000,0.000000,0.000000,0.000000,0.000000,0.000000,0.000000,1769524054.790145,0.000000
218.000000,15371.473476,14309.631504,3400.952029,-3264.181705,6317.005314,-10292.888915,547.885960,-18018.925848,12725.451616,11105.866564,-9014.011504,524.908367,21519.991341,12530.633811,-431.075744,3570.467659,0.012000,-0.024000,1.004000,192.000000,0.000000,0.000000,0.000000,0.000000,0.000000,0.000000,0.000000,0.000000,0.000000,1769524054.790168,0.000000
220.000000,15390.315996,14328.541080,3479.920743,-3181.837878,6339.468818,-10243.424504,628.374592,-17915.459623,12752.854854,11122.250393,-9000.287533,536.732440,21533.648256,12545.274203,-433.310918,3573.507497,0.012000,-0.024000,1.004000,192.000000,0.000000,0.000000,0.000000,0.000000,0.000000,0.000000,0.000000,0.000000,0.000000,1769524054.790184,0.000000
222.000000,15363.404496,14306.077576,3429.741076,-3237.292556,6317.586460,-10273.867580,575.289199,-17985.130010,12671.762725,11127.056018,-8954.935843,569.500097,21544.891184,12566.664823,-396.452891,3597.379160,0.012000,-0.024000,1.004000,192.000000,0.000000,0.000000,0.000000,0.000000,0.000000,0.000000,0.000000,0.000000,0.000000,1769524054.790199,0.000000
224.000000,15386.762069,14333.346705,3437.653594,-3225.557891,6339.826446,-10272.057089,584.833394,-17972.970661,12786.181305,11110.940410,-9042.018240,506.401122,21520.863059,12522.095444,-455.506200,3549.591130,0.010000,-0.028000,0.998000,192.000000,0.000000,40.000000,127.500000,16.000000,15.500000,24.000000,0.000000,0.000000,0.000000,1769524054.790215,0.000000
226.000000,15376.726136,14322.371998,3473.863420,-3186.397634,6331.221024,-10247.783094,619.925632,-17926.210812,12684.100888,11146.166759,-8944.631689,579.960713,21561.520882,12583.450983,-377.900944,3602.117729,0.010000,-0.028000,0.998000,192.000000,0.000000,0.000000,0.000000,0.000000,0.000000,0.000000,0.000000,0.000000,0.000000,1769524054.790230,0.000000
228.000000,15392.394709,14328.608135,3409.155120,-3257.565589,6336.116056,-10282.808278,552.132792,-18009.314598,12739.175587,11125.625506,-9004.355550,535.145466,21538.140957,12545.676535,-429.958156,3568.366595,0.010000,-0.028000,0.998000,192.000000,0.000000,0.000000,0.000000,0.000000,0.000000,0.000000,0.000000,0.000000,0.000000,1769524054.790245,0.000000
230.000000,15407.571543,14340.856891,3489.152013,-3175.557038,6351.538760,-10233.723847,630.475656,-17905.781317,12772.055003,11145.138579,-8987.390576,547.461277,21558.034010,12560.294576,-423.498502,3572.725185,0.010000,-0.028000,0.998000,192.000000,0.000000,0.000000,0.000000,0.000000,0.000000,0.000000,0.000000,0.000000,0.000000,1769524054.790260,0.000000
232.000000,15381.174133,14322.528460,3437.452428,-3227.793065,6331.735114,-10254.443914,579.670141,-17969.819065,12686.470173,11144.155102,-8944.341116,580.877135,21562.750228,12581.171105,-390.104996,3598.407340,0.010000,-0.028000,0.998000,192.000000,0.000000,0.000000,0.000000,0.000000,0.000000,0.000000,0.000000,0.000000,0.000000,1769524054.790275,0.000000
234.000000,15402.944732,14357.128961,3444.672041,-3219.187643,6359.004242,-10254.220397,588.990818,-17956.631536,12802.721596,11133.538024,-9024.494472,523.254338,21538.230364,12542.904919,-469.096061,3553.525037,0.010000,-0.028000,1.002000,192.000000,0.000000,40.000000,127.500000,16.000000,15.500000,40.000000,0.000000,0.000000,0.000000,1769524054.790290,0.000000
236.000000,15384.661005,14328.205803,3473.572847,-3184.810660,6334.864358,-10238.998859,621.244385,-17916.331341,12695.299112,11160.024841,-8929.723076,593.885850,21576.474199,12595.163297,-375.397548,3597.177994,0.010000,-0.028000,1.002000,192.000000,0.000000,0.000000,0.000000,0.000000,0.000000,0.000000,0.000000,0.000000,0.000000,1769524054.790305,0.000000
238.000000,15397.088575,14336.565356,3405.735303,-3255.352766,6341.413419,-10273.956987,551.216370,-18004.643083,12742.193072,11130.341724,-8999.304056,548.109478,21537.202184,12553.142018,-430.561653,3569.238313,0.010000,-0.028000,1.002000,192.000000,0.000000,0.000000,0.000000,0.000000,0.000000,0.000000,0.000000,0.000000,0.000000,1769524054.790320,0.000000
240.000000,15401.514220,14347.249490,3484.659312,-3172.427794,6357.260806,-10225.543109,628.106371,-17905.177820,12777.978215,11150.614756,-8989.625751,552.959806,21562.549062,12569.458791,-422.470322,3575.608561,0.010000,-0.028000,1.002000,192.000000,0.000000,0.000000,0.000000,0.000000,0.000000,0.000000,0.000000,0.000000,0.000000,1769524054.790334,0.000000
242.000000,15382.783459,14318.259277,3431.328050,-3228.016582,6332.740943,-10259.249539,575.356254,-17976.546940,12690.560542,11147.038477,-8949.549073,582.441757,21567.064114,12587.206076,-387.579249,3602.475357,0.010000,-0.028000,1.002000,192.000000,0.000000,0.000000,0.000000,0.000000,0.000000,0.000000,0.000000,0.000000,0.000000,1769524054.790348,0.000000
244.000000,15400.731909,14347.987097,3438.748829,-3219.969954,6352.991623,-10256.813199,583.626399,-17963.806446,12796.753680,11127.234832,-9035.960917,519.298079,21537.135129,12539.328639,-458.277817,3556.162543,0.002000,-0.028000,1.008000,192.000000,0.000000,8.000000,127.500000,16.000000,15.500000,64.000000,0.000000,0.000000,0.000000,1769524054.790360,0.000000
246.000000,15383.833991,14331.178585,3476.053891,-3182.530783,6341.860454,-10230.549899,620.707944,-17916.644265,12696.237886,11160.158951,-8934.707515,594.399940,21577.681193,12600.192440,-380.806670,3605.246974,0.002000,-0.028000,1.008000,192.000000,0.000000,0.000000,0.000000,0.000000,0.000000,0.000000,0.000000,0.000000,0.000000,1769524054.790370,0.000000
248.000000,15388.192581,14333.503167,3403.544832,-3258.616121,6335.780780,-10277.242694,548.623568,-18012.890877,12739.756732,11132.263974,-9002.947390,540.778105,21541.113739,12555.868930,-427.834741,3569.998273,0.002000,-0.028000,1.008000,192.000000,0.000000,0.000000,0.000000,0.000000,0.000000,0.000000,0.000000,0.000000,0.000000,1769524054.790381,0.000000
250.000000,15394.696938,14354.022068,3482.535897,-3173.254809,6353.796286,-10228.202966,626.340583,-17911.257495,12762.421401,11145.943242,-9000.421643,542.342727,21550.412065,12565.882512,-423.342040,3577.687273,0.002000,-0.028000,1.008000,192.000000,0.000000,0.000000,0.000000,0.000000,0.000000,0.000000,0.000000,0.000000,0.000000,1769524054.790394,0.000000
252.000000,15382.090554,14324.517766,3433.205597,-3228.418914,6330.394009,-10258.534283,575.110385,-17976.993975,12681.642196,11154.347498,-8953.684146,580.407748,21559.419818,12593.397509,-392.518984,3596.283924,0.002000,-0.028000,1.008000,192.000000,0.000000,0.000000,0.000000,0.000000,0.000000,0.000000,0.000000,0.000000,0.000000,1769524054.790406,0.000000
254.000000,15396.753299,14351.205748,3436.603062,-3224.730876,6348.968309,-10263.943406,579.848955,-17970.757839,12794.317340,11135.147349,-9039.537196,515.297117,21528.552059,12543.731933,-458.702500,3548.339432,0.008000,-0.028000,1.006000,192.000000,0.000000,32.000000,127.500000,16.000000,15.500000,56.000000,0.000000,0.000000,0.000000,1769524054.790417,0.000000
0.000000,15375.429735,14323.377827,3467.716690,-3191.225611,6337.859492,-10243.804484,611.834301,-17929.384760,12691.812240,11157.320280,-8945.324593,587.269734,21563.979574,12596.325588,-382.483051,3598.206174,0.008000,-0.028000,1.006000,192.000000,0.000000,0.000000,0.000000,0.000000,0.000000,0.000000,0.000000,0.000000,0.000000,1769524054.790428,0.000000
2.000000,15379.542456,14327.490548,3399.029779,-3259.666653,6335.467855,-10284.730528,546.276634,-18016.981246,12733.230023,11128.732399,-9014.480891,537.067716,21530.004922,12550.057477,-433.668546,3567.986616,0.008000,-0.028000,1.006000,192.000000,0.000000,0.000000,0.000000,0.000000,0.000000,0.000000,0.000000,0.000000,0.000000,1769524054.790438,0.000000
4.000000,15391.835915,14343.740266,3477.663216,-3177.501640,6352.790457,-10238.998859,623.680726,-17914.923181,12764.388354,11150.234777,-9002.656818,545.203751,21551.507300,12563.692041,-435.188465,3569.730052,0.008000,-0.028000,1.006000,192.000000,0.000000,0.000000,0.000000,0.000000,0.000000,0.000000,0.000000,0.000000,0.000000,1769524054.790449,0.000000
6.000000,15364.030345,14312.738396,3425.695410,-3235.794990,6324.023762,-10274.985167,569.097766,-17985.130010,12677.328310,11139.997678,-8962.133105,573.076376,21547.819262,12575.985500,-392.563688,3597.915601,0.008000,-0.028000,1.006000,192.000000,0.000000,0.000000,0.000000,0.000000,0.000000,0.000000,0.000000,0.000000,0.000000,1769524054.790460,0.000000
8.000000,15404.129375,14345.170777,3437.407725,-3229.357687,6351.315242,-10264.301034,577.837298,-17972.791847,12790.629302,11124.485567,-9045.438057,510.938527,21521.332445,12528.756264,-455.930883,3551.491028,0.004000,-0.026000,1.010000,192.000000,0.000000,16.000000,127.500000,24.000000,15.500000,72.000000,0.000000,0.000000,0.000000,1769524054.790470,0.000000
10.000000,15370.489999,14322.707274,3470.376548,-3193.505489,6330.438713,-10243.268042,612.102522,-17930.859975,12692.348682,11155.845065,-8944.810503,583.693455,21564.203091,12588.144849,-383.175955,3598.943782,0.004000,-0.026000,1.010000,192.000000,0.000000,0.000000,0.000000,0.000000,0.000000,0.000000,0.000000,0.000000,0.000000,1769524054.790482,0.000000
12.000000,15375.921473,14329.323391,3402.203727,-3265.746327,6333.724419,-10282.316540,545.248454,-18021.473947,12731.732456,11123.926774,-9014.883222,528.261128,21527.278009,12542.413180,-433.445028,3569.975921,0.004000,-0.026000,1.010000,192.000000,0.000000,0.000000,0.000000,0.000000,0.000000,0.000000,0.000000,0.000000,0.000000,1769524054.790493,0.000000
14.000000,15403.749395,14336.118321,3480.434833,-3185.302399,6349.862379,-10232.136873,624.127760,-17921.002855,12767.070564,11142.255204,-9004.221440,533.379678,21546.031123,12556.025393,-432.059220,3570.981749,0.004000,-0.026000,1.010000,192.000000,0.000000,0.000000,0.000000,0.000000,0.000000,0.000000,0.000000,0.000000,0.000000,1769524054.790504,0.000000
16.000000,15349.948746,14307.441033,3427.394143,-3241.517036,6324.046114,-10268.726679,570.327112,-17991.589664,12675.271949,11135.661439,-8964.301224,561.587579,21548.378056,12567.447134,-388.160394,3593.936991,0.004000,-0.026000,1.010000,192.000000,0.000000,0.000000,0.000000,0.000000,0.000000,0.000000,0.000000,0.000000,0.000000,1769524054.790515,0.000000
18.000000,15388.930188,14348.523539,3436.021916,-3233.269242,6351.114077,-10263.988109,578.820774,-17978.268025,12785.734270,11119.165852,-9047.405010,504.188300,21516.348006,12522.520128,-457.875485,3544.584339,0.001000,-0.025000,1.012000,192.000000,127.500000,120.000000,127.500000,32.000000,15.500000,88.000000,0.000000,0.000000,0.000000,1769524054.790526,0.000000
20.000000,15368.478342,14329.502205,3470.912989,-3193.058454,6329.276422,-10239.848225,613.398923,-17931.843451,12691.365205,11151.955861,-8946.352773,578.731367,21563.778408,12582.333396,-375.688121,3597.826195,0.001000,-0.025000,1.012000,192.000000,0.000000,0.000000,0.000000,0.000000,0.000000,0.000000,0.000000,0.000000,0.000000,1769524054.790537,0.000000
22.000000,15364.410325,14324.026027,3401.019085,-3268.495592,6329.187015,-10283.188258,541.605120,-18026.056054,12734.548775,11125.603154,-9014.547946,524.818960,21529.088501,12540.446227,-433.266215,3568.254837,0.001000,-0.025000,1.012000,192.000000,0.000000,0.000000,0.000000,0.000000,0.000000,0.000000,0.000000,0.000000,0.000000,1769524054.790548,0.000000
24.000000,15389.779555,14342.332106,3479.205487,-3188.632809,6352.857513,-10242.150455,619.433894,-17925.093225,12762.756677,11136.287288,-9011.329295,528.909329,21546.411103,12548.403448,-420.257499,3568.880685,0.001000,-0.025000,1.012000,192.000000,0.000000,0.000000,0.000000,0.000000,0.000000,0.000000,0.000000,0.000000,0.000000,1769524054.790559,0.000000
26.000000,15361.906929,14318.907478,3426.008335,-3241.606443,6325.253108,-10271.677109,568.762489,-17990.539132,12673.707327,11139.349477,-8963.720079,564.448603,21553.027219,12570.442268,-383.913563,3590.606581,0.001000,-0.025000,1.012000,192.000000,0.000000,0.000000,0.000000,0.000000,0.000000,0.000000,0.000000,0.000000,0.000000,1769524054.790571,0.000000
28.000000,15398.206162,14346.690696,3432.088009,-3238.633661,6346.934300,-10273.442897,571.712920,-17983.543036,12786.695395,11120.171680,-9049.930757,496.633410,21520.952466,12521.626058,-459.909494,3555.961377,0.001500,-0.027500,1.009000,192.000000,0.000000,8.000000,127.500000,8.000000,15.500000,56.000000,0.000000,0.000000,0.000000,1769524054.790582,0.000000
30.000000,15379.229531,14332.452635,3471.762356,-3194.868945,6336.876015,-10244.899719,610.180272,-17930.703513,12687.677167,11153.855759,-8952.164227,575.266847,21564.560719,12578.421840,-375.084624,3597.759139,0.001500,-0.027500,1.009000,192.000000,0.000000,0.000000,0.000000,0.000000,0.000000,0.000000,0.000000,0.000000,0.000000,1769524054.790593,0.000000
32.000000,15382.001148,14336.654763,3400.817919,-3265.701624,6331.332783,-10286.161040,540.196960,-18021.920982,12737.432151,11133.962707,-9010.569335,532.507960,21538.006847,12546.458846,-426.113656,3566.779621,0.001500,-0.027500,1.009000,192.000000,0.000000,0.000000,0.000000,0.000000,0.000000,0.000000,0.000000,0.000000,0.000000,1769524054.790604,0.000000
34.000000,15395.970988,14349.954051,3477.305588,-3183.760128,6347.291928,-10237.255423,616.639926,-17922.656885,12768.255206,11151.844102,-9008.065940,534.273748,21550.300306,12556.517131,-424.727848,3570.490011,0.001500,-0.027500,1.009000,192.000000,0.000000,0.000000,0.000000,0.000000,0.000000,0.000000,0.000000,0.000000,0.000000,1769524054.790615,0.000000
36.000000,15375.854418,14321.075597,3424.041381,-3234.431533,6317.899384,-10266.625615,567.577847,-17988.728641,12673.126182,11149.050134,-8964.815314,568.315455,21552.669591,12577.863047,-388.160394,3600.418997,0.001500,-0.027500,1.009000,192.000000,0.000000,0.000000,0.000000,0.000000,0.000000,0.000000,0.000000,0.000000,0.000000,1769524054.790626,0.000000
38.000000,15403.592933,14351.518673,3428.847006,-3230.095295,6340.385239,-10259.204836,571.288237,-17981.106696,12785.555456,11130.855814,-9049.975461,506.736399,21522.293570,12533.874814,-464.357491,3552.765078,0.003750,-0.025750,1.005500,192.000000,0.000000,24.000000,127.500000,32.000000,15.500000,40.000000,0.000000,0.000000,0.000000,1769524054.790637,0.000000
40.000000,15374.736831,14332.653801,3467.940207,-3191.069149,6325.454274,-10238.127141,608.548595,-17932.335190,12685.263179,11163.221140,-8952.812428,578.150222,21563.577242,12592.838716,-380.203173,3603.592945,0.003750,-0.025750,1.005500,192.000000,0.000000,0.000000,0.000000,0.000000,0.000000,0.000000,0.000000,0.000000,0.000000,1769524054.790648,0.000000
42.000000,15374.803886,14336.386542,3397.778082,-3262.930007,6327.376524,-10274.784002,538.252358,-18023.865583,12731.419531,11136.957841,-9013.609173,531.323317,21530.228440,12553.589052,-431.612185,3572.032281,0.003750,-0.025750,1.005500,192.000000,0.000000,0.000000,0.000000,0.000000,0.000000,0.000000,0.000000,0.000000,0.000000,1769524054.790660,0.000000
44.000000,15384.929226,14347.741228,3472.298798,-3185.995303,6344.699126,-10233.925013,613.533034,-17929.205946,12759.336860,11152.469951,-9012.022199,531.971518,21547.372228,12562.663861,-425.733677,3573.708662,0.003750,-0.025750,1.005500,192.000000,0.000000,0.000000,0.000000,0.000000,0.000000,0.000000,0.000000,0.000000,0.000000,1769524054.790671,0.000000
46.000000,15363.896234,14324.696580,3423.102608,-3236.309080,6319.195785,-10263.094039,567.242571,-17991.567313,12664.945443,11149.631280,-8970.135030,563.398071,21552.289611,12579.517076,-387.668656,3598.742616,0.003750,-0.025750,1.005500,192.000000,0.000000,0.000000,0.000000,0.000000,0.000000,0.000000,0.000000,0.000000,0.000000,1769524054.790682,0.000000
48.000000,15400.843668,14359.654708,3432.311527,-3231.034068,6348.208350,-10260.702403,575.669178,-17977.575121,12784.594331,11130.833463,-9048.902577,504.724742,21527.926210,12531.550232,-461.250599,3545.746630,0.003875,-0.024875,1.005750,192.000000,0.000000,16.000000,127.500000,32.000000,15.500000,56.000000,0.000000,0.000000,0.000000,1769524054.790692,0.000000
50.000000,15377.955482,14338.442902,3466.397937,-3194.488966,6328.941146,-10245.659679,608.682705,-17934.168033,12687.252484,11164.070507,-8949.884349,577.636132,21569.791027,12587.317835,-379.197345,3596.798014,0.003875,-0.024875,1.005750,192.000000,0.000000,0.000000,0.000000,0.000000,0.000000,0.000000,0.000000,0.000000,0.000000,1769524054.790703,0.000000
52.000000,15387.209104,14336.185376,3397.778082,-3265.612217,6328.561166,-10282.696519,539.571111,-18025.832537,12723.909345,11131.079332,-9015.710237,525.310698,21534.743492,12544.447189,-432.238034,3577.061424,0.003875,-0.024875,1.005750,192.000000,0.000000,0.000000,0.000000,0.000000,0.000000,0.000000,0.000000,0.000000,0.000000,1769524054.790714,0.000000
54.000000,15395.926284,14349.864644,3480.233667,-3184.698902,6350.331765,-10232.360391,617.019906,-17927.194289,12757.682831,11152.134675,-9010.412873,523.902538,21551.864928,12557.388849,-429.332307,3577.620218,0.003875,-0.024875,1.005750,192.000000,0.000000,0.000000,0.000000,0.000000,0.000000,0.000000,0.000000,0.000000,0.000000,1769524054.790724,0.000000
56.000000,15365.349098,14321.165004,3429.785780,-3236.130266,6322.772065,-10262.982281,568.538972,-17990.270911,12670.667490,11147.194940,-8961.306091,561.229952,21564.851292,12580.120573,-384.539412,3602.073026,0.003875,-0.024875,1.005750,192.000000,0.000000,0.000000,0.000000,0.000000,0.000000,0.000000,0.000000,0.000000,0.000000,1769524054.790735,0.000000
58.000000,15401.558924,14351.161045,3429.919890,-3235.884397,6339.602928,-10265.619786,572.070548,-17984.124182,12776.547703,11123.859718,-9049.796647,492.654800,21529.356722,12527.772788,-461.697633,3561.951645,0.003938,-0.022437,1.005875,192.000000,0.000000,16.000000,127.500000,48.000000,15.500000,56.000000,0.000000,0.000000,0.000000,1769524055.270652,0.000000
60.000000,15372.412249,14331.558565,3473.103460,-3194.377207,6329.097608,-10242.910414,611.700191,-17932.201079,12682.469211,11154.459256,-8949.839646,571.601161,21572.629699,12584.635625,-386.931048,3605.537546,0.003938,-0.022437,1.005875,192.000000,0.000000,0.000000,0.000000,0.000000,0.000000,0.000000,0.000000,0.000000,0.000000,1769524055.270725,0.000000
62.000000,15377.217874,14332.497338,3404.282439,-3265.835734,6322.056809,-10286.786888,541.426306,-18022.390368,12722.076502,11124.194994,-9012.424530,525.176588,21540.443187,12542.212014,-422.917357,3569.126555,0.003938,-0.022437,1.005875,192.000000,0.000000,0.000000,0.000000,0.000000,0.000000,0.000000,0.000000,0.000000,0.000000,1769524055.270774,0.000000
64.000000,15393.400537,14355.072600,3481.798289,-3184.117756,6339.424114,-10241.189330,617.243423,-17919.728806,12757.280500,11143.685716,-9007.641257,530.295137,21554.345972,12551.599747,-424.660793,3573.283979,0.003938,-0.022437,1.005875,192.000000,0.000000,0.000000,0.000000,0.000000,0.000000,0.000000,0.000000,0.000000,0.000000,1769524055.270845,0.000000
66.000000,15374.401554,14326.328257,3431.260995,-3234.364478,6315.105416,-10270.581874,567.533143,-17983.274815,12665.526589,11142.836349,-8958.020384,567.287274,21561.722048,12573.169181,-386.551069,3601.335418,0.003938,-0.022437,1.005875,192.000000,0.000000,0.000000,0.000000,0.000000,0.000000,0.000000,0.000000,0.000000,0.000000,1769524055.270938,0.000000
68.000000,15400.195467,14358.090086,3432.892672,-3232.263414,6338.015954,-10267.989071,569.611856,-17975.876388,12778.626416,11125.357285,-9044.342821,501.059055,21529.200259,12523.883584,-460.803564,3554.620272,0.003938,-0.022437,1.005875,192.000000,0.000000,0.000000,127.500000,32.000000,15.500000,40.000000,0.000000,0.000000,0.000000,1769524055.271034,0.000000
70.000000,15385.778592,14336.185376,3469.705995,-3189.504527,6324.806073,-10238.596527,609.040333,-17924.892059,12687.386595,11163.958748,-8945.838683,576.853821,21572.115609,12585.887323,-383.868859,3606.051636,0.003938,-0.022437,1.005875,192.000000,0.000000,0.000000,0.000000,0.000000,0.000000,0.000000,0.000000,0.000000,0.000000,1769524055.271128,0.000000
72.000000,15383.811639,14337.414722,3399.230945,-3264.651092,6325.744847,-10280.126069,536.486570,-18018.769386,12725.161043,11124.597326,-9009.138824,529.401067,21543.013637,12544.916576,-435.456685,3575.116822,0.003938,-0.022437,1.005875,192.000000,0.000000,0.000000,0.000000,0.000000,0.000000,0.000000,0.000000,0.000000,0.000000,1769524055.271256,0.000000
74.000000,15406.163383,14348.568243,3478.244362,-3184.743605,6344.520312,-10237.993030,614.114179,-17918.588867,12763.337822,11137.002544,-9008.043588,527.523521,21559.822149,12546.838826,-429.801694,3577.821383,0.003938,-0.022437,1.005875,192.000000,0.000000,0.000000,0.000000,0.000000,0.000000,0.000000,0.000000,0.000000,0.000000,1769524055.271294,0.000000
76.000000,15374.781534,14319.958010,3428.064695,-3234.923272,6322.414437,-10265.083345,565.946170,-17982.604263,12674.087307,11142.545777,-8956.053431,566.303798,21570.081600,12572.163352,-389.568554,3605.358732,0.003938,-0.022437,1.005875,192.000000,0.000000,0.000000,0.000000,0.000000,0.000000,0.000000,0.000000,0.000000,0.000000,1769524055.271317,0.000000
78.000000,15397.468555,14350.468141,3429.450504,-3235.884397,6345.503789,-10268.078478,567.331978,-17981.374917,12780.950997,11114.919021,-9047.762638,498.443901,21537.001018,12520.173194,-457.964892,3557.704813,0.004969,-0.021219,1.004938,192.000000,0.000000,24.000000,127.500000,48.000000,15.500000,48.000000,0.000000,0.000000,0.000000,1769524055.271341,0.000000
80.000000,15387.387918,14326.998809,3467.135545,-3196.657085,6329.388181,-10248.230129,605.955792,-17932.558707,12677.998862,11146.949070,-8954.712326,568.516620,21576.004812,12574.465582,-378.280923,3604.352904,0.004969,-0.021219,1.004938,192.000000,0.000000,0.000000,0.000000,0.000000,0.000000,0.000000,0.000000,0.000000,0.000000,1769524055.271365,0.000000
82.000000,15387.991415,14339.694600,3402.002561,-3263.689967,6331.958632,-10279.835496,540.755754,-18013.516726,12724.669304,11119.769349,-9012.715103,524.059000,21544.041818,12535.975878,-434.652023,3571.451136,0.004969,-0.021219,1.004938,192.000000,0.000000,0.000000,0.000000,0.000000,0.000000,0.000000,0.000000,0.000000,0.000000,1769524055.271389,0.000000
84.000000,15406.655122,14352.770371,3478.624341,-3188.543402,6352.656347,-10247.648984,615.499987,-17917.985370,12765.036555,11142.098742,-9004.355550,532.731477,21559.643335,12548.135227,-432.863883,3569.037148,0.004969,-0.021219,1.004938,192.000000,0.000000,0.000000,0.000000,0.000000,0.000000,0.000000,0.000000,0.000000,0.000000,1769524055.271412,0.000000
86.000000,15375.854418,14324.696580,3428.578785,-3238.410144,6325.409570,-10271.073612,566.147335,-17983.386574,12667.784115,11133.761541,-8960.166152,561.945207,21563.197263,12563.535579,-381.410167,3594.272267,0.004969,-0.021219,1.004938,192.000000,0.000000,0.000000,0.000000,0.000000,0.000000,0.000000,0.000000,0.000000,0.000000,1769524055.271436,0.000000
88.000000,15410.231401,14353.396219,3432.065658,-3233.783333,6354.153914,-10259.294243,570.572981,-17980.391440,12785.175477,11121.445730,-9044.678097,500.097930,21539.392655,12523.570660,-457.920189,3547.601825,0.004969,-0.021219,1.004938,192.000000,0.000000,0.000000,0.000000,0.000000,0.000000,0.000000,0.000000,0.000000,0.000000,1769524055.271460,0.000000
90.000000,15381.934092,14327.445844,3467.761394,-3195.338332,6336.786608,-10241.949289,607.878042,-17935.643248,12679.742298,11146.971422,-8956.232245,563.085146,21574.574301,12576.276073,-374.905810,3611.058427,0.006000,-0.012000,1.002000,192.000000,0.000000,24.000000,127.500000,80.000000,15.500000,40.000000,0.000000,0.000000,0.000000,1769524055.271493,0.000000
92.000000,15380.436525,14325.165966,3399.789739,-3269.367310,6336.227815,-10285.468136,536.911254,-18026.145461,12722.769406,11117.087140,-9013.653876,517.867567,21545.248812,12534.925346,-422.425618,3578.626046,0.006000,-0.012000,1.002000,192.000000,0.000000,0.000000,0.000000,0.000000,0.000000,0.000000,0.000000,0.000000,0.000000,1769524055.271517,0.000000
94.000000,15395.591008,14342.577975,3480.546591,-3189.370416,6351.114077,-10244.251519,615.209414,-17926.300219,12756.609947,11129.470006,-9015.307905,516.168835,21555.485911,12541.317945,-418.514063,3579.587171,0.006000,-0.012000,1.002000,192.000000,0.000000,0.000000,0.000000,0.000000,0.000000,0.000000,0.000000,0.000000,0.000000,1769524055.271541,0.000000
96.000000,15382.738755,14334.106664,3438.659422,-3232.911615,6332.383315,-10259.964795,572.204658,-17979.340908,12673.595568,11139.081256,-8957.685108,558.972425,21569.858083,12571.783372,-372.380063,3606.610430,0.006000,-0.012000,1.002000,192.000000,0.000000,0.000000,0.000000,0.000000,0.000000,0.000000,0.000000,0.000000,0.000000,1769524055.271564,0.000000
98.000000,15405.179907,14351.049286,3437.988870,-3233.828036,6356.500847,-10264.233978,571.601161,-17976.837513,12794.294988,11124.642029,-9040.073638,497.303962,21541.963105,12524.710599,-448.040718,3555.067307,0.006000,-0.012000,1.002000,192.000000,0.000000,0.000000,0.000000,0.000000,0.000000,0.000000,0.000000,0.000000,0.000000,1769524055.271588,0.000000
100.000000,15393.445241,14330.910364,3475.740966,-3189.705692,6337.345402,-10246.062010,613.421275,-17923.260382,12687.990092,11144.937413,-8946.352773,569.388338,21580.184588,12577.438364,-373.743519,3605.850471,0.008000,-0.020000,1.000000,192.000000,0.000000,32.000000,127.500000,48.000000,15.500000,32.000000,0.000000,0.000000,0.000000,1769524055.271612,0.000000
102.000000,15397.334444,14332.430283,3403.678942,-3266.215714,6335.780780,-10286.295150,541.314547,-18016.981246,12726.837424,11120.216384,-9005.830765,525.109532,21545.874661,12538.859253,-428.058258,3573.887476,0.008000,-0.020000,1.000000,192.000000,0.000000,0.000000,0.000000,0.000000,0.000000,0.000000,0.000000,0.000000,0.000000,1769524055.271635,0.000000
104.000000,15397.043872,14350.356382,3481.015978,-3187.783442,6350.309414,-10243.558615,616.818740,-17919.527640,12762.220235,11132.129864,-9008.803547,523.030820,21556.827015,12541.921442,-423.051467,3570.981749,0.008000,-0.020000,1.000000,192.000000,0.000000,0.000000,0.000000,0.000000,0.000000,0.000000,0.000000,0.000000,0.000000,1769524055.271659,0.000000
106.000000,15377.687261,14320.382693,3431.931547,-3236.689059,6322.861472,-10270.268949,567.913123,-17984.817086,12669.773420,11135.616736,-8958.825047,561.453469,21568.315812,12566.016622,-382.013664,3596.932125,0.008000,-0.020000,1.000000,192.000000,0.000000,0.000000,0.000000,0.000000,0.000000,0.000000,0.000000,0.000000,0.000000,1769524055.271683,0.000000
108.000000,15394.763994,14344.679039,3430.232815,-3238.611309,6345.146161,-10272.995862,567.376681,-17987.678109,12777.821753,11112.013294,-9050.176626,489.123224,21538.029198,12516.708674,-455.170924,3553.301520,0.008000,-0.020000,1.000000,192.000000,0.000000,0.000000,0.000000,0.000000,0.000000,0.000000,0.000000,0.000000,0.000000,1769524055.271706,0.000000
110.000000,15383.006976,14325.143614,3468.387242,-3194.399559,6326.773027,-10248.163074,607.498063,-17935.039751,12677.194199,11141.048210,-8958.065088,559.017129,21574.775466,12573.459753,-378.549144,3607.750369,0.004000,-0.026000,1.000000,192.000000,0.000000,16.000000,127.500000,24.000000,15.500000,32.000000,0.000000,0.000000,0.000000,1769524055.271741,0.000000
112.000000,15386.203275,14332.251469,3398.850965,-3265.142830,6326.124826,-10284.730528,538.632338,-18021.429243,12716.376807,11114.583744,-9014.994981,518.068733,21537.246887,12537.339334,-431.656889,3574.848601,0.004000,-0.026000,1.000000,192.000000,0.000000,0.000000,0.000000,0.000000,0.000000,0.000000,0.000000,0.000000,0.000000,1769524055.271765,0.000000
114.000000,15400.173116,14353.642089,3475.964484,-3185.615323,6347.426039,-10243.402152,614.784731,-17922.545126,12761.504979,11134.208576,-9011.306943,522.784951,21553.943640,12547.375267,-426.270119,3570.445308,0.004000,-0.026000,1.000000,192.000000,0.000000,0.000000,0.000000,0.000000,0.000000,0.000000,0.000000,0.000000,0.000000,1769524055.271789,0.000000
116.000000,15381.420002,14323.400178,3429.182283,-3235.012679,6320.849815,-10268.659624,567.376681,-17983.721850,12665.615996,11131.883995,-8962.155457,556.692547,21561.610289,12569.592901,-383.645342,3605.783416,0.004000,-0.026000,1.000000,192.000000,0.000000,0.000000,0.000000,0.000000,0.000000,0.000000,0.000000,0.000000,0.000000,1769524055.271804,0.000000
118.000000,15410.700787,14351.697487,3430.009297,-3232.621042,6348.990661,-10263.205798,567.957827,-17981.196103,12784.057889,11116.461291,-9046.801513,495.247602,21531.323675,12524.196508,-459.685976,3560.543485,0.004000,-0.026000,1.000000,192.000000,0.000000,0.000000,0.000000,0.000000,0.000000,0.000000,0.000000,0.000000,0.000000,1769524055.271846,0.000000
120.000000,15406.409252,14355.698449,3480.703054,-3181.234381,6344.900292,-10221.765664,615.522339,-17916.152527,12695.567333,11155.286271,-8946.866864,574.171612,21579.938719,12590.335320,-387.869822,3605.649305,0.004000,-0.024000,0.998000,192.000000,0.000000,16.000000,127.500000,32.000000,15.500000,24.000000,0.000000,0.000000,0.000000,1769524055.271858,0.000000
122.000000,15376.055583,14334.307830,3400.259125,-3267.020377,6330.282251,-10283.925865,538.632338,-18022.546830,12735.152273,11134.096817,-9000.555754,532.753829,21554.949469,12555.645413,-426.940671,3562.957473,0.004000,-0.024000,0.998000,192.000000,0.000000,0.000000,0.000000,0.000000,0.000000,0.000000,0.000000,0.000000,0.000000,1769524055.271870,0.000000
124.000000,15384.459839,14340.052228,3469.147202,-3193.483137,6336.898367,-10253.482789,609.755589,-17932.938687,12751.558453,11125.983134,-9024.606231,511.631431,21546.724027,12539.529805,-423.342040,3577.597866,0.004000,-0.024000,0.998000,192.000000,0.000000,0.000000,0.000000,0.000000,0.000000,0.000000,0.000000,0.000000,0.000000,1769524055.271882,0.000000
126.000000,15379.654214,14320.181527,3425.226024,-3237.828998,6319.128730,-10271.565350,564.560361,-17989.600359,12663.917263,11133.716838,-8967.765745,551.350480,21558.637507,12569.972881,-385.478185,3606.297506,0.004000,-0.024000,0.998000,192.000000,0.000000,0.000000,0.000000,0.000000,0.000000,0.000000,0.000000,0.000000,0.000000,1769524055.271893,0.000000
128.000000,15398.474383,14356.190187,3426.164797,-3236.219673,6347.806018,-10266.446801,565.432079,-17985.465286,12784.661387,11119.456425,-9049.751943,495.135843,21533.849422,12527.705732,-452.846343,3560.901113,0.004000,-0.024000,0.998000,192.000000,0.000000,0.000000,0.000000,0.000000,0.000000,0.000000,0.000000,0.000000,0.000000,1769524055.271904,0.000000
130.000000,15381.107078,14337.504129,3468.186077,-3191.046797,6332.830350,-10241.234033,607.185138,-17930.390588,12687.476002,11155.241568,-8953.170056,568.181344,21574.663708,12586.088489,-377.632723,3609.650267,0.006000,-0.026000,1.002000,192.000000,0.000000,24.000000,127.500000,24.000000,15.500000,40.000000,0.000000,0.000000,0.000000,1769524055.271915,0.000000
132.000000,15386.382089,14337.481777,3400.303829,-3264.561685,6333.635012,-10279.477868,537.715916,-18022.166851,12723.082331,11130.811111,-9011.530460,525.176588,21542.298382,12547.710544,-421.598604,3578.000197,0.006000,-0.026000,1.002000,192.000000,0.000000,0.000000,0.000000,0.000000,0.000000,0.000000,0.000000,0.000000,0.000000,1769524055.271926,0.000000
134.000000,15400.731909,14358.470065,3481.284199,-3184.207163,6351.829332,-10235.310821,615.991725,-17919.706454,12768.054040,11145.071524,-9010.703446,526.405934,21550.523824,12553.209073,-424.437275,3575.742671,0.006000,-0.026000,1.002000,192.000000,0.000000,0.000000,0.000000,0.000000,0.000000,0.000000,0.000000,0.000000,0.000000,1769524055.271937,0.000000
136.000000,15391.567694,14330.418626,3435.440771,-3230.698792,6329.611698,-10261.350603,570.103594,-17979.854999,12674.310824,11153.118152,-8953.661794,566.974350,21570.618042,12583.763907,-379.957304,3603.302372,0.006000,-0.026000,1.002000,192.000000,0.000000,0.000000,0.000000,0.000000,0.000000,0.000000,0.000000,0.000000,0.000000,1769524055.271948,0.000000
138.000000,15405.693997,14358.939452,3432.132713,-3234.319774,6350.421172,-10268.190237,566.639074,-17982.939539,12788.125907,11131.504015,-9043.515807,499.717951,21535.369341,12534.299497,-450.655872,3555.715508,0.006000,-0.026000,1.002000,192.000000,0.000000,0.000000,0.000000,0.000000,0.000000,0.000000,0.000000,0.000000,0.000000,1769524055.271958,0.000000
140.000000,15390.852438,14344.008487,3477.059719,-3188.029312,6339.334707,-10236.339001,609.040333,-17924.780300,12695.187354,11164.361079,-8946.956271,572.271713,21578.307042,12592.749309,-373.564705,3602.676523,0.014000,-0.024000,1.000000,192.000000,0.000000,56.000000,127.500000,32.000000,15.500000,32.000000,0.000000,0.000000,0.000000,1769524055.271970,0.000000
142.000000,15402.430642,14349.283498,3406.227041,-3262.147696,6337.635975,-10278.606150,538.900559,-18015.729548,12738.549738,11144.825655,-9001.136899,529.557530,21551.440245,12560.741611,-424.750200,3572.188744,0.014000,-0.024000,1.000000,192.000000,0.000000,0.000000,0.000000,0.000000,0.000000,0.000000,0.000000,0.000000,0.000000,1769524055.271981,0.000000
144.000000,15403.771747,14354.402048,3477.730272,-3185.995303,6349.661213,-10240.161150,614.292993,-17921.986332,12780.146334,11156.694431,-9005.897821,527.501169,21558.861024,12563.043840,-430.025212,3570.825287,0.014000,-0.024000,1.000000,192.000000,0.000000,0.000000,0.000000,0.000000,0.000000,0.000000,0.000000,0.000000,0.000000,1769524055.271992,0.000000
146.000000,15367.740735,14317.253449,3431.551568,-3234.990327,6329.298774,-10258.154304,567.466088,-17986.024080,12668.611129,11146.926719,-8959.987338,560.894675,21564.963050,12583.719204,-381.588981,3607.035113,0.014000,-0.024000,1.000000,192.000000,0.000000,0.000000,0.000000,0.000000,0.000000,0.000000,0.000000,0.000000,0.000000,1769524055.272003,0.000000
148.000000,15393.087613,14346.221309,3432.713858,-3238.924234,6355.897350,-10260.456533,564.292141,-17987.700461,12783.968482,11124.507919,-9046.063905,492.207765,21538.655047,12534.500663,-452.533418,3560.521133,0.014000,-0.024000,1.000000,192.000000,0.000000,0.000000,0.000000,0.000000,0.000000,0.000000,0.000000,0.000000,0.000000,1769524055.272014,0.000000
150.000000,15380.123601,14325.255373,3481.239495,-3190.175079,6346.196693,-10236.517815,610.448493,-17928.356579,12695.455574,11155.934472,-8946.755105,563.152202,21586.376022,12591.072928,-369.764909,3605.090511,0.008000,-0.026000,1.008000,192.000000,0.000000,32.000000,127.500000,24.000000,15.500000,64.000000,0.000000,0.000000,0.000000,1769524055.272025,0.000000
152.000000,15381.531761,14324.674228,3406.159986,-3267.087432,6334.797303,-10280.997787,538.207655,-18022.435072,12730.234889,11127.167776,-9005.249620,520.236852,21553.630716,12549.990422,-415.764799,3577.083776,0.008000,-0.026000,1.008000,192.000000,0.000000,0.000000,0.000000,0.000000,0.000000,0.000000,0.000000,0.000000,0.000000,1769524055.272037,0.000000
154.000000,15382.537589,14341.572147,3478.333769,-3186.799966,6348.834199,-10241.837530,613.711848,-17922.411015,12768.724593,11140.243547,-9010.278763,519.856873,21559.933908,12552.382058,-427.253595,3573.708662,0.008000,-0.026000,1.008000,192.000000,0.000000,0.000000,0.000000,0.000000,0.000000,0.000000,0.000000,0.000000,0.000000,1769524055.272050,0.000000
156.000000,15373.731002,14318.594553,3435.753695,-3232.621042,6323.241451,-10264.211627,568.807193,-17978.715060,12674.444935,11145.965594,-8953.482980,568.024882,21569.254585,12579.271207,-382.058368,3602.587116,0.008000,-0.026000,1.008000,192.000000,0.000000,0.000000,0.000000,0.000000,0.000000,0.000000,0.000000,0.000000,0.000000,1769524055.272062,0.000000
158.000000,15395.970988,14347.405952,3432.870320,-3238.074867,6339.580576,-10271.610054,564.716824,-17982.045470,12789.467012,11125.066713,-9041.079466,497.974515,21538.632696,12527.616325,-456.802601,3555.357880,0.008000,-0.026000,1.008000,192.000000,0.000000,0.000000,0.000000,0.000000,0.000000,0.000000,0.000000,0.000000,0.000000,1769524055.272074,0.000000
160.000000,15380.570636,14330.351571,3474.444565,-3191.404425,6325.051942,-10243.513911,606.983972,-17926.009646,12694.449746,11161.611815,-8946.956271,566.169687,21579.379926,12582.668672,-378.280923,3606.722189,0.006000,-0.024000,1.008000,192.000000,0.000000,16.000000,127.500000,40.000000,15.500000,64.000000,0.000000,0.000000,0.000000,1769524055.272084,0.000000
162.000000,15379.363642,14337.615888,3404.125977,-3264.226409,6325.834254,-10281.936560,537.246530,-18017.830612,12730.525461,11130.967573,-9004.579068,525.467160,21549.741513,12549.789256,-428.952328,3578.447232,0.006000,-0.024000,1.008000,192.000000,0.000000,0.000000,0.000000,0.000000,0.000000,0.000000,0.000000,0.000000,0.000000,1769524055.272096,0.000000
164.000000,15389.824258,14347.182434,3474.936303,-3187.269352,6346.151989,-10244.050353,612.303688,-17922.992161,12770.870360,11140.444713,-9012.066902,519.409838,21556.670553,12550.213939,-427.745334,3573.507497,0.006000,-0.024000,1.008000,192.000000,0.000000,0.000000,0.000000,0.000000,0.000000,0.000000,0.000000,0.000000,0.000000,1769524055.272107,0.000000
166.000000,15373.708650,14323.333123,3432.691506,-3232.129303,6327.868262,-10258.199007,570.617684,-17979.407964,12671.516856,11144.915062,-8957.416887,558.570094,21570.841559,12580.344091,-381.924258,3605.939878,0.006000,-0.024000,1.008000,192.000000,0.000000,0.000000,0.000000,0.000000,0.000000,0.000000,0.000000,0.000000,0.000000,1769524055.272157,0.000000
168.000000,15401.625979,14346.735400,3431.082181,-3242.634623,6351.829332,-10261.015327,564.493306,-17988.661586,12791.255151,11121.199861,-9045.371001,489.927887,21544.555908,12532.377247,-452.287549,3556.475467,0.006000,-0.024000,1.008000,192.000000,0.000000,0.000000,0.000000,0.000000,0.000000,0.000000,0.000000,0.000000,0.000000,1769524055.272169,0.000000
170.000000,15388.751374,14332.989077,3480.412481,-3195.092463,6348.342460,-10234.282641,609.956754,-17927.842489,12703.926886,11151.262957,-8950.398439,557.653672,21595.227312,12590.357672,-373.028263,3604.017628,0.006000,-0.023000,1.007000,192.000000,0.000000,24.000000,127.500000,40.000000,15.500000,56.000000,0.000000,0.000000,0.000000,1769524055.272180,0.000000
172.000000,15378.670738,14331.536213,3408.104588,-3273.502382,6341.033440,-10285.378729,537.335937,-18021.362188,12734.101741,11124.016181,-9003.483832,518.269899,21568.405219,12550.638622,-412.344982,3569.752403,0.006000,-0.023000,1.007000,192.000000,0.000000,0.000000,0.000000,0.000000,0.000000,0.000000,0.000000,0.000000,0.000000,1769524055.272191,0.000000
174.000000,15398.519087,14352.859778,3483.072338,-3191.180908,6359.495981,-10243.983298,614.114179,-17921.002855,12775.519523,11134.677963,-9008.691789,515.766503,21572.696754,12549.297517,-417.463531,3566.042014,0.006000,-0.023000,1.007000,192.000000,0.000000,0.000000,0.000000,0.000000,0.000000,0.000000,0.000000,0.000000,0.000000,1769524055.272202,0.000000
176.000000,15373.395726,14321.477928,3433.719687,-3238.208978,6331.645707,-10269.084307,568.941303,-17983.386574,12680.345795,11140.534120,-8953.639442,558.503039,21578.932891,12576.074907,-375.576362,3595.613372,0.006000,-0.023000,1.007000,192.000000,0.000000,0.000000,0.000000,0.000000,0.000000,0.000000,0.000000,0.000000,0.000000,1769524055.272213,0.000000
178.000000,15388.058470,14345.841330,3431.171588,-3243.819266,6346.822542,-10276.259217,564.001568,-17989.332138,12785.510753,11115.544869,-9049.662536,487.513898,21541.650181,12520.843747,-448.308939,3547.490066,0.006000,-0.023000,1.007000,192.000000,0.000000,0.000000,0.000000,0.000000,0.000000,0.000000,0.000000,0.000000,0.000000,1769524055.751577,0.000000
180.000000,15378.760145,14333.257298,3479.674873,-3192.656123,6341.301661,-10243.066876,610.627307,-17928.133062,12692.751013,11152.782876,-8948.923224,561.453469,21587.292443,12581.282864,-375.375196,3590.181898,0.006000,-0.023500,1.005500,192.000000,0.000000,24.000000,127.500000,32.000000,15.500000,48.000000,0.000000,0.000000,0.000000,1769524055.751639,0.000000
182.000000,15370.065316,14319.399216,3399.409759,-3273.167106,6326.437751,-10292.508935,534.541969,-18034.147386,12722.232964,11120.506957,-9011.217536,514.715971,21552.669591,12540.379171,-422.939709,3562.465735,0.006000,-0.023500,1.005500,192.000000,0.000000,0.000000,0.000000,0.000000,0.000000,0.000000,0.000000,0.000000,0.000000,1769524055.751677,0.000000
184.000000,15378.760145,14339.225213,3474.981007,-3192.320847,6345.570844,-10244.318574,611.007286,-17934.279792,12757.861645,11121.445730,-9022.214594,503.696561,21554.547138,12541.116779,-429.533473,3570.065328,0.006000,-0.023500,1.005500,192.000000,0.000000,0.000000,0.000000,0.000000,0.000000,0.000000,0.000000,0.000000,0.000000,1769524055.751720,0.000000
186.000000,15362.666889,14314.459481,3429.294041,-3238.678365,6322.503844,-10267.609092,564.426251,-17991.835534,12659.648080,11126.765445,-8965.150591,547.036594,21564.225443,12572.833904,-382.594810,3600.530756,0.006000,-0.023500,1.005500,192.000000,0.000000,0.000000,0.000000,0.000000,0.000000,0.000000,0.000000,0.000000,0.000000,1769524055.751772,0.000000
188.000000,15394.294607,14344.544929,3427.237681,-3239.661841,6347.426039,-10267.676147,562.973388,-17993.042528,12776.748869,11113.555564,-9052.098876,485.435186,21537.135129,12526.096407,-450.722927,3555.447287,0.006000,-0.023500,1.005500,192.000000,0.000000,0.000000,0.000000,0.000000,0.000000,0.000000,0.000000,0.000000,0.000000,1769524055.751814,0.000000
190.000000,15371.339365,14320.673266,3469.102498,-3191.583239,6333.456198,-10242.530434,605.866385,-17936.894946,12686.224304,11144.512730,-8958.757992,555.038518,21574.171969,12580.969939,-377.051577,3609.873785,0.007000,-0.024750,1.006750,192.000000,0.000000,32.000000,127.500000,24.000000,15.500000,64.000000,0.000000,0.000000,0.000000,1769524055.751840,0.000000
192.000000,15368.746563,14328.518728,3399.387407,-3264.069946,6333.523254,-10281.847153,534.430210,-18026.905421,12718.276706,11118.607058,-9015.352609,514.671268,21541.136091,12545.385962,-416.390647,3578.760156,0.007000,-0.024750,1.006750,192.000000,0.000000,0.000000,0.000000,0.000000,0.000000,0.000000,0.000000,0.000000,0.000000,1769524055.751850,0.000000
194.000000,15388.058470,14348.501187,3476.545629,-3184.788309,6353.639824,-10232.896833,610.359086,-17925.450853,12762.197883,11139.640050,-9014.682056,513.061942,21550.747341,12553.767866,-423.096171,3574.021587,0.007000,-0.024750,1.006750,192.000000,0.000000,0.000000,0.000000,0.000000,0.000000,0.000000,0.000000,0.000000,0.000000,1769524055.751860,0.000000
196.000000,15367.964252,14323.131957,3432.311527,-3231.168178,6325.498977,-10257.170827,565.499135,-17982.134877,12671.315690,11150.637108,-8953.907663,562.124021,21565.499492,12584.479163,-379.577324,3604.308200,0.007000,-0.024750,1.006750,192.000000,0.000000,0.000000,0.000000,0.000000,0.000000,0.000000,0.000000,0.000000,0.000000,1769524055.751871,0.000000
198.000000,15395.792174,14350.132865,3426.611832,-3237.717240,6343.067449,-10264.971586,559.821792,-17988.169848,12780.660424,11123.278573,-9046.175664,491.470157,21524.305227,12531.058494,-457.026119,3558.643586,0.007000,-0.024750,1.006750,192.000000,0.000000,0.000000,0.000000,0.000000,0.000000,0.000000,0.000000,0.000000,0.000000,1769524055.751881,0.000000
200.000000,15380.771802,14331.715027,3473.259923,-3184.184812,6330.215195,-10235.288469,609.442664,-17925.003818,12693.354510,11160.561283,-8948.498541,565.409728,21570.394524,12590.514134,-383.846508,3606.632782,0.007500,-0.023375,1.007375,192.000000,0.000000,32.000000,127.500000,40.000000,15.500000,64.000000,0.000000,0.000000,0.000000,1769524055.751891,0.000000
202.000000,15373.216912,14325.478891,3399.812090,-3263.064118,6326.035419,-10286.339854,535.816018,-18025.340799,12722.367075,11130.431131,-9008.311809,521.421495,21538.789158,12553.454942,-426.068953,3577.262590,0.007500,-0.023375,1.007375,192.000000,0.000000,0.000000,0.000000,0.000000,0.000000,0.000000,0.000000,0.000000,0.000000,1769524055.751902,0.000000
204.000000,15395.434546,14343.829673,3473.751661,-3185.414158,6350.085896,-10246.620804,608.638002,-17929.004780,12762.309642,11136.041419,-9021.007600,509.820939,21547.305172,12551.510340,-417.530586,3566.354938,0.007500,-0.023375,1.007375,192.000000,0.000000,0.000000,0.000000,0.000000,0.000000,0.000000,0.000000,0.000000,0.000000,1769524055.751912,0.000000
206.000000,15367.114886,14320.583859,3429.204634,-3229.625908,6330.773989,-10263.116391,565.454431,-17983.610092,12667.493542,11143.171626,-8960.702593,554.502076,21565.566548,12581.841657,-380.046711,3602.832985,0.007500,-0.023375,1.007375,192.000000,0.000000,0.000000,0.000000,0.000000,0.000000,0.000000,0.000000,0.000000,0.000000,1769524055.751922,0.000000
208.000000,15379.989491,14344.723743,3426.254204,-3238.767772,6350.220007,-10276.214513,559.978254,-17990.583836,12778.671119,11123.882070,-9050.198978,489.011465,21535.414044,12527.795139,-447.616034,3553.882665,0.007500,-0.023375,1.007375,192.000000,0.000000,0.000000,0.000000,0.000000,0.000000,0.000000,0.000000,0.000000,0.000000,1769524055.751932,0.000000
210.000000,15379.475400,14335.783045,3479.004321,-3185.145937,6344.185036,-10235.914318,611.543728,-17922.947457,12692.683958,11162.081201,-8951.940710,564.538010,21580.564568,12587.474297,-369.228467,3599.301410,0.006750,-0.021687,1.007688,192.000000,0.000000,24.000000,127.500000,48.000000,15.500000,64.000000,0.000000,0.000000,0.000000,1769524055.751943,0.000000
212.000000,15364.544435,14325.791815,3397.487509,-3267.176839,6325.633088,-10287.122165,533.558492,-18027.710083,12722.657647,11129.112378,-9008.937658,517.934623,21543.550079,12549.230462,-413.999011,3574.423918,0.006750,-0.021687,1.007688,192.000000,0.000000,0.000000,0.000000,0.000000,0.000000,0.000000,0.000000,0.000000,0.000000,1769524055.751956,0.000000
214.000000,15381.621168,14343.427341,3473.528144,-3188.029312,6347.291928,-10239.781170,609.263850,-17929.183594,12763.851912,11135.013239,-9019.308867,507.786931,21542.968934,12547.107046,-423.565557,3578.626046,0.006750,-0.021687,1.007688,192.000000,0.000000,0.000000,0.000000,0.000000,0.000000,0.000000,0.000000,0.000000,0.000000,1769524055.751966,0.000000
216.000000,15367.137237,14320.136824,3432.669155,-3230.229405,6321.833291,-10263.429315,566.460260,-17982.917188,12665.861865,11143.730419,-8955.785210,553.831524,21566.527673,12580.053518,-376.179859,3606.610430,0.006750,-0.021687,1.007688,192.000000,0.000000,0.000000,0.000000,0.000000,0.000000,0.000000,0.000000,0.000000,0.000000,1769524055.751976,0.000000
218.000000,15386.605607,14350.982231,3428.399972,-3238.276033,6342.978042,-10265.664490,561.364062,-17989.421545,12778.313491,11122.295096,-9046.019202,487.268029,21532.262448,12528.532747,-451.125258,3555.290825,0.006750,-0.021687,1.007688,192.000000,0.000000,0.000000,0.000000,0.000000,0.000000,0.000000,0.000000,0.000000,0.000000,1769524055.751988,0.000000
220.000000,15374.781534,14333.749036,3478.400824,-3188.811623,6332.159797,-10235.824911,608.861519,-17925.316742,12693.801545,11159.600158,-8947.492712,560.246475,21577.345917,12588.748346,-380.180821,3602.497709,0.006375,-0.022844,1.008844,192.000000,0.000000,24.000000,127.500000,32.000000,15.500000,72.000000,0.000000,0.000000,0.000000,1769524055.751998,0.000000
222.000000,15375.362679,14331.133882,3405.936468,-3265.343996,6328.762332,-10278.874371,535.212521,-18021.071615,12728.782025,11132.375733,-8999.169946,519.789817,21553.407199,12551.465637,-416.703572,3572.278151,0.006375,-0.022844,1.008844,192.000000,0.000000,0.000000,0.000000,0.000000,0.000000,0.000000,0.000000,0.000000,0.000000,1769524055.752008,0.000000
224.000000,15398.966122,14359.900577,3480.613647,-3185.302399,6355.204446,-10233.746199,609.263850,-17923.059216,12780.101631,11146.345573,-9007.283629,513.553681,21560.716219,12553.767866,-424.414924,3571.495840,0.006375,-0.022844,1.008844,192.000000,0.000000,0.000000,0.000000,0.000000,0.000000,0.000000,0.000000,0.000000,0.000000,1769524055.752017,0.000000
226.000000,15378.156647,14330.150405,3437.407725,-3227.256623,6330.662230,-10257.774324,568.002530,-17976.837513,12684.927903,11153.900463,-8947.403305,560.626454,21579.692850,12585.552047,-375.151679,3601.804805,0.006375,-0.022844,1.008844,192.000000,0.000000,0.000000,0.000000,0.000000,0.000000,0.000000,0.000000,0.000000,0.000000,1769524055.752028,0.000000
228.000000,15397.580313,14360.168798,3432.915024,-3233.403353,6353.326899,-10260.612996,563.554533,-17980.391440,12798.966503,11131.258146,-9034.955088,497.326314,21544.935887,12537.451093,-448.912436,3557.682461,0.006375,-0.022844,1.008844,192.000000,0.000000,0.000000,0.000000,0.000000,0.000000,0.000000,0.000000,0.000000,0.000000,1769524055.752038,0.000000
230.000000,15383.118735,14348.300022,3478.110251,-3185.145937,6342.173379,-10235.355524,609.844996,-17919.572344,12709.961857,11168.384393,-8941.793018,569.120117,21583.716164,12594.716262,-373.877630,3606.878651,0.006375,-0.022844,1.008844,192.000000,0.000000,0.000000,0.000000,0.000000,0.000000,0.000000,0.000000,0.000000,0.000000,1769524055.752048,0.000000
232.000000,15382.448182,14348.389429,3406.763483,-3260.448964,6335.378448,-10276.840362,538.878207,-18011.527420,12740.360229,11142.121094,-8993.805527,531.323317,21555.463559,12558.640547,-414.513101,3579.050729,0.004000,-0.020000,1.012000,192.000000,0.000000,16.000000,127.500000,48.000000,15.500000,80.000000,0.000000,0.000000,0.000000,1769524055.752059,0.000000
234.000000,15396.619188,14367.455467,3479.697225,-3180.519126,6355.003280,-10223.911431,613.711848,-17915.973713,12788.528238,11156.157989,-9002.120376,524.260166,21565.745362,12562.619157,-422.716191,3574.580380,0.004000,-0.020000,1.012000,192.000000,0.000000,0.000000,0.000000,0.000000,0.000000,0.000000,0.000000,0.000000,0.000000,1769524055.752069,0.000000
236.000000,15375.317976,14336.274783,3434.099666,-3225.088504,6323.621431,-10253.482789,569.902428,-17974.401173,12687.900685,11160.360117,-8943.916433,570.997664,21575.513074,12590.603541,-382.192478,3604.218793,0.004000,-0.020000,1.012000,192.000000,0.000000,0.000000,0.000000,0.000000,0.000000,0.000000,0.000000,0.000000,0.000000,1769524055.752079,0.000000
238.000000,15400.374281,14360.235853,3427.461198,-3235.794990,6344.430905,-10267.005595,563.465126,-17985.889970,12796.574866,11131.325201,-9042.532330,495.627582,21535.145823,12531.170253,-456.020290,3558.442421,0.004000,-0.020000,1.012000,192.000000,0.000000,0.000000,0.000000,0.000000,0.000000,0.000000,0.000000,0.000000,0.000000,1769524055.752089,0.000000
