Sample_index,EXG Channel 0,EXG Channel 1,EXG Channel 2,EXG Channel 3,EXG Channel 4,EXG Channel 5,EXG Channel 6,EXG Channel 7,EXG Channel 8,EXG Channel 9,EXG Channel 10,EXG Channel 11,EXG Channel 12,EXG Channel 13,EXG Channel 14,EXG Channel 15,Accel Channel 0,Accel Channel 1,Accel Channel 2,Not Used,Digital Channel 0 (D11),Digital Channel 1 (D12),Digital Channel 2 (D13),Digital Channel 3 (D17),Not Used,Digital Channel 4 (D18),Analog Channel 0,Analog Channel 1,Analog Channel 2,Timestamp,Marker Channel
90.000000,15384.571598,14584.334443,3288.925086,-3272.921237,6362.424059,-10171.541294,593.841147,-17872.723087,12685.307882,11394.137012,-9014.123263,615.924670,21508.346082,12684.994958,-421.173921,3522.031429,0.006000,-0.022000,1.004000,192.000000,0.000000,0.000000,0.000000,0.000000,0.000000,0.000000,0.000000,0.000000,0.000000,1769523903.415107,111.000000
92.000000,15379.497752,14556.506521,3222.942736,-3343.284529,6350.197655,-10203.683103,525.400105,-17963.560577,12636.379914,11375.629768,-9020.895841,612.460150,21496.276140,12677.305958,-402.599621,3518.678667,0.006000,-0.022000,1.004000,192.000000,0.000000,0.000000,0.000000,0.000000,0.000000,0.000000,0.000000,0.000000,0.000000,1769523903.415172,0.000000
94.000000,15389.623092,14583.976815,3266.483935,-3299.653923,6375.343367,-10182.851277,569.120117,-17907.234181,12734.682886,11371.897027,-9080.038557,566.482611,21480.339346,12649.723905,-458.791907,3486.603914,0.002000,-0.018000,1.004000,192.000000,0.000000,8.000000,127.500000,56.000000,15.500000,48.000000,0.000000,0.000000,0.000000,1769523903.415223,0.000000
96.000000,15376.413211,14561.289795,3270.686063,-3295.250630,6355.584425,-10178.291521,571.757623,-17901.556838,12622.030094,11392.281817,-8981.310902,639.438705,21518.963160,12705.089176,-386.282848,3535.196607,0.002000,-0.018000,1.004000,192.000000,0.000000,0.000000,0.000000,0.000000,0.000000,0.000000,0.000000,0.000000,0.000000,1769523903.415275,0.000000
98.000000,15394.249903,14580.378184,3225.759056,-3345.787924,6368.391975,-10206.901754,524.930719,-17960.006649,12710.386540,11367.225512,-9061.866589,579.513678,21486.799000,12653.590757,-455.193276,3489.487289,0.002000,-0.018000,1.004000,192.000000,0.000000,0.000000,0.000000,0.000000,0.000000,0.000000,0.000000,0.000000,0.000000,1769523903.415318,0.000000
100.000000,15392.260598,14590.302359,3302.604354,-3267.757984,6373.108193,-10161.617120,601.440740,-17860.004945,12693.578028,11400.216687,-9006.970704,620.752647,21523.679378,12690.605246,-415.027191,3513.336600,0.002000,-0.018000,1.004000,192.000000,0.000000,0.000000,0.000000,0.000000,0.000000,0.000000,0.000000,0.000000,0.000000,1769523903.415368,0.000000
102.000000,15383.789287,14565.491923,3236.063210,-3340.132933,6354.220969,-10201.291466,533.938472,-17948.584908,12653.590757,11384.704576,-9004.266143,616.863443,21519.253733,12685.151420,-414.557804,3513.694228,0.002000,-0.018000,1.004000,192.000000,0.000000,0.000000,0.000000,0.000000,0.000000,0.000000,0.000000,0.000000,0.000000,1769523903.415400,0.000000
104.000000,15421.139052,14595.487964,3272.407147,-3297.016418,6377.645597,-10185.645245,574.193963,-17894.314873,12752.206654,11378.624902,-9066.627510,574.439833,21504.099250,12652.406115,-466.235038,3483.631132,0.006000,-0.020000,1.008000,192.000000,0.000000,24.000000,127.500000,48.000000,15.500000,64.000000,0.000000,0.000000,0.000000,1769523903.415416,0.000000
106.000000,15381.330595,14571.772763,3276.028130,-3289.953266,6356.478495,-10171.138963,578.016112,-17887.072907,12635.061161,11402.049530,-8970.917341,650.346357,21533.134166,12708.486641,-390.529679,3536.493008,0.006000,-0.020000,1.008000,192.000000,0.000000,0.000000,0.000000,0.000000,0.000000,0.000000,0.000000,0.000000,0.000000,1769523903.415430,0.000000
108.000000,15398.452031,14590.369414,3226.630774,-3341.138761,6361.351175,-10194.250666,528.663460,-17950.551862,12721.137729,11380.502448,-9052.456504,590.018998,21494.644462,12663.537283,-457.048471,3494.181155,0.006000,-0.020000,1.008000,192.000000,0.000000,0.000000,0.000000,0.000000,0.000000,0.000000,0.000000,0.000000,0.000000,1769523903.415446,0.000000
110.000000,15408.577372,14592.850458,3305.174804,-3262.661786,6370.291873,-10159.046669,604.681743,-17850.103122,12694.583856,11407.257486,-9004.109681,628.352240,21521.667721,12697.377824,-417.865863,3518.768074,0.006000,-0.020000,1.008000,192.000000,0.000000,0.000000,0.000000,0.000000,0.000000,0.000000,0.000000,0.000000,0.000000,1769523903.415461,0.000000
112.000000,15401.111889,14583.552132,3241.695850,-3327.481845,6355.874998,-10181.130192,540.196960,-17931.754045,12660.564501,11400.171983,-8994.721948,635.571854,21515.431585,12699.009502,-412.546147,3517.628135,0.006000,-0.020000,1.008000,192.000000,0.000000,0.000000,0.000000,0.000000,0.000000,0.000000,0.000000,0.000000,0.000000,1769523903.415476,0.000000
114.000000,15420.401444,14610.262467,3276.117537,-3287.248705,6372.482344,-10155.448038,579.759548,-17882.379041,12756.565244,11395.522820,-9056.457467,588.029693,21502.556980,12672.142705,-466.771479,3488.704978,0.010000,-0.021000,1.007000,192.000000,0.000000,56.000000,127.500000,40.000000,15.500000,56.000000,0.000000,0.000000,0.000000,1769523903.415492,0.000000
116.000000,15410.901953,14578.746507,3279.693816,-3286.444042,6356.523199,-10158.130247,583.939324,-17877.036974,12638.369219,11410.274972,-8966.558750,660.136421,21531.502489,12718.969610,-394.262420,3536.895339,0.010000,-0.021000,1.007000,192.000000,0.000000,0.000000,0.000000,0.000000,0.000000,0.000000,0.000000,0.000000,0.000000,1769523903.415507,0.000000
118.000000,15409.829069,14588.178943,3229.201225,-3345.497351,6362.334652,-10201.962018,532.172684,-17943.667524,12720.936563,11380.413041,-9047.516769,598.132682,21500.411212,12665.057202,-463.552828,3476.120946,0.010000,-0.021000,1.007000,192.000000,0.000000,0.000000,0.000000,0.000000,0.000000,0.000000,0.000000,0.000000,0.000000,1769523903.415521,0.000000
120.000000,15396.462726,14581.518123,3295.965886,-3270.551952,6350.912911,-10170.580169,603.362990,-17853.612346,12689.979397,11393.220591,-9006.993056,623.680726,21519.745471,12688.906513,-432.752124,3511.615516,0.010000,-0.021000,1.007000,192.000000,0.000000,0.000000,0.000000,0.000000,0.000000,0.000000,0.000000,0.000000,0.000000,1769523903.415536,0.000000
122.000000,15381.978796,14564.687260,3229.715315,-3343.977433,6336.563091,-10205.024207,535.078411,-17941.342943,12646.751123,11373.349890,-9003.662646,623.256042,21510.067166,12678.088269,-434.897892,3510.520281,0.010000,-0.021000,1.007000,192.000000,0.000000,0.000000,0.000000,0.000000,0.000000,0.000000,0.000000,0.000000,0.000000,1769523903.415551,0.000000
124.000000,15425.117663,14596.314978,3273.278865,-3302.604354,6380.081937,-10181.823096,574.484536,-17890.269207,12745.456427,11368.030175,-9067.320414,572.629341,21496.611416,12645.812350,-477.232096,3473.416385,0.008000,-0.020500,1.010500,192.000000,0.000000,24.000000,127.500000,48.000000,15.500000,88.000000,0.000000,0.000000,0.000000,1769523903.415565,0.000000
126.000000,15386.538552,14555.970079,3269.724938,-3299.966848,6347.291928,-10178.447983,572.919914,-17892.794954,12636.938707,11398.450899,-8968.235131,649.206418,21536.129300,12709.514822,-391.446101,3520.645621,0.008000,-0.020500,1.010500,192.000000,0.000000,0.000000,0.000000,0.000000,0.000000,0.000000,0.000000,0.000000,0.000000,1769523903.415581,0.000000
128.000000,15388.796078,14570.163437,3214.203204,-3356.516761,6346.241396,-10211.282696,519.096913,-17964.633461,12700.395310,11357.122523,-9067.029842,571.020016,21485.547302,12646.125274,-463.061090,3499.098539,0.008000,-0.020500,1.010500,192.000000,0.000000,0.000000,0.000000,0.000000,0.000000,0.000000,0.000000,0.000000,0.000000,1769523903.415595,0.000000
130.000000,15394.451069,14568.665870,3290.132080,-3275.670502,6356.053812,-10167.115649,595.830452,-17866.933986,12680.189333,11383.385823,-9018.839481,604.525281,21510.760070,12681.999824,-419.721057,3523.081961,0.008000,-0.020500,1.010500,192.000000,0.000000,0.000000,0.000000,0.000000,0.000000,0.000000,0.000000,0.000000,0.000000,1769523903.415610,0.000000
132.000000,15382.291720,14561.446257,3228.262452,-3340.982299,6347.269576,-10200.822079,533.491437,-17945.969754,12639.620917,11372.791096,-9010.904611,618.137493,21501.998186,12680.770478,-414.624860,3523.819569,0.008000,-0.020500,1.010500,192.000000,0.000000,0.000000,0.000000,0.000000,0.000000,0.000000,0.000000,0.000000,0.000000,1769523903.415626,0.000000
134.000000,15425.229421,14598.505449,3267.467411,-3299.117482,6379.098461,-10173.530599,573.501059,-17892.057346,12748.943299,11372.835800,-9066.113420,574.775109,21492.006957,12654.797751,-467.397328,3489.733158,0.006000,-0.019250,1.007250,192.000000,0.000000,16.000000,127.500000,56.000000,15.500000,48.000000,0.000000,0.000000,0.000000,1769523903.415641,0.000000
136.000000,15397.982645,14569.157609,3273.994121,-3293.551897,6357.976062,-10172.368309,578.731367,-17884.927140,12635.776417,11395.388710,-8970.224437,652.335662,21531.748358,12707.793737,-389.322685,3537.454133,0.006000,-0.019250,1.007250,192.000000,0.000000,0.000000,0.000000,0.000000,0.000000,0.000000,0.000000,0.000000,0.000000,1769523903.415655,0.000000
138.000000,15398.496735,14582.009862,3224.864987,-3343.709212,6370.224818,-10200.196230,529.132846,-17951.580042,12718.477871,11372.724041,-9047.315603,591.248344,21499.517143,12662.710269,-455.863828,3490.761339,0.006000,-0.019250,1.007250,192.000000,0.000000,0.000000,0.000000,0.000000,0.000000,0.000000,0.000000,0.000000,0.000000,1769523903.415670,0.000000
140.000000,15413.338293,14587.039004,3298.469281,-3262.572379,6373.957559,-10151.201207,603.005362,-17853.277070,12702.786947,11397.847402,-9004.467309,625.222996,21526.607457,12695.343816,-418.916395,3526.077095,0.006000,-0.019250,1.007250,192.000000,0.000000,0.000000,0.000000,0.000000,0.000000,0.000000,0.000000,0.000000,0.000000,1769523903.415685,0.000000
142.000000,15399.055529,14575.147876,3232.062248,-3329.828778,6356.858475,-10184.706472,537.917082,-17938.437216,12663.380821,11389.845477,-8996.308922,631.257967,21529.602591,12698.361301,-418.871691,3523.640755,0.006000,-0.019250,1.007250,192.000000,0.000000,0.000000,0.000000,0.000000,0.000000,0.000000,0.000000,0.000000,0.000000,1769523903.415700,0.000000
144.000000,15436.025314,14604.808641,3269.300254,-3290.132080,6386.742757,-10160.477181,577.054987,-17886.424707,12758.532197,11381.620035,-9060.346670,584.743987,21511.251809,12664.431353,-467.889067,3496.393978,0.005000,-0.020625,1.004625,192.000000,0.000000,16.000000,127.500000,40.000000,15.500000,40.000000,0.000000,0.000000,0.000000,1769523903.415715,0.000000
146.000000,15416.668703,14582.121620,3270.417842,-3286.868726,6359.361870,-10160.231311,577.993760,-17884.748326,12646.527606,11411.012579,-8969.106849,658.460040,21533.022408,12721.473005,-393.390702,3545.858389,0.005000,-0.020625,1.004625,192.000000,0.000000,0.000000,0.000000,0.000000,0.000000,0.000000,0.000000,0.000000,0.000000,1769523903.415730,0.000000
148.000000,15425.341180,14608.586086,3226.675478,-3340.490561,6370.895370,-10188.774489,528.685812,-17946.282678,12731.263069,11398.652065,-9047.695583,598.758530,21503.004015,12680.748127,-453.338081,3498.830318,0.005000,-0.020625,1.004625,192.000000,0.000000,0.000000,0.000000,0.000000,0.000000,0.000000,0.000000,0.000000,0.000000,1769523903.415745,0.000000
150.000000,15402.095366,14583.686243,3293.931877,-3267.713281,6364.078088,-10158.733744,601.373685,-17857.970936,12705.960894,11398.182678,-9004.109681,624.351278,21527.434472,12697.243714,-424.213758,3519.103351,0.005000,-0.020625,1.004625,192.000000,0.000000,0.000000,0.000000,0.000000,0.000000,0.000000,0.000000,0.000000,0.000000,1769523903.415761,0.000000
152.000000,15419.485023,14585.720251,3231.346992,-3330.164055,6354.645652,-10181.979559,537.872379,-17935.218565,12661.525626,11383.475230,-8997.962951,632.867293,21516.035082,12694.516801,-430.271081,3521.472635,0.005000,-0.020625,1.004625,192.000000,0.000000,0.000000,0.000000,0.000000,0.000000,0.000000,0.000000,0.000000,0.000000,1769523903.415776,0.000000
154.000000,15428.738645,14600.673568,3258.861990,-3305.353618,6362.558170,-10187.075756,566.124984,-17902.696777,12761.683793,11381.642387,-9065.554627,582.061777,21494.465648,12659.290452,-468.581971,3487.766205,0.003500,-0.023312,1.004312,192.000000,0.000000,8.000000,127.500000,24.000000,15.500000,48.000000,0.000000,0.000000,0.000000,1769523903.415791,0.000000
156.000000,15405.224610,14580.266426,3265.768679,-3295.295333,6343.603890,-10177.017471,574.126908,-17889.308082,12632.848338,11383.944617,-8978.874562,645.071345,21519.231381,12697.556638,-386.796938,3541.320985,0.003500,-0.023312,1.004312,192.000000,0.000000,0.000000,0.000000,0.000000,0.000000,0.000000,0.000000,0.000000,0.000000,1769523903.415806,0.000000
158.000000,15429.051570,14604.853345,3219.433513,-3350.325328,6352.142257,-10207.572306,524.282518,-17950.574213,12721.808281,11369.371279,-9054.244644,590.488385,21488.453029,12657.032926,-458.434279,3494.695246,0.003500,-0.023312,1.004312,192.000000,0.000000,0.000000,0.000000,0.000000,0.000000,0.000000,0.000000,0.000000,0.000000,1769523903.415822,0.000000
160.000000,15434.013657,14610.016598,3299.028075,-3269.881400,6365.329786,-10164.455791,602.468920,-17849.387866,12710.140671,11395.411062,-9003.796757,624.753609,21515.699806,12688.325368,-421.062162,3513.336600,0.003500,-0.023312,1.004312,192.000000,0.000000,0.000000,0.000000,0.000000,0.000000,0.000000,0.000000,0.000000,0.000000,1769523903.415837,0.000000
162.000000,15418.367436,14591.442298,3234.275071,-3339.216511,6350.331765,-10201.604390,536.732440,-17933.922164,12660.497446,11382.603512,-8992.486774,631.190912,21503.182829,12685.889028,-415.653040,3516.331734,0.003500,-0.023312,1.004312,192.000000,0.000000,0.000000,0.000000,0.000000,0.000000,0.000000,0.000000,0.000000,0.000000,1769523903.415852,0.000000
164.000000,15451.380962,14620.119586,3268.853220,-3303.923107,6370.381280,-10184.751175,572.606989,-17890.157448,12757.906348,11377.663777,-9060.234911,582.486461,21487.782477,12652.339059,-472.828802,3480.591295,0.004750,-0.024656,1.007156,192.000000,0.000000,24.000000,127.500000,24.000000,15.500000,72.000000,0.000000,0.000000,0.000000,1769523903.415868,0.000000
166.000000,15413.137128,14593.029272,3277.235124,-3293.440139,6352.119905,-10175.631663,580.519507,-17878.892169,12643.085437,11399.613190,-8967.966910,653.877932,21528.797928,12705.424452,-392.787205,3532.045011,0.004750,-0.024656,1.007156,192.000000,0.000000,0.000000,0.000000,0.000000,0.000000,0.000000,0.000000,0.000000,0.000000,1769523903.415882,0.000000
168.000000,15440.339201,14615.313961,3229.335335,-3344.178598,6365.128620,-10193.222486,531.077448,-17940.068893,12728.580860,11374.981567,-9043.538158,599.630249,21496.164381,12661.860903,-466.346796,3488.772033,0.004750,-0.024656,1.007156,192.000000,0.000000,0.000000,0.000000,0.000000,0.000000,0.000000,0.000000,0.000000,0.000000,1769523903.415897,0.000000
170.000000,15418.702712,14605.099214,3299.408054,-3269.613179,6366.737946,-10162.064154,602.848900,-17853.567642,12714.231040,11398.652065,-8998.655855,631.727354,21529.691998,12694.270932,-426.605395,3508.910955,0.004750,-0.024656,1.007156,192.000000,0.000000,0.000000,0.000000,0.000000,0.000000,0.000000,0.000000,0.000000,0.000000,1769523903.415912,0.000000
172.000000,15402.654159,14583.440373,3232.442228,-3338.568311,6345.660251,-10204.532469,535.570149,-17941.901736,12651.377934,11369.572445,-9002.925039,623.300746,21496.566712,12681.619845,-409.036924,3517.650487,0.004750,-0.024656,1.007156,192.000000,0.000000,0.000000,0.000000,0.000000,0.000000,0.000000,0.000000,0.000000,0.000000,1769523903.415927,0.000000
174.000000,15437.545232,14615.269257,3271.982464,-3296.792900,6368.816658,-10182.292483,575.065681,-17891.073870,12754.106552,11365.817352,-9062.783010,577.367911,21480.540512,12650.036830,-468.626674,3480.278370,0.006375,-0.022328,1.006578,192.000000,0.000000,32.000000,127.500000,48.000000,15.500000,56.000000,0.000000,0.000000,0.000000,1769523903.415942,0.000000
176.000000,15419.775596,14594.348025,3278.062138,-3284.946476,6344.632071,-10171.183666,583.894620,-17877.729878,12644.180673,11393.198239,-8963.183637,654.816706,21528.730873,12711.124147,-401.504386,3533.833150,0.006375,-0.022328,1.006578,192.000000,0.000000,0.000000,0.000000,0.000000,0.000000,0.000000,0.000000,0.000000,0.000000,1769523903.415957,0.000000
178.000000,15408.040930,14595.018577,3226.340202,-3342.502218,6353.393954,-10212.959077,530.339841,-17950.127178,12724.758711,11364.319785,-9045.728629,595.294010,21485.301433,12658.150513,-460.155363,3490.046083,0.006375,-0.022328,1.006578,192.000000,0.000000,0.000000,0.000000,0.000000,0.000000,0.000000,0.000000,0.000000,0.000000,1769523903.415972,0.000000
180.000000,15430.325619,14605.546249,3302.582002,-3262.594731,6361.150010,-10169.820210,605.575813,-17849.812549,12702.585781,11384.749280,-9007.954181,623.457208,21507.876695,12682.491563,-416.368296,3510.117949,0.006375,-0.022328,1.006578,192.000000,0.000000,0.000000,0.000000,0.000000,0.000000,0.000000,0.000000,0.000000,0.000000,1769523903.415987,0.000000
182.000000,15406.208087,14595.711481,3239.214806,-3328.755895,6349.817675,-10199.346864,541.426306,-17932.335190,12663.023193,11382.111774,-8991.726815,635.907130,21508.502544,12689.778231,-409.528662,3510.475577,0.006375,-0.022328,1.006578,192.000000,0.000000,0.000000,0.000000,0.000000,0.000000,0.000000,0.000000,0.000000,0.000000,1769523903.416002,0.000000
184.000000,15432.650200,14618.689074,3273.725900,-3293.954229,6374.359891,-10183.208905,577.099690,-17888.145791,12761.192055,11372.433468,-9057.440943,585.056911,21489.145933,12653.948385,-463.753994,3479.652522,0.006375,-0.022328,1.006578,192.000000,0.000000,0.000000,0.000000,0.000000,0.000000,0.000000,0.000000,0.000000,0.000000,1769523903.416028,0.000000
186.000000,15413.293590,14600.271237,3283.851240,-3285.326455,6352.633995,-10175.564608,586.755644,-17875.450000,12651.422638,11402.407158,-8960.434372,659.041185,21528.440300,12708.441938,-391.490804,3525.585356,0.008000,-0.018000,1.010000,192.000000,0.000000,32.000000,127.500000,56.000000,15.500000,72.000000,0.000000,0.000000,0.000000,1769523903.416051,0.000000
188.000000,15428.850404,14610.508336,3228.798894,-3343.195122,6357.149048,-10214.434292,532.686774,-17947.176748,12731.799511,11373.282835,-9039.939528,599.607897,21493.482172,12659.044583,-465.765651,3478.222010,0.008000,-0.018000,1.010000,192.000000,0.000000,0.000000,0.000000,0.000000,0.000000,0.000000,0.000000,0.000000,0.000000,1769523903.416067,0.000000
190.000000,15417.093386,14604.451013,3297.016418,-3266.238066,6352.790457,-10173.284730,605.396999,-17856.451017,12705.603266,11391.141879,-9002.701521,623.010173,21504.412175,12682.089231,-430.047563,3505.088807,0.008000,-0.018000,1.010000,192.000000,0.000000,0.000000,0.000000,0.000000,0.000000,0.000000,0.000000,0.000000,0.000000,1769523903.416082,0.000000
192.000000,15407.839764,14586.480211,3229.268280,-3335.528473,6336.540739,-10207.952286,537.760620,-17943.399303,12649.634498,11371.405288,-9000.935733,624.395981,21501.774669,12676.322481,-424.727848,3515.638830,0.008000,-0.018000,1.010000,192.000000,0.000000,0.000000,0.000000,0.000000,0.000000,0.000000,0.000000,0.000000,0.000000,1769523903.416098,0.000000
194.000000,15439.087503,14613.928153,3266.238066,-3300.570345,6359.898312,-10189.646207,573.411652,-17895.566570,12755.358250,11364.811524,-9061.419554,580.094824,21476.628956,12648.293394,-480.160174,3478.534934,0.008000,-0.018000,1.010000,192.000000,0.000000,0.000000,0.000000,0.000000,0.000000,0.000000,0.000000,0.000000,0.000000,1769523903.416113,0.000000
196.000000,15401.804793,14587.508391,3275.804612,-3290.959095,6339.446466,-10182.337187,580.854783,-17884.077774,12639.307992,11386.693881,-8967.095192,654.436726,21510.380091,12699.411833,-402.085531,3525.518301,0.008000,-0.020000,1.008000,192.000000,0.000000,32.000000,127.500000,48.000000,15.500000,64.000000,0.000000,0.000000,0.000000,1769523903.416128,0.000000
198.000000,15425.698808,14607.915534,3227.726010,-3344.223302,6345.973175,-10209.025169,530.786876,-17946.819120,12732.425360,11369.795963,-9041.504150,601.418388,21486.329613,12659.402211,-473.365244,3476.679740,0.008000,-0.020000,1.008000,192.000000,0.000000,0.000000,0.000000,0.000000,0.000000,0.000000,0.000000,0.000000,0.000000,1769523903.416140,0.000000
200.000000,15425.408235,14608.228458,3302.045560,-3268.272074,6356.120867,-10175.519905,605.464054,-17851.287764,12705.156232,11386.000977,-9006.300152,622.406676,21504.188657,12678.959987,-426.381877,3509.670914,0.008000,-0.020000,1.008000,192.000000,0.000000,0.000000,0.000000,0.000000,0.000000,0.000000,0.000000,0.000000,0.000000,1769523903.416152,0.000000
202.000000,15425.922325,14594.325673,3242.925196,-3332.063953,6346.777838,-10203.414882,542.275672,-17927.663675,12659.424562,11384.458707,-8987.100004,642.433839,21501.774669,12687.274836,-409.305144,3512.777807,0.008000,-0.020000,1.008000,192.000000,0.000000,0.000000,0.000000,0.000000,0.000000,0.000000,0.000000,0.000000,0.000000,1769523903.416163,0.000000
204.000000,15441.702657,14621.147766,3271.244856,-3301.777339,6365.016862,-10185.332320,573.098728,-17887.139963,12758.979232,11374.601588,-9052.590615,590.555440,21486.910759,12651.042658,-469.856020,3480.948923,0.008000,-0.020000,1.008000,192.000000,0.000000,0.000000,0.000000,0.000000,0.000000,0.000000,0.000000,0.000000,0.000000,1769523903.416175,0.000000
206.000000,15421.474328,14595.242094,3276.653978,-3291.853165,6336.339573,-10181.264303,580.005417,-17878.221617,12640.000896,11395.098137,-8960.434372,660.382290,21520.304265,12701.937580,-398.553955,3528.401676,0.008000,-0.024000,1.004000,192.000000,0.000000,32.000000,127.500000,32.000000,15.500000,48.000000,0.000000,0.000000,0.000000,1769523903.416186,0.000000
208.000000,15421.273163,14594.280969,3222.249832,-3353.499276,6347.537797,-10220.245745,523.634317,-17956.028039,12712.085272,11364.632710,-9050.891882,591.740083,21480.764029,12648.963946,-459.216590,3489.129661,0.008000,-0.024000,1.004000,192.000000,0.000000,0.000000,0.000000,0.000000,0.000000,0.000000,0.000000,0.000000,0.000000,1769523903.416198,0.000000
210.000000,15424.625924,14607.468499,3302.090264,-3270.887228,6360.255940,-10178.157410,603.050065,-17851.891262,12699.992979,11389.733719,-9004.824937,623.323098,21502.936960,12676.836571,-414.758970,3505.222917,0.008000,-0.024000,1.004000,192.000000,0.000000,0.000000,0.000000,0.000000,0.000000,0.000000,0.000000,0.000000,0.000000,1769523903.895897,0.000000
212.000000,15398.720252,14578.925321,3229.245928,-3339.328270,6330.416361,-10205.717111,534.340803,-17942.259364,12652.406115,11374.467477,-8996.912419,627.614633,21493.750393,12674.668452,-413.931956,3513.940098,0.008000,-0.024000,1.004000,192.000000,0.000000,0.000000,0.000000,0.000000,0.000000,0.000000,0.000000,0.000000,0.000000,1769523903.895948,0.000000
214.000000,15427.017561,14605.434490,3264.204057,-3306.404150,6360.702975,-10193.691873,569.678911,-17895.208942,12747.915119,11361.525817,-9064.235874,580.295990,21477.210102,12641.140835,-474.773404,3483.497022,0.008000,-0.024000,1.004000,192.000000,0.000000,0.000000,0.000000,0.000000,0.000000,0.000000,0.000000,0.000000,0.000000,1769523903.895986,0.000000
216.000000,15407.571543,14573.918530,3270.864877,-3301.173842,6331.042210,-10185.846410,576.116213,-17886.581169,12631.931917,11377.350852,-8971.699652,650.256950,21505.596817,12688.682996,-390.172051,3532.514397,0.006000,-0.026000,1.000000,192.000000,0.000000,24.000000,127.500000,24.000000,15.500000,32.000000,0.000000,0.000000,0.000000,1769523903.896023,0.000000
218.000000,15422.301343,14592.984568,3217.153635,-3355.957968,6333.366791,-10220.424559,522.606137,-17954.374010,12714.454557,11356.362564,-9051.920063,588.566135,21472.873863,12643.957155,-459.641273,3490.627228,0.006000,-0.026000,1.000000,192.000000,0.000000,0.000000,0.000000,0.000000,0.000000,0.000000,0.000000,0.000000,0.000000,1769523903.896072,0.000000
220.000000,15430.482081,14597.834897,3293.238973,-3274.061176,6358.959539,-10173.843524,600.747836,-17855.065209,12703.882182,11384.391652,-9008.110643,621.914938,21502.311111,12676.456592,-427.231244,3510.587336,0.006000,-0.026000,1.000000,192.000000,0.000000,0.000000,0.000000,0.000000,0.000000,0.000000,0.000000,0.000000,0.000000,1769523903.896109,0.000000
222.000000,15417.272200,14581.071088,3230.005888,-3341.362279,6340.318184,-10195.792937,535.346631,-17940.247707,12653.881330,11368.879541,-9000.779271,627.279356,21496.745526,12672.522685,-417.754104,3519.393923,0.006000,-0.026000,1.000000,192.000000,0.000000,0.000000,0.000000,0.000000,0.000000,0.000000,0.000000,0.000000,0.000000,1769523903.896126,0.000000
224.000000,15430.392674,14616.409196,3267.825039,-3306.940592,6357.193751,-10188.059233,570.148298,-17893.241989,12762.756677,11368.208989,-9059.318490,582.687626,21486.977814,12648.360449,-475.354549,3479.116080,0.006000,-0.026000,1.000000,192.000000,0.000000,0.000000,0.000000,0.000000,0.000000,0.000000,0.000000,0.000000,0.000000,1769523903.896136,0.000000
226.000000,15412.801851,14578.411231,3269.032034,-3301.665580,6330.416361,-10189.199172,574.216315,-17889.531599,12646.438199,11385.643349,-8966.223474,646.613615,21522.070053,12694.740319,-388.763891,3532.000307,0.006000,-0.024000,0.998000,192.000000,0.000000,24.000000,127.500000,32.000000,15.500000,24.000000,0.000000,0.000000,0.000000,1769523903.896147,0.000000
228.000000,15424.871793,14590.883504,3215.946640,-3358.416660,6343.648594,-10219.485786,519.990983,-17959.157283,12723.797586,11359.871788,-9049.863702,585.213373,21481.903968,12645.119446,-460.535343,3494.270562,0.006000,-0.024000,0.998000,192.000000,0.000000,0.000000,0.000000,0.000000,0.000000,0.000000,0.000000,0.000000,0.000000,1769523903.896158,0.000000
230.000000,15427.062264,14601.053548,3293.708359,-3275.983426,6358.445449,-10180.683158,598.132682,-17855.311078,12704.955066,11380.457745,-9011.776329,616.394057,21503.138125,12666.599472,-418.715229,3509.916784,0.006000,-0.024000,0.998000,192.000000,0.000000,0.000000,0.000000,0.000000,0.000000,0.000000,0.000000,0.000000,0.000000,1769523903.896168,0.000000
232.000000,15418.076863,14580.489943,3228.776542,-3344.156247,6333.053867,-10208.332265,532.306794,-17939.912431,12658.441086,11378.937826,-8994.498431,631.950871,21500.590026,12674.266121,-411.383857,3514.811816,0.006000,-0.024000,0.998000,192.000000,0.000000,0.000000,0.000000,0.000000,0.000000,0.000000,0.000000,0.000000,0.000000,1769523903.896179,0.000000
234.000000,15438.595764,14616.409196,3262.304158,-3311.187424,6358.266635,-10197.581076,566.773184,-17895.007777,12758.129866,11366.107925,-9061.218388,580.005417,21475.757238,12633.451835,-471.063014,3480.390129,0.006000,-0.024000,0.998000,192.000000,0.000000,0.000000,0.000000,0.000000,0.000000,0.000000,0.000000,0.000000,0.000000,1769523903.896189,0.000000
236.000000,15420.021465,14582.456897,3268.540295,-3302.202022,6338.597100,-10186.561666,575.512716,-17886.737631,12648.941594,11386.783288,-8963.809486,652.358014,21514.313998,12686.045490,-394.061255,3530.346278,0.006000,-0.016000,1.010000,192.000000,0.000000,24.000000,127.500000,64.000000,15.500000,72.000000,0.000000,0.000000,0.000000,1769523903.896199,0.000000
238.000000,15420.580258,14597.879600,3216.058399,-3359.400136,6344.453257,-10220.357504,523.299041,-17953.010553,12712.442900,11354.105038,-9050.847179,586.554478,21470.281061,12629.853204,-450.231189,3486.022769,0.006000,-0.016000,1.010000,192.000000,0.000000,0.000000,0.000000,0.000000,0.000000,0.000000,0.000000,0.000000,0.000000,1769523903.896210,0.000000
240.000000,15430.884413,14610.955371,3291.339075,-3273.345920,6347.247225,-10171.720108,602.066589,-17848.091465,12703.144575,11385.665701,-9004.735530,623.658374,21496.142029,12664.811333,-421.263328,3505.178214,0.006000,-0.016000,1.010000,192.000000,0.000000,0.000000,0.000000,0.000000,0.000000,0.000000,0.000000,0.000000,0.000000,1769523903.896220,0.000000
242.000000,15429.230384,14592.738699,3228.754190,-3338.925938,6331.869225,-10200.620914,536.821847,-17932.022265,12664.409001,11382.692919,-8988.910495,644.043165,21493.616282,12675.718984,-428.773514,3516.398789,0.006000,-0.016000,1.010000,192.000000,0.000000,0.000000,0.000000,0.000000,0.000000,0.000000,0.000000,0.000000,0.000000,1769523903.896230,0.000000
244.000000,15429.878584,14612.475289,3259.510190,-3314.339020,6356.143219,-10197.223448,565.253266,-17898.606407,12748.205691,11361.749335,-9064.437039,577.591428,21464.044924,12632.870690,-467.620846,3482.222972,0.006000,-0.016000,1.010000,192.000000,0.000000,0.000000,0.000000,0.000000,0.000000,0.000000,0.000000,0.000000,0.000000,1769523903.896241,0.000000
246.000000,15415.171136,14589.721214,3273.658845,-3297.418749,6348.655385,-10175.765774,579.178402,-17881.283806,12639.576213,11386.112736,-8964.256521,654.973168,21514.246942,12689.778231,-386.416958,3532.983784,0.014000,-0.022000,1.010000,192.000000,0.000000,56.000000,127.500000,40.000000,15.500000,72.000000,0.000000,0.000000,0.000000,1769523903.896251,0.000000
248.000000,15430.258564,14601.545286,3219.768789,-3351.129991,6355.204446,-10202.789033,526.875320,-17951.267117,12719.617810,11364.610358,-9044.991022,593.975257,21482.552169,12647.488731,-459.350700,3493.287086,0.014000,-0.022000,1.010000,192.000000,0.000000,0.000000,0.000000,0.000000,0.000000,0.000000,0.000000,0.000000,0.000000,1769523903.896261,0.000000
250.000000,15434.192471,14606.708539,3294.468319,-3271.557781,6362.759335,-10158.689041,602.759493,-17852.941794,12709.447766,11391.298341,-9006.389559,621.959641,21510.715367,12677.931807,-423.677316,3515.996458,0.014000,-0.022000,1.010000,192.000000,0.000000,0.000000,0.000000,0.000000,0.000000,0.000000,0.000000,0.000000,0.000000,1769523903.896274,0.000000
252.000000,15416.936924,14580.802868,3229.335335,-3340.870540,6348.655385,-10189.825021,536.419515,-17940.739446,12649.902719,11371.628806,-8997.135937,627.033487,21496.812582,12677.462420,-412.076761,3521.919670,0.014000,-0.022000,1.010000,192.000000,0.000000,0.000000,0.000000,0.000000,0.000000,0.000000,0.000000,0.000000,0.000000,1769523903.896284,0.000000
254.000000,15432.851366,14610.396577,3260.001929,-3311.075665,6363.228722,-10183.298312,567.734309,-17901.892114,12751.245529,11361.347003,-9068.348595,573.210487,21479.355869,12638.950364,-473.834631,3485.352216,0.014000,-0.022000,1.010000,192.000000,0.000000,0.000000,0.000000,0.000000,0.000000,0.000000,0.000000,0.000000,0.000000,1769523903.896296,0.000000
0.000000,15413.070072,14579.506466,3271.378967,-3297.910487,6347.470742,-10175.810477,578.172574,-17888.682233,12634.882347,11382.558809,-8972.839591,645.205455,21510.983588,12691.991054,-392.317819,3533.006136,0.014000,-0.021000,1.010000,192.000000,0.000000,56.000000,127.500000,48.000000,15.500000,72.000000,0.000000,0.000000,0.000000,1769523903.896306,0.000000
2.000000,15409.896125,14590.570580,3216.997172,-3354.683918,6351.561111,-10206.968809,523.276689,-17961.392458,12707.257296,11354.596776,-9054.602272,584.118138,21473.253843,12645.834702,-457.249636,3489.174365,0.014000,-0.021000,1.010000,192.000000,0.000000,0.000000,0.000000,0.000000,0.000000,0.000000,0.000000,0.000000,0.000000,1769523903.896316,0.000000
4.000000,15411.013712,14588.737737,3290.266191,-3275.983426,6357.417268,-10164.478143,599.831414,-17866.933986,12697.578990,11373.707518,-9017.476024,610.694362,21496.410250,12668.477019,-429.421714,3510.587336,0.014000,-0.021000,1.010000,192.000000,0.000000,0.000000,0.000000,0.000000,0.000000,0.000000,0.000000,0.000000,0.000000,1769523903.896326,0.000000
6.000000,15405.604590,14571.258673,3226.519016,-3344.424468,6340.251129,-10199.950361,533.357326,-17952.697629,12642.504292,11358.530683,-9007.998885,616.550519,21487.894236,12669.840475,-415.876557,3516.018810,0.014000,-0.021000,1.010000,192.000000,0.000000,0.000000,0.000000,0.000000,0.000000,0.000000,0.000000,0.000000,0.000000,1769523903.896336,0.000000
8.000000,15423.664799,14605.233324,3259.711356,-3311.545052,6367.140277,-10183.588884,566.549667,-17908.038844,12749.166816,11357.815428,-9074.048290,568.583675,21471.532759,12640.805559,-471.554753,3480.837164,0.014000,-0.021000,1.010000,192.000000,0.000000,0.000000,0.000000,0.000000,0.000000,0.000000,0.000000,0.000000,0.000000,1769523903.896347,0.000000
10.000000,15404.107023,14578.098306,3268.719109,-3301.598525,6347.470742,-10183.767698,576.272676,-17894.940721,12635.172920,11378.334329,-8976.974663,643.037336,21506.915570,12690.649949,-389.166223,3531.329755,0.015000,-0.020500,1.008000,192.000000,0.000000,64.000000,127.500000,48.000000,15.500000,56.000000,0.000000,0.000000,0.000000,1769523903.896357,0.000000
12.000000,15418.501546,14590.414118,3212.795045,-3357.388479,6351.918739,-10209.673370,522.203806,-17964.633461,12708.173717,11353.121561,-9057.709164,579.826603,21465.386029,12641.766684,-455.640311,3489.174365,0.015000,-0.020500,1.008000,192.000000,0.000000,0.000000,0.000000,0.000000,0.000000,0.000000,0.000000,0.000000,0.000000,1769523903.896367,0.000000
14.000000,15431.242041,14609.502507,3292.031979,-3270.127269,6365.754469,-10152.810532,603.407693,-17855.668706,12706.363226,11382.268236,-9015.419664,616.505816,21494.040965,12675.741336,-424.996069,3507.189871,0.015000,-0.020500,1.008000,192.000000,0.000000,0.000000,0.000000,0.000000,0.000000,0.000000,0.000000,0.000000,0.000000,1769523903.896377,0.000000
16.000000,15416.042854,14584.334443,3224.999097,-3338.970642,6341.256957,-10191.322588,536.017184,-17945.634478,12657.167036,11384.861038,-8998.477042,634.342508,21496.611416,12688.526534,-416.100075,3513.381304,0.015000,-0.020500,1.008000,192.000000,0.000000,0.000000,0.000000,0.000000,0.000000,0.000000,0.000000,0.000000,0.000000,1769523903.896387,0.000000
18.000000,15428.358666,14602.595818,3252.849371,-3314.607241,6363.407536,-10191.791975,565.476783,-17912.509193,12757.526369,11351.623994,-9075.344691,570.394167,21462.569709,12636.849300,-470.258352,3486.067472,0.015000,-0.020500,1.008000,192.000000,0.000000,0.000000,0.000000,0.000000,0.000000,0.000000,0.000000,0.000000,0.000000,1769523903.896397,0.000000
20.000000,15403.637636,14585.586141,3268.383833,-3299.899793,6347.090763,-10180.102012,579.223106,-17892.169105,12636.692838,11373.282835,-8979.455707,640.355127,21501.059413,12686.336063,-391.311990,3529.318098,0.012500,-0.019250,1.007000,192.000000,0.000000,40.000000,127.500000,56.000000,15.500000,56.000000,0.000000,0.000000,0.000000,1769523903.896408,0.000000
22.000000,15423.038950,14596.873772,3213.286783,-3360.204799,6353.773934,-10211.394454,522.494378,-17965.348716,12719.126072,11353.345079,-9055.161065,586.509775,21474.192616,12643.420713,-454.880351,3481.463013,0.012500,-0.019250,1.007000,192.000000,0.000000,0.000000,0.000000,0.000000,0.000000,0.000000,0.000000,0.000000,0.000000,1769523903.896418,0.000000
24.000000,15418.970933,14592.492830,3287.963961,-3280.319665,6361.552341,-10167.652091,598.490310,-17866.129323,12703.792775,11374.869809,-9022.348705,607.431007,21492.878675,12667.359432,-423.118523,3506.809891,0.012500,-0.019250,1.007000,192.000000,0.000000,0.000000,0.000000,0.000000,0.000000,0.000000,0.000000,0.000000,0.000000,1769523903.896428,0.000000
26.000000,15397.177982,14568.487056,3222.138074,-3348.291319,6337.010126,-10205.203021,533.066754,-17954.418713,12649.522740,11357.144875,-9006.233097,618.115141,21481.993375,12666.353603,-413.350810,3518.008115,0.012500,-0.019250,1.007000,192.000000,0.000000,0.000000,0.000000,0.000000,0.000000,0.000000,0.000000,0.000000,0.000000,1769523903.896439,0.000000
28.000000,15431.867889,14607.736720,3254.078717,-3313.556709,6367.564960,-10182.404242,568.069585,-17909.111727,12752.877206,11348.830026,-9075.188229,565.834411,21463.754352,12633.183614,-474.304017,3479.540763,0.012500,-0.019250,1.007000,192.000000,0.000000,0.000000,0.000000,0.000000,0.000000,0.000000,0.000000,0.000000,0.000000,1769523903.896449,0.000000
30.000000,15412.578334,14582.993338,3264.829906,-3296.234107,6342.687469,-10163.517018,579.670141,-17891.319739,12644.583004,11378.848419,-8976.035890,642.612653,21500.522971,12695.723795,-397.950458,3530.726258,0.011250,-0.016625,1.008500,192.000000,0.000000,40.000000,127.500000,72.000000,15.500000,72.000000,0.000000,0.000000,0.000000,1769523903.896459,0.000000
32.000000,15440.808587,14600.450051,3212.348010,-3353.856904,6354.891521,-10192.104899,525.601271,-17957.480902,12725.071636,11358.709497,-9050.958938,588.141452,21475.690183,12654.149551,-471.018311,3496.952772,0.011250,-0.016625,1.008500,192.000000,0.000000,0.000000,0.000000,0.000000,0.000000,0.000000,0.000000,0.000000,0.000000,1769523903.896469,0.000000
34.000000,15440.808587,14605.233324,3286.533449,-3270.328435,6359.764202,-10149.770695,603.541804,-17858.999116,12715.527441,11382.022367,-9014.123263,618.361010,21502.132297,12685.106717,-437.378936,3516.197624,0.011250,-0.016625,1.008500,192.000000,0.000000,0.000000,0.000000,0.000000,0.000000,0.000000,0.000000,0.000000,0.000000,1769523903.896486,0.000000
36.000000,15396.865058,14578.120658,3223.501530,-3339.417677,6351.091725,-10191.791975,538.095896,-17943.846338,12654.104847,11370.913550,-8999.482870,628.575758,21501.886428,12684.503220,-422.872653,3529.005173,0.011250,-0.016625,1.008500,192.000000,0.000000,0.000000,0.000000,0.000000,0.000000,0.000000,0.000000,0.000000,0.000000,1769523903.896496,0.000000
38.000000,15433.924250,14614.062263,3255.531580,-3308.706380,6375.790402,-10180.303178,569.053062,-17904.708434,12757.682831,11356.563730,-9074.741194,572.383472,21462.904985,12641.453760,-457.182581,3477.149126,0.011250,-0.016625,1.008500,192.000000,0.000000,0.000000,0.000000,0.000000,0.000000,0.000000,0.000000,0.000000,0.000000,1769523903.896506,0.000000
40.000000,15403.928209,14586.524914,3263.287635,-3297.709322,6341.949861,-10182.627759,579.156051,-17892.392623,12647.667545,11383.005844,-8973.219570,648.893493,21509.508372,12698.428356,-390.976714,3535.688345,0.007625,-0.015312,1.009250,192.000000,0.000000,16.000000,127.500000,72.000000,15.500000,72.000000,0.000000,0.000000,0.000000,1769523903.896516,0.000000
42.000000,15405.850459,14588.022481,3208.123530,-3360.830648,6343.760353,-10226.124254,521.108570,-17969.640251,12708.978380,11335.754256,-9059.698470,575.870344,21465.721305,12636.290507,-447.034889,3493.063568,0.007625,-0.015312,1.009250,192.000000,0.000000,0.000000,0.000000,0.000000,0.000000,0.000000,0.000000,0.000000,0.000000,1769523903.896526,0.000000
44.000000,15407.146860,14594.482135,3288.880383,-3276.832792,6350.912911,-10174.581131,601.217222,-17864.229425,12702.339912,11366.778477,-9020.806434,608.593298,21484.764991,12663.023193,-415.049543,3508.687438,0.007625,-0.015312,1.009250,192.000000,0.000000,0.000000,0.000000,0.000000,0.000000,0.000000,0.000000,0.000000,0.000000,1769523903.896536,0.000000
46.000000,15415.148785,14579.327652,3227.368382,-3339.060049,6335.445504,-10210.187460,539.012318,-17945.500367,12648.561615,11359.044773,-9001.338065,627.726391,21484.541474,12671.092173,-405.907679,3514.275374,0.007625,-0.015312,1.009250,192.000000,0.000000,0.000000,0.000000,0.000000,0.000000,0.000000,0.000000,0.000000,0.000000,1769523903.896547,0.000000
48.000000,15446.575337,14616.632714,3259.331376,-3304.236031,6362.871094,-10191.143774,571.332940,-17903.859067,12753.547758,11352.383954,-9072.394260,576.652655,21469.722267,12640.984373,-467.933770,3476.880905,0.007625,-0.015312,1.009250,192.000000,0.000000,0.000000,0.000000,0.000000,0.000000,0.000000,0.000000,0.000000,0.000000,1769523903.896558,0.000000
50.000000,15416.668703,14593.655121,3272.451850,-3287.651037,6344.676774,-10172.904750,584.162841,-17886.089431,12643.554824,11390.158402,-8971.364376,651.978034,21509.486021,12703.099871,-393.793034,3523.551348,0.005812,-0.014656,1.006625,192.000000,0.000000,16.000000,127.500000,72.000000,15.500000,48.000000,0.000000,0.000000,0.000000,1769523903.896568,0.000000
52.000000,15417.942753,14596.426737,3215.164329,-3349.922997,6344.497960,-10213.696684,526.651803,-17960.565443,12713.940467,11354.708535,-9048.768467,588.677894,21471.733924,12654.820103,-457.160229,3487.028597,0.005812,-0.014656,1.006625,192.000000,0.000000,0.000000,0.000000,0.000000,0.000000,0.000000,0.000000,0.000000,0.000000,1769523903.896578,0.000000
54.000000,15431.912593,14606.797946,3291.808461,-3268.070909,6357.573731,-10171.787163,605.262888,-17859.021468,12708.732511,11380.122468,-9011.262239,622.853711,21502.445221,12678.311786,-434.115581,3507.860423,0.005812,-0.014656,1.006625,192.000000,0.000000,0.000000,0.000000,0.000000,0.000000,0.000000,0.000000,0.000000,0.000000,1769523903.896588,0.000000
56.000000,15414.053549,14585.653196,3231.324641,-3333.628575,6339.088838,-10203.593696,542.432134,-17940.180652,12653.657812,11370.444163,-8995.839536,632.979051,21489.704727,12680.032871,-418.290546,3514.677705,0.005812,-0.014656,1.006625,192.000000,0.000000,0.000000,0.000000,0.000000,0.000000,0.000000,0.000000,0.000000,0.000000,1769523903.896599,0.000000
58.000000,15454.689020,14615.626885,3258.571417,-3306.046522,6360.635920,-10193.490707,571.198830,-17904.686082,12761.884959,11360.698803,-9066.113420,578.552553,21471.979794,12646.728772,-477.723834,3477.462051,0.005812,-0.014656,1.006625,192.000000,0.000000,0.000000,0.000000,0.000000,0.000000,0.000000,0.000000,0.000000,0.000000,1769523903.896610,0.000000
60.000000,15407.616247,14585.675548,3273.189458,-3290.892040,6345.414382,-10180.549047,584.565173,-17886.067079,12649.433333,11382.379995,-8967.721041,649.988729,21506.401480,12694.807374,-398.375141,3527.641717,0.008906,-0.015328,1.005313,192.000000,0.000000,48.000000,127.500000,64.000000,15.500000,48.000000,0.000000,0.000000,0.000000,1769523903.896621,0.000000
62.000000,15422.122529,14591.889333,3216.840710,-3351.621729,6344.699126,-10209.069873,527.165893,-17960.990126,12718.433168,11352.719230,-9044.767504,589.661370,21476.919529,12648.785132,-464.849229,3491.655408,0.008906,-0.015328,1.005313,192.000000,0.000000,0.000000,0.000000,0.000000,0.000000,0.000000,0.000000,0.000000,0.000000,1769523903.896631,0.000000
64.000000,15417.361607,14593.431603,3294.557726,-3274.709377,6355.830295,-10172.345957,603.117121,-17863.447113,12714.722778,11372.724041,-9011.910440,613.533034,21489.972948,12671.941539,-437.066011,3508.240403,0.008906,-0.015328,1.005313,192.000000,0.000000,0.000000,0.000000,0.000000,0.000000,0.000000,0.000000,0.000000,0.000000,1769523903.896641,0.000000
66.000000,15408.242095,14574.007937,3232.084600,-3343.418639,6341.502826,-10210.478033,536.531274,-17948.853129,12654.283661,11356.094343,-8997.672379,619.724467,21489.727079,12669.527551,-407.137025,3516.756417,0.008906,-0.015328,1.005313,192.000000,0.000000,0.000000,0.000000,0.000000,0.000000,0.000000,0.000000,0.000000,0.000000,1769523903.896651,0.000000
68.000000,15450.196320,14606.663836,3265.075775,-3311.008610,6378.941998,-10193.446004,566.728481,-17906.653035,12763.986023,11348.986488,-9068.438002,571.958789,21473.320898,12636.245803,-464.759822,3476.903257,0.008906,-0.015328,1.005313,192.000000,0.000000,0.000000,0.000000,0.000000,0.000000,0.000000,0.000000,0.000000,0.000000,1769523903.896661,0.000000
70.000000,15416.780462,14584.915588,3279.984388,-3294.244801,6355.785591,-10182.985387,581.212411,-17888.726936,12659.871597,11378.311977,-8969.844457,648.021775,21529.244963,12694.606208,-386.796938,3529.027525,0.008906,-0.015328,1.005313,192.000000,0.000000,0.000000,0.000000,0.000000,0.000000,0.000000,0.000000,0.000000,0.000000,1769523903.896671,0.000000
72.000000,15420.066168,14594.862115,3219.433513,-3355.287415,6355.763239,-10217.205908,523.634317,-17962.800618,12729.497281,11356.720192,-9049.841350,587.560306,21488.005994,12649.053353,-454.075689,3488.749682,0.006000,-0.016000,1.000000,192.000000,0.000000,24.000000,127.500000,64.000000,15.500000,32.000000,0.000000,0.000000,0.000000,1769523903.896681,0.000000
74.000000,15435.757093,14599.421871,3296.792900,-3277.570400,6362.424059,-10181.465469,601.932478,-17859.781427,12722.076502,11373.484000,-9012.223364,616.706981,21504.568637,12670.198103,-427.722982,3502.697170,0.006000,-0.016000,1.000000,192.000000,0.000000,0.000000,0.000000,0.000000,0.000000,0.000000,0.000000,0.000000,0.000000,1769523904.377192,0.000000
76.000000,15417.316904,14588.961254,3238.298385,-3338.814180,6345.660251,-10211.550917,543.035632,-17933.765702,12660.832722,11364.565654,-8988.463460,635.638909,21500.970006,12673.126182,-411.003877,3508.955659,0.006000,-0.016000,1.000000,192.000000,0.000000,0.000000,0.000000,0.000000,0.000000,0.000000,0.000000,0.000000,0.000000,1769523904.377244,0.000000
78.000000,15449.838692,14620.521917,3264.964016,-3307.655848,6367.140277,-10201.984370,571.712920,-17895.208942,12765.863569,11357.189579,-9057.753868,585.280429,21478.752372,12641.140835,-469.073709,3471.337673,0.006000,-0.016000,1.000000,192.000000,0.000000,0.000000,0.000000,0.000000,0.000000,0.000000,0.000000,0.000000,0.000000,1769523904.377288,0.000000
80.000000,15421.429625,14585.563789,3279.894981,-3289.729749,6344.542664,-10190.629684,585.727463,-17877.327547,12651.824969,11379.764841,-8962.066050,657.834191,21512.838782,12693.913304,-390.887307,3523.238423,0.006000,-0.016000,1.000000,192.000000,0.000000,0.000000,0.000000,0.000000,0.000000,0.000000,0.000000,0.000000,0.000000,1769523904.377328,0.000000
82.000000,15419.485023,14592.157554,3221.266356,-3352.180523,6347.314280,-10231.131045,525.735381,-17955.022210,12718.433168,11349.053544,-9042.487626,597.506833,21479.177055,12644.292431,-453.315729,3484.569905,0.006000,-0.018000,1.002000,192.000000,0.000000,24.000000,127.500000,56.000000,15.500000,40.000000,0.000000,0.000000,0.000000,1769523904.377362,0.000000
84.000000,15434.170119,14603.065205,3298.223412,-3272.809478,6359.428925,-10188.461565,602.245403,-17854.729933,12711.817051,11371.606454,-9010.748149,621.087923,21508.279027,12665.794810,-426.493636,3498.003304,0.006000,-0.018000,1.002000,192.000000,0.000000,0.000000,0.000000,0.000000,0.000000,0.000000,0.000000,0.000000,0.000000,1769523904.377393,0.000000
86.000000,15421.988418,14587.664853,3240.175931,-3333.919148,6337.881844,-10215.082492,543.080335,-17932.670466,12660.229225,11367.851361,-8986.205934,637.002365,21490.777611,12675.517818,-410.199214,3510.095598,0.006000,-0.018000,1.002000,192.000000,0.000000,0.000000,0.000000,0.000000,0.000000,0.000000,0.000000,0.000000,0.000000,1769523904.377427,0.000000
88.000000,15437.344067,14607.759071,3265.656920,-3308.505214,6370.269522,-10199.458623,570.371815,-17899.858105,12762.980194,11357.547207,-9059.385545,582.084129,21474.170265,12639.889138,-471.085366,3475.271580,0.006000,-0.018000,1.002000,192.000000,0.000000,0.000000,0.000000,0.000000,0.000000,0.000000,0.000000,0.000000,0.000000,1769523904.377459,0.000000
90.000000,15414.277067,14589.832972,3281.817231,-3288.656865,6354.668004,-10182.895980,586.353312,-17876.567587,12647.242862,11381.709442,-8960.724945,659.778793,21513.241114,12696.662569,-393.323647,3526.144150,0.006000,-0.018000,1.002000,192.000000,0.000000,0.000000,0.000000,0.000000,0.000000,0.000000,0.000000,0.000000,0.000000,1769523904.377486,0.000000
92.000000,15439.087503,14609.793080,3229.894129,-3347.061973,6356.411440,-10205.493594,530.541006,-17945.902699,12731.955973,11364.856227,-9034.373943,606.581641,21486.642538,12657.748182,-458.948369,3482.759414,0.016000,-0.006000,1.014000,192.000000,0.000000,64.000000,127.500000,104.000000,15.500000,88.000000,0.000000,0.000000,0.000000,1769523904.377502,0.000000
94.000000,15423.173061,14601.366472,3300.480938,-3272.921237,6355.919702,-10176.391623,602.334810,-17854.461712,12723.238793,11384.458707,-9003.461481,628.195778,21509.374262,12677.887103,-425.845435,3505.066455,0.016000,-0.006000,1.014000,192.000000,0.000000,0.000000,0.000000,0.000000,0.000000,0.000000,0.000000,0.000000,0.000000,1769523904.377518,0.000000
96.000000,15425.967029,14595.577371,3246.948510,-3326.811293,6358.445449,-10184.438251,546.880132,-17921.829870,12655.825932,11371.964082,-8984.820126,638.477580,21509.866000,12683.609150,-410.512139,3516.264679,0.016000,-0.006000,1.014000,192.000000,0.000000,0.000000,0.000000,0.000000,0.000000,0.000000,0.000000,0.000000,0.000000,1769523904.377534,0.000000
98.000000,15441.993230,14604.652179,3262.684138,-3308.639325,6356.053812,-10188.841544,566.482611,-17900.930989,12774.759564,11368.074878,-9048.790818,592.857670,21481.591044,12651.288527,-480.428395,3479.384301,0.016000,-0.006000,1.014000,192.000000,0.000000,0.000000,0.000000,0.000000,0.000000,0.000000,0.000000,0.000000,0.000000,1769523904.377550,0.000000
100.000000,15402.654159,14579.372356,3273.435327,-3293.618952,6331.511597,-10191.881381,579.603085,-17886.201189,12636.938707,11371.829971,-8970.157381,647.507685,21492.163419,12683.363281,-387.646304,3539.890473,0.016000,-0.006000,1.014000,192.000000,0.000000,0.000000,0.000000,0.000000,0.000000,0.000000,0.000000,0.000000,0.000000,1769523904.377566,0.000000
102.000000,15424.380055,14589.452993,3219.925251,-3355.287415,6336.943071,-10234.930841,522.226157,-17959.805484,12714.499261,11348.785323,-9045.929795,590.130757,21467.509445,12637.966888,-449.024194,3491.118966,0.022000,-0.014000,1.012000,192.000000,0.000000,88.000000,127.500000,72.000000,15.500000,80.000000,0.000000,0.000000,0.000000,1769523904.377582,0.000000
104.000000,15425.743511,14599.310112,3297.061121,-3273.636493,6360.971196,-10178.135059,599.429083,-17858.842654,12716.510918,11372.813448,-9011.642219,618.226900,21489.280044,12663.783153,-415.809502,3503.770054,0.022000,-0.014000,1.012000,192.000000,0.000000,0.000000,0.000000,0.000000,0.000000,0.000000,0.000000,0.000000,0.000000,1769523904.377598,0.000000
106.000000,15413.181831,14585.407327,3236.934929,-3334.992031,6339.178245,-10208.086396,538.811152,-17935.755007,12653.657812,11364.677413,-8990.273951,628.799275,21485.681413,12668.521722,-404.745389,3519.729199,0.022000,-0.014000,1.012000,192.000000,0.000000,0.000000,0.000000,0.000000,0.000000,0.000000,0.000000,0.000000,0.000000,1769523904.377613,0.000000
108.000000,15446.217709,14610.329522,3264.740499,-3311.030961,6367.184981,-10197.066986,566.080280,-17900.349844,12768.232854,11354.328555,-9058.938510,582.195888,21474.125561,12634.010629,-469.945427,3478.646693,0.022000,-0.014000,1.012000,192.000000,0.000000,0.000000,0.000000,0.000000,0.000000,0.000000,0.000000,0.000000,0.000000,1769523904.377629,0.000000
110.000000,15415.417005,14588.313054,3279.850278,-3292.747234,6346.464914,-10183.722995,583.000551,-17877.372250,12659.603376,11379.787192,-8961.775477,659.219999,21512.950541,12688.347720,-387.065159,3527.842883,0.022000,-0.014000,1.012000,192.000000,0.000000,0.000000,0.000000,0.000000,0.000000,0.000000,0.000000,0.000000,0.000000,1769523904.377644,0.000000
112.000000,15428.246907,14605.210972,3221.266356,-3351.755840,6341.815751,-10223.196175,524.528387,-17951.267117,12726.971534,11358.955366,-9038.263147,603.161824,21479.869959,12646.192330,-448.241883,3487.430929,0.014000,-0.022000,1.008000,192.000000,0.000000,56.000000,127.500000,40.000000,15.500000,64.000000,0.000000,0.000000,0.000000,1769523904.377660,0.000000
114.000000,15429.342142,14612.609400,3295.563554,-3269.099089,6363.519295,-10170.244893,601.373685,-17850.974840,12724.401084,11380.770669,-9005.964876,625.535920,21496.074974,12671.025118,-429.086438,3504.686475,0.014000,-0.022000,1.008000,192.000000,0.000000,0.000000,0.000000,0.000000,0.000000,0.000000,0.000000,0.000000,0.000000,1769523904.377675,0.000000
116.000000,15409.650255,14589.967083,3236.174969,-3331.058124,6346.151989,-10201.425576,541.068678,-17931.999914,12660.072763,11369.773611,-8985.334216,642.165618,21496.700823,12677.060089,-411.786188,3517.583432,0.014000,-0.022000,1.008000,192.000000,0.000000,0.000000,0.000000,0.000000,0.000000,0.000000,0.000000,0.000000,0.000000,1769523904.377691,0.000000
118.000000,15438.349895,14611.335350,3260.493667,-3308.281697,6361.529989,-10192.216658,564.649768,-17901.802707,12760.163875,11354.864997,-9062.380679,585.436891,21477.388916,12638.860957,-467.911418,3475.115117,0.014000,-0.022000,1.008000,192.000000,0.000000,0.000000,0.000000,0.000000,0.000000,0.000000,0.000000,0.000000,0.000000,1769523904.377707,0.000000
120.000000,15403.771747,14581.384013,3272.518906,-3291.584944,6337.412457,-10183.678291,578.932533,-17885.150657,12642.236071,11375.875637,-8969.911512,652.872104,21509.173096,12695.433223,-392.206060,3526.769999,0.014000,-0.022000,1.008000,192.000000,0.000000,0.000000,0.000000,0.000000,0.000000,0.000000,0.000000,0.000000,0.000000,1769523904.377723,0.000000
122.000000,15412.623037,14593.543362,3216.796007,-3352.113468,6347.738963,-10222.257402,521.823826,-17958.866711,12708.151365,11346.058410,-9050.064868,591.427158,21461.385067,12644.471245,-450.298244,3491.856574,0.012000,-0.018000,1.012000,192.000000,0.000000,48.000000,127.500000,56.000000,15.500000,80.000000,0.000000,0.000000,0.000000,1769523904.377741,0.000000
124.000000,15425.519994,14608.027292,3296.792900,-3273.234162,6369.554266,-10173.463544,601.843071,-17853.232366,12715.058054,11375.361547,-9011.955143,624.217167,21496.276140,12669.862827,-430.069915,3496.595144,0.012000,-0.018000,1.012000,192.000000,0.000000,0.000000,0.000000,0.000000,0.000000,0.000000,0.000000,0.000000,0.000000,1769523904.377757,0.000000
126.000000,15391.858267,14571.817466,3227.167216,-3342.323404,6336.585443,-10214.546050,535.905425,-17943.332248,12641.744333,11353.948576,-8996.934771,632.621423,21488.005994,12663.760801,-401.839662,3510.699095,0.012000,-0.018000,1.012000,192.000000,0.000000,0.000000,0.000000,0.000000,0.000000,0.000000,0.000000,0.000000,0.000000,1769523904.377772,0.000000
128.000000,15424.782386,14603.691054,3252.737612,-3314.026095,6363.809867,-10194.585943,562.727518,-17910.743405,12747.110456,11339.956384,-9074.674138,571.578809,21461.787398,12625.561670,-469.766613,3482.982931,0.012000,-0.018000,1.012000,192.000000,0.000000,0.000000,0.000000,0.000000,0.000000,0.000000,0.000000,0.000000,0.000000,1769523904.377788,0.000000
130.000000,15413.785328,14571.996280,3270.864877,-3292.456662,6346.107286,-10174.245855,581.346522,-17887.609349,12639.173882,11368.499561,-8975.700614,645.518380,21502.065242,12685.687862,-392.518984,3533.140246,0.012000,-0.018000,1.012000,192.000000,0.000000,0.000000,0.000000,0.000000,0.000000,0.000000,0.000000,0.000000,0.000000,1769523904.377804,0.000000
132.000000,15414.210011,14581.384013,3214.337315,-3353.342814,6356.098516,-10203.928972,523.701373,-17963.001783,12712.353493,11345.700782,-9050.936586,587.850879,21471.242186,12645.253556,-458.702500,3492.325961,0.012000,-0.016000,1.008000,192.000000,0.000000,48.000000,127.500000,64.000000,15.500000,64.000000,0.000000,0.000000,0.000000,1769523904.377820,0.000000
134.000000,15408.219744,14587.039004,3284.253572,-3277.078662,6362.245245,-10165.349861,595.405769,-17869.482084,12709.715987,11368.946596,-9019.331219,612.683667,21495.605587,12668.745240,-424.437275,3504.664124,0.012000,-0.016000,1.008000,192.000000,0.000000,0.000000,0.000000,0.000000,0.000000,0.000000,0.000000,0.000000,0.000000,1769523904.377836,0.000000
136.000000,15394.071090,14569.716402,3224.797931,-3338.300090,6340.854626,-10199.615085,535.212521,-17947.333210,12640.671449,11354.574425,-9004.109681,620.529130,21487.670718,12669.169923,-411.406208,3519.997420,0.012000,-0.016000,1.008000,192.000000,0.000000,0.000000,0.000000,0.000000,0.000000,0.000000,0.000000,0.000000,0.000000,1769523904.377851,0.000000
138.000000,15424.290648,14598.706615,3248.066097,-3315.814235,6370.180115,-10189.981483,557.966597,-17916.241934,12750.887901,11349.567634,-9075.478801,566.750832,21467.800017,12635.687010,-472.381767,3482.692359,0.012000,-0.016000,1.008000,192.000000,0.000000,0.000000,0.000000,0.000000,0.000000,0.000000,0.000000,0.000000,0.000000,1769523904.377867,0.000000
140.000000,15401.961255,14576.086649,3266.282769,-3293.820118,6354.198617,-10168.032070,577.837298,-17890.403317,12637.631612,11375.003919,-8978.583989,638.388173,21504.009843,12692.035758,-390.172051,3531.195644,0.012000,-0.016000,1.008000,192.000000,0.000000,0.000000,0.000000,0.000000,0.000000,0.000000,0.000000,0.000000,0.000000,1769523904.377882,0.000000
142.000000,15411.080767,14584.334443,3206.357742,-3356.919093,6353.908045,-10208.153451,517.465236,-17968.455609,12705.759729,11353.658003,-9054.132885,586.442719,21470.146951,12648.181635,-451.549941,3493.264734,0.010000,-0.018000,1.005000,192.000000,0.000000,32.000000,127.500000,48.000000,15.500000,40.000000,0.000000,0.000000,0.000000,1769523904.377898,0.000000
144.000000,15421.541383,14591.174077,3285.684083,-3276.497516,6368.369623,-10163.718183,596.679818,-17867.895111,12707.413758,11373.148724,-9023.376885,606.313420,21496.231436,12669.415792,-430.136970,3504.664124,0.010000,-0.018000,1.005000,192.000000,0.000000,0.000000,0.000000,0.000000,0.000000,0.000000,0.000000,0.000000,0.000000,1769523904.377913,0.000000
146.000000,15408.912648,14568.844684,3225.602594,-3339.149456,6347.202521,-10200.933838,535.681908,-17947.020286,12644.985335,11363.738640,-9001.494527,621.110275,21493.660986,12672.790906,-409.126331,3518.499853,0.010000,-0.018000,1.005000,192.000000,0.000000,0.000000,0.000000,0.000000,0.000000,0.000000,0.000000,0.000000,0.000000,1769523904.377929,0.000000
148.000000,15430.392674,14603.556943,3254.637510,-3315.098979,6378.338501,-10188.618027,561.453469,-17911.145736,12753.637165,11351.422829,-9072.573074,567.533143,21473.298546,12631.283716,-468.917247,3475.785670,0.010000,-0.018000,1.005000,192.000000,0.000000,0.000000,0.000000,0.000000,0.000000,0.000000,0.000000,0.000000,0.000000,1769523904.377945,0.000000
150.000000,15416.176965,14578.388879,3273.882362,-3291.204964,6360.300643,-10163.561721,580.631266,-17886.357652,12649.522740,11385.218666,-8970.515009,649.765211,21517.376187,12694.494449,-391.155528,3525.406542,0.010000,-0.018000,1.005000,192.000000,0.000000,0.000000,0.000000,0.000000,0.000000,0.000000,0.000000,0.000000,0.000000,1769523904.377961,0.000000
152.000000,15409.560848,14575.013766,3210.582222,-3359.847171,6359.451277,-10208.913411,516.772332,-17971.361336,12705.312694,11351.489884,-9054.669327,586.241554,21476.584253,12645.052391,-454.634482,3491.588353,0.010000,-0.022000,1.006500,192.000000,0.000000,40.000000,127.500000,24.000000,15.500000,64.000000,0.000000,0.000000,0.000000,1769523904.377977,0.000000
154.000000,15420.513203,14587.597798,3289.886211,-3277.615103,6370.515391,-10165.439268,596.501004,-17868.118628,12706.653798,11363.448067,-9026.886109,604.391170,21489.101230,12660.922129,-418.335249,3506.675781,0.010000,-0.022000,1.006500,192.000000,0.000000,0.000000,0.000000,0.000000,0.000000,0.000000,0.000000,0.000000,0.000000,1769523904.377995,0.000000
156.000000,15407.057453,14567.548283,3230.698792,-3340.043526,6351.784629,-10187.701605,535.391335,-17946.595603,12648.539263,11356.295509,-8999.505222,622.831359,21494.912683,12672.008595,-407.673467,3518.678667,0.010000,-0.022000,1.006500,192.000000,0.000000,0.000000,0.000000,0.000000,0.000000,0.000000,0.000000,0.000000,0.000000,1769523904.378011,0.000000
158.000000,15435.645334,14601.098251,3258.884342,-3314.428427,6380.841897,-10178.023300,562.146373,-17909.514059,12757.593424,11352.249843,-9066.515752,571.087071,21471.711573,12637.452798,-474.058148,3478.244362,0.010000,-0.022000,1.006500,192.000000,0.000000,0.000000,0.000000,0.000000,0.000000,0.000000,0.000000,0.000000,0.000000,1769523904.378027,0.000000
160.000000,15402.967084,14559.881635,3271.267208,-3299.296296,6351.985795,-10187.053405,576.406786,-17897.198248,12643.688934,11373.908684,-8972.236094,639.483409,21510.447146,12687.811278,-381.812499,3523.283127,0.010000,-0.022000,1.006500,192.000000,0.000000,0.000000,0.000000,0.000000,0.000000,0.000000,0.000000,0.000000,0.000000,1769523904.378043,0.000000
162.000000,15419.015636,14576.801905,3212.325658,-3359.847171,6351.449353,-10217.496481,519.119265,-17968.455609,12699.545944,11337.296526,-9055.406935,579.580734,21457.317049,12630.993143,-449.650043,3490.761339,0.012000,-0.025000,1.006250,192.000000,0.000000,56.000000,127.500000,16.000000,15.500000,56.000000,0.000000,0.000000,0.000000,1769523904.378058,0.000000
164.000000,15417.406311,14584.759126,3285.818194,-3280.923162,6365.262731,-10173.642358,595.383417,-17870.577320,12710.990037,11365.795000,-9023.399237,607.162786,21484.653233,12660.452743,-424.929014,3502.786577,0.012000,-0.025000,1.006250,192.000000,0.000000,0.000000,0.000000,0.000000,0.000000,0.000000,0.000000,0.000000,0.000000,1769523904.378074,0.000000
166.000000,15411.058415,14570.386955,3230.005888,-3338.456552,6352.321071,-10195.368254,538.811152,-17942.996972,12641.967850,11356.362564,-8999.639332,622.496083,21482.596872,12666.733583,-403.784264,3519.393923,0.012000,-0.025000,1.006250,192.000000,0.000000,0.000000,0.000000,0.000000,0.000000,0.000000,0.000000,0.000000,0.000000,1769523904.378090,0.000000
168.000000,15428.090445,14595.353853,3249.206036,-3320.396342,6370.291873,-10206.298257,557.988949,-17919.684102,12752.519578,11350.193483,-9072.953054,567.779013,21465.788360,12629.294411,-463.955160,3477.082071,0.012000,-0.025000,1.006250,192.000000,0.000000,0.000000,0.000000,0.000000,0.000000,0.000000,0.000000,0.000000,0.000000,1769523904.378106,0.000000
170.000000,15409.493793,14574.432620,3271.401318,-3294.155394,6351.650518,-10183.588884,580.541859,-17888.950454,12638.637440,11377.864942,-8978.159306,644.356089,21504.747451,12686.604284,-390.552031,3525.540653,0.012000,-0.025000,1.006250,192.000000,0.000000,0.000000,0.000000,0.000000,0.000000,0.000000,0.000000,0.000000,0.000000,1769523904.378134,0.000000
172.000000,15413.047721,14580.109963,3208.347047,-3362.104697,6352.835161,-10199.793899,517.845216,-17972.925958,12698.651874,11347.064238,-9057.329185,587.046216,21467.576500,12640.805559,-446.185523,3492.817699,0.011000,-0.023500,1.006125,192.000000,0.000000,40.000000,127.500000,40.000000,15.500000,56.000000,0.000000,0.000000,0.000000,1769523904.378150,0.000000
174.000000,15418.680360,14590.011786,3285.997008,-3283.672426,6359.540684,-10164.612253,595.316362,-17873.684212,12701.512897,11366.666718,-9028.920117,603.899432,21478.908834,12660.810371,-427.611223,3506.586374,0.011000,-0.023500,1.006125,192.000000,0.000000,0.000000,0.000000,0.000000,0.000000,0.000000,0.000000,0.000000,0.000000,1769523904.378165,0.000000
176.000000,15399.703729,14556.685335,3228.508321,-3345.072668,6339.513521,-10200.173879,535.994832,-17951.915318,12637.810425,11353.210968,-9005.607248,618.137493,21474.997279,12663.760801,-406.689990,3516.711714,0.011000,-0.023500,1.006125,192.000000,0.000000,0.000000,0.000000,0.000000,0.000000,0.000000,0.000000,0.000000,0.000000,1769523904.378181,0.000000
178.000000,15418.009808,14588.827144,3249.988347,-3320.843377,6365.061565,-10190.182649,558.570094,-17923.819175,12742.662459,11339.688163,-9081.491420,562.369890,21456.177110,12622.186556,-466.793831,3475.942132,0.011000,-0.023500,1.006125,192.000000,0.000000,0.000000,0.000000,0.000000,0.000000,0.000000,0.000000,0.000000,0.000000,1769523904.378197,0.000000
180.000000,15407.638598,14570.319899,3272.027167,-3294.691836,6344.497960,-10174.379966,580.608914,-17895.052480,12636.245803,11371.047660,-8979.388652,638.276415,21499.204218,12680.882237,-388.652133,3527.708772,0.011000,-0.023500,1.006125,192.000000,0.000000,0.000000,0.000000,0.000000,0.000000,0.000000,0.000000,0.000000,0.000000,1769523904.378212,0.000000
182.000000,15422.994247,14579.193542,3213.242079,-3358.148439,6342.463951,-10207.594658,521.756771,-17971.428391,12698.495412,11346.594852,-9052.769429,584.721635,21461.966212,12638.078646,-450.119430,3489.330827,0.009500,-0.022750,1.007062,192.000000,0.000000,32.000000,127.500000,40.000000,15.500000,64.000000,0.000000,0.000000,0.000000,1769523904.378227,0.000000
184.000000,15433.298401,14592.112850,3293.127214,-3277.704510,6363.519295,-10165.685137,599.764359,-17867.649241,12705.312694,11368.298396,-9025.500301,607.229842,21485.726116,12657.368202,-428.102962,3502.920688,0.009500,-0.022750,1.007062,192.000000,0.000000,0.000000,0.000000,0.000000,0.000000,0.000000,0.000000,0.000000,0.000000,1769523904.378243,0.000000
186.000000,15409.940828,14569.582292,3232.844559,-3341.138761,6339.133541,-10207.013512,538.967614,-17947.802597,12645.141798,11360.207064,-8995.079576,625.737086,21488.967119,12665.571292,-408.209909,3514.498891,0.009500,-0.022750,1.007062,192.000000,0.000000,0.000000,0.000000,0.000000,0.000000,0.000000,0.000000,0.000000,0.000000,1769523904.378262,0.000000
188.000000,15432.136110,14595.912647,3256.649167,-3320.686915,6367.922588,-10199.212754,561.006434,-17918.566515,12749.300927,11341.543358,-9073.511848,564.649768,21458.568747,12621.650114,-467.442032,3472.812888,0.009500,-0.022750,1.007062,192.000000,0.000000,0.000000,0.000000,0.000000,0.000000,0.000000,0.000000,0.000000,0.000000,1769523904.378277,0.000000
190.000000,15417.920401,14574.030289,3281.057272,-3297.083473,6347.314280,-10188.685082,583.380530,-17885.731803,12640.917318,11368.454858,-8972.705480,639.125781,21497.326672,12679.652891,-384.070025,3523.819569,0.009500,-0.022750,1.007062,192.000000,0.000000,0.000000,0.000000,0.000000,0.000000,0.000000,0.000000,0.000000,0.000000,1769523904.378293,0.000000
192.000000,15432.829014,14587.553094,3219.634678,-3358.349604,6346.219044,-10220.938649,523.164931,-17961.683030,12711.504127,11344.538491,-9038.129036,589.683722,21469.811674,12638.056295,-449.180657,3481.328902,0.009500,-0.022750,1.007062,192.000000,0.000000,0.000000,127.500000,80.000000,15.000000,32.000000,0.000000,0.000000,0.000000,1769523904.378308,0.000000
194.000000,15424.424758,14586.435507,3294.155394,-3280.878458,6356.657309,-10176.592788,599.160862,-17865.414067,12714.007522,11362.196369,-9019.755902,606.648696,21485.860227,12653.188426,-434.204988,3505.513490,0.009500,-0.022750,1.007062,192.000000,0.000000,0.000000,0.000000,0.000000,0.000000,0.000000,0.000000,0.000000,0.000000,1769523904.858020,0.000000
196.000000,15411.393691,14567.637690,3236.823170,-3339.887063,6345.347326,-10204.666579,541.292195,-17940.337114,12649.321574,11357.413096,-8990.072786,626.921728,21492.252826,12665.548940,-405.304182,3509.402693,0.009500,-0.022750,1.007062,192.000000,0.000000,0.000000,0.000000,0.000000,0.000000,0.000000,0.000000,0.000000,0.000000,1769523904.858076,0.000000
198.000000,15423.441282,14588.581275,3249.764830,-3321.782150,6356.299681,-10200.263286,558.100707,-17923.305085,12750.954956,11343.577366,-9068.303891,565.923818,21466.548320,12623.035922,-474.885163,3476.500926,0.009500,-0.022750,1.007062,192.000000,0.000000,0.000000,0.000000,0.000000,0.000000,0.000000,0.000000,0.000000,0.000000,1769523904.858113,0.000000
200.000000,15396.172153,14562.697954,3273.189458,-3297.284639,6343.626242,-10179.342053,581.212411,-17895.052480,12630.769626,11363.313957,-8978.002844,632.710830,21489.861189,12672.835609,-402.331400,3534.302537,0.009500,-0.022750,1.007062,192.000000,0.000000,0.000000,0.000000,0.000000,0.000000,0.000000,0.000000,0.000000,0.000000,1769523904.858150,0.000000
202.000000,15401.290703,14567.749449,3214.650239,-3364.965721,6348.141294,-10218.345847,520.013335,-17975.988147,12698.540115,11335.441331,-9049.573129,576.607952,21461.250956,12626.791015,-446.677261,3484.659312,0.009750,-0.020375,1.008531,192.000000,0.000000,40.000000,127.500000,56.000000,15.500000,72.000000,0.000000,0.000000,0.000000,1769523904.858187,0.000000
204.000000,15405.850459,14574.186751,3286.108766,-3283.158336,6352.656347,-10180.571399,595.539879,-17878.467486,12703.055168,11357.614262,-9027.288440,595.450472,21478.484151,12648.203987,-422.202101,3493.845879,0.009750,-0.020375,1.008531,192.000000,0.000000,0.000000,0.000000,0.000000,0.000000,0.000000,0.000000,0.000000,0.000000,1769523904.858226,0.000000
206.000000,15385.555075,14551.589138,3226.831940,-3345.743221,6333.456198,-10218.725827,533.379678,-17958.419676,12625.785187,11345.097285,-9007.507146,610.023810,21469.677564,12653.031963,-397.682237,3516.354086,0.009750,-0.020375,1.008531,192.000000,0.000000,0.000000,0.000000,0.000000,0.000000,0.000000,0.000000,0.000000,0.000000,1769523904.858271,0.000000
208.000000,15412.265410,14587.910722,3251.821190,-3319.457569,6362.736984,-10203.012550,558.815963,-17922.880402,12735.129921,11337.520044,-9080.530295,561.475821,21446.074122,12613.603486,-461.809392,3473.036405,0.009750,-0.020375,1.008531,192.000000,0.000000,0.000000,0.000000,0.000000,0.000000,0.000000,0.000000,0.000000,0.000000,1769523904.858308,0.000000
210.000000,15388.885485,14565.983661,3275.514039,-3294.937705,6345.704954,-10184.885285,580.094824,-17895.231294,12631.060199,11367.180808,-8980.662701,637.762325,21494.130372,12673.170885,-382.907734,3520.153883,0.009750,-0.020375,1.008531,192.000000,0.000000,0.000000,0.000000,0.000000,0.000000,0.000000,0.000000,0.000000,0.000000,1769523904.858319,0.000000
212.000000,15392.350005,14567.771800,3211.990382,-3361.702366,6343.469780,-10228.068856,515.475931,-17979.407964,12692.840420,11338.816445,-9055.026955,578.261981,21456.780607,12628.646210,-443.950348,3486.447452,0.009750,-0.020375,1.008531,192.000000,0.000000,0.000000,0.000000,0.000000,0.000000,0.000000,0.000000,0.000000,0.000000,1769523904.858329,0.000000
214.000000,15405.604590,14576.176056,3293.283676,-3280.006740,6356.299681,-10181.286655,595.629286,-17876.746401,12702.854002,11356.228454,-9031.222347,597.372722,21480.875788,12642.839568,-425.644270,3501.154900,0.010000,-0.018000,1.002000,192.000000,0.000000,40.000000,127.500000,56.000000,15.500000,40.000000,0.000000,0.000000,0.000000,1769523904.858340,0.000000
216.000000,15393.758165,14557.221777,3237.538426,-3340.691726,6347.001356,-10208.220507,538.833504,-17951.445931,12639.665620,11352.160436,-8999.795794,620.193853,21485.413192,12653.747219,-403.940726,3510.989667,0.010000,-0.018000,1.002000,192.000000,0.000000,0.000000,0.000000,0.000000,0.000000,0.000000,0.000000,0.000000,0.000000,1769523904.858351,0.000000
218.000000,15405.045796,14589.005958,3254.123420,-3319.926956,6369.822487,-10193.043672,558.123059,-17926.702550,12749.658555,11344.069105,-9076.037595,562.504001,21460.781570,12619.571402,-464.469250,3470.465955,0.010000,-0.018000,1.002000,192.000000,0.000000,0.000000,0.000000,0.000000,0.000000,0.000000,0.000000,0.000000,0.000000,1769523904.858374,0.000000
220.000000,15388.483153,14560.976870,3272.451850,-3296.390569,6348.230701,-10176.413974,577.345559,-17901.936817,12633.161263,11371.852323,-8982.830820,636.041240,21497.907817,12680.323443,-387.154566,3524.378362,0.010000,-0.018000,1.002000,192.000000,0.000000,0.000000,0.000000,0.000000,0.000000,0.000000,0.000000,0.000000,0.000000,1769523904.858387,0.000000
222.000000,15397.647369,14571.482190,3209.151710,-3362.305863,6355.673832,-10209.092225,514.067771,-17982.291339,12690.806412,11345.969003,-9058.759696,578.910181,21455.841834,12636.759894,-445.671433,3489.084958,0.010000,-0.018000,1.002000,192.000000,0.000000,0.000000,0.000000,0.000000,0.000000,0.000000,0.000000,0.000000,0.000000,1769523904.858401,0.000000
224.000000,15413.226535,14586.323748,3287.516926,-3279.582057,6368.459030,-10165.573378,592.947077,-17878.065154,12703.144575,11369.907721,-9035.200958,596.232783,21484.653233,12655.602414,-433.489732,3498.182118,0.012000,-0.018000,1.006000,192.000000,0.000000,48.000000,127.500000,56.000000,15.500000,56.000000,0.000000,0.000000,0.000000,1769523904.858424,0.000000
226.000000,15408.711482,14563.972004,3232.263414,-3338.076572,6348.722440,-10189.400338,535.816018,-17949.724847,12638.749199,11371.405288,-9004.243792,620.149150,21483.781515,12672.254464,-410.378028,3514.923574,0.012000,-0.018000,1.006000,192.000000,0.000000,0.000000,0.000000,0.000000,0.000000,0.000000,0.000000,0.000000,0.000000,1769523904.858438,0.000000
228.000000,15414.813508,14587.195466,3251.977653,-3320.530453,6375.365719,-10183.141849,555.262036,-17925.786129,12760.901482,11359.938843,-9072.885999,568.427213,21471.242186,12636.849300,-470.660683,3466.844972,0.012000,-0.018000,1.006000,192.000000,0.000000,0.000000,0.000000,0.000000,0.000000,0.000000,0.000000,0.000000,0.000000,1769523904.858450,0.000000
230.000000,15389.690148,14560.641594,3270.797821,-3299.475110,6354.109210,-10167.227407,574.372777,-17901.087451,12633.630649,11372.969910,-8982.964931,634.230749,21498.041928,12681.284568,-390.261458,3536.157732,0.012000,-0.018000,1.006000,192.000000,0.000000,0.000000,0.000000,0.000000,0.000000,0.000000,0.000000,0.000000,0.000000,1769523904.858463,0.000000
232.000000,15402.676511,14567.347117,3209.241117,-3365.971549,6359.518332,-10201.246762,513.598384,-17980.324385,12696.707272,11344.471436,-9056.792743,576.093862,21463.799055,12636.625783,-450.052375,3493.220030,0.012000,-0.018000,1.006000,192.000000,0.000000,0.000000,0.000000,0.000000,0.000000,0.000000,0.000000,0.000000,0.000000,1769523904.858476,0.000000
234.000000,15393.534648,14570.454010,3283.605371,-3288.858031,6367.386146,-10162.399431,588.633190,-17884.144829,12702.026987,11361.637576,-9038.151388,593.192946,21479.020593,12656.205911,-427.722982,3504.686475,0.010000,-0.018000,1.006000,192.000000,0.000000,40.000000,127.500000,56.000000,15.500000,56.000000,0.000000,0.000000,0.000000,1769523904.858490,0.000000
236.000000,15369.685336,14547.051733,3225.669649,-3349.341851,6348.744792,-10198.899829,530.362192,-17959.559615,12624.980524,11345.499616,-9010.614039,610.359086,21476.226625,12656.116504,-396.721112,3519.416275,0.010000,-0.018000,1.006000,192.000000,0.000000,0.000000,0.000000,0.000000,0.000000,0.000000,0.000000,0.000000,0.000000,1769523904.858505,0.000000
238.000000,15389.623092,14569.694051,3241.159408,-3331.169883,6373.935208,-10184.415899,548.645919,-17938.079588,12729.720799,11331.820349,-9088.889848,550.635225,21447.415226,12617.939725,-461.675282,3483.698187,0.010000,-0.018000,1.006000,192.000000,0.000000,0.000000,0.000000,0.000000,0.000000,0.000000,0.000000,0.000000,0.000000,1769523904.858520,0.000000
240.000000,15377.664909,14551.656193,3266.126307,-3304.370142,6351.136428,-10169.306120,572.495231,-17903.702605,12623.527661,11360.140009,-8992.844402,622.183159,21482.105134,12674.199065,-382.661865,3532.201473,0.010000,-0.018000,1.006000,192.000000,0.000000,0.000000,0.000000,0.000000,0.000000,0.000000,0.000000,0.000000,0.000000,1769523904.858538,0.000000
242.000000,15388.661967,14562.765010,3205.195451,-3371.358320,6352.924568,-10210.276867,510.335029,-17980.369089,12686.246656,11334.144930,-9060.167856,573.299894,21455.908889,12627.953306,-438.138895,3493.689417,0.010000,-0.018000,1.006000,192.000000,0.000000,0.000000,0.000000,0.000000,0.000000,0.000000,0.000000,0.000000,0.000000,1769523904.858553,0.000000
244.000000,15402.922380,14576.779554,3281.325493,-3289.975618,6363.184019,-10167.182704,588.186155,-17880.680308,12698.271894,11359.178884,-9037.793760,591.315400,21478.618262,12649.098056,-424.191406,3502.317190,0.008000,-0.016000,1.006000,192.000000,0.000000,32.000000,127.500000,64.000000,15.500000,56.000000,0.000000,0.000000,0.000000,1769523904.858567,0.000000
246.000000,15369.417115,14545.442408,3220.707562,-3351.375860,6336.808960,-10197.290504,529.445771,-17958.464379,12620.711341,11346.505445,-9011.441053,610.046161,21465.967174,12658.664603,-403.650153,3517.225804,0.008000,-0.016000,1.006000,192.000000,0.000000,0.000000,0.000000,0.000000,0.000000,0.000000,0.000000,0.000000,0.000000,1769523904.858585,0.000000
248.000000,15408.085633,14580.042908,3240.712373,-3332.265119,6371.387109,-10188.729786,550.143486,-17929.921201,12737.722723,11330.211023,-9087.638150,552.468068,21462.390895,12618.990257,-466.257389,3477.506754,0.008000,-0.016000,1.006000,192.000000,0.000000,0.000000,0.000000,0.000000,0.000000,0.000000,0.000000,0.000000,0.000000,1769523904.858601,0.000000
250.000000,15390.628921,14558.540530,3269.635531,-3305.823005,6352.589292,-10173.150620,574.059853,-17897.086489,12628.646210,11359.648271,-8987.502335,628.978089,21495.180904,12684.570275,-385.589944,3527.753476,0.008000,-0.016000,1.006000,192.000000,0.000000,0.000000,0.000000,0.000000,0.000000,0.000000,0.000000,0.000000,0.000000,1769523904.858616,0.000000
252.000000,15370.579406,14560.820408,3203.139091,-3371.648892,6350.599986,-10213.562574,509.910346,-17983.543036,12678.736470,11335.821311,-9058.111496,575.646827,21456.043000,12628.400341,-444.866770,3488.101481,0.008000,-0.016000,1.006000,192.000000,0.000000,0.000000,0.000000,0.000000,0.000000,0.000000,0.000000,0.000000,0.000000,1769523904.858626,0.000000
254.000000,15385.242150,14569.336423,3280.163202,-3292.054330,6366.782649,-10168.769678,587.560306,-17881.306157,12687.543057,11357.658965,-9040.900653,587.314437,21466.995355,12651.959080,-430.136970,3499.299705,0.010000,-0.016000,1.008000,192.000000,0.000000,40.000000,127.500000,64.000000,15.500000,64.000000,0.000000,0.000000,0.000000,1769523904.858637,0.000000
0.000000,15375.273272,14556.417114,3225.870815,-3345.832628,6350.197655,-10193.714225,532.262091,-17950.820083,12632.267193,11353.523893,-9004.020274,615.276470,21481.479285,12669.996938,-405.035961,3509.849728,0.010000,-0.016000,1.008000,192.000000,0.000000,0.000000,0.000000,0.000000,0.000000,0.000000,0.000000,0.000000,0.000000,1769523904.858647,0.000000
2.000000,15419.216802,14587.642501,3248.490780,-3332.265119,6371.431812,-10198.318684,550.858742,-17923.908582,12741.857796,11337.520044,-9078.406880,560.492344,21463.173206,12630.367295,-470.325407,3466.599103,0.010000,-0.016000,1.008000,192.000000,0.000000,0.000000,0.000000,0.000000,0.000000,0.000000,0.000000,0.000000,0.000000,1769523904.858659,0.000000
4.000000,15404.643465,14559.658117,3268.964978,-3310.136892,6348.633033,-10185.198210,572.025844,-17897.175896,12631.797806,11361.279948,-8979.411004,634.029583,21495.538532,12673.997900,-387.646304,3509.536804,0.010000,-0.016000,1.008000,192.000000,0.000000,0.000000,0.000000,0.000000,0.000000,0.000000,0.000000,0.000000,0.000000,1769523904.858669,0.000000
6.000000,15371.227607,14558.875806,3195.494794,-3377.259180,6338.083009,-10222.145643,506.222308,-17983.252464,12683.698557,11330.680410,-9063.073583,570.058891,21448.443407,12627.327457,-449.650043,3498.137414,0.010000,-0.016000,1.008000,192.000000,0.000000,0.000000,0.000000,0.000000,0.000000,0.000000,0.000000,0.000000,0.000000,1769523904.858679,0.000000
8.000000,15401.558924,14581.115792,3282.197211,-3289.752101,6365.754469,-10167.719146,589.437853,-17873.080715,12706.944371,11355.043811,-9035.290365,591.136586,21470.951613,12642.169016,-430.382839,3501.043141,0.010000,-0.018000,1.010000,192.000000,0.000000,40.000000,127.500000,56.000000,15.500000,72.000000,0.000000,0.000000,0.000000,1769523904.858689,0.000000
10.000000,15399.480212,14555.254824,3225.289670,-3353.052241,6347.113114,-10207.684065,529.378716,-17953.211719,12634.345905,11350.618166,-9004.623771,617.377534,21475.623128,12659.156341,-395.447063,3514.722409,0.010000,-0.018000,1.010000,192.000000,0.000000,0.000000,0.000000,0.000000,0.000000,0.000000,0.000000,0.000000,0.000000,1769523904.858700,0.000000
12.000000,15402.922380,14577.293644,3240.913539,-3335.997860,6362.647577,-10203.928972,547.081297,-17930.658809,12743.333011,11334.904889,-9082.161973,553.272731,21450.790340,12607.479108,-456.243808,3475.159821,0.010000,-0.018000,1.010000,192.000000,0.000000,0.000000,0.000000,0.000000,0.000000,0.000000,0.000000,0.000000,0.000000,1769523904.858710,0.000000
14.000000,15401.447165,14554.204292,3270.641359,-3308.035828,6350.778800,-10186.315797,572.897562,-17897.891152,12636.223452,11362.129314,-8981.288550,625.558272,21489.548265,12666.375955,-383.332417,3526.144150,0.010000,-0.018000,1.010000,192.000000,0.000000,0.000000,0.000000,0.000000,0.000000,0.000000,0.000000,0.000000,0.000000,1769523904.858720,0.000000
16.000000,15399.055529,14563.659080,3214.404370,-3371.559485,6354.176265,-10214.635457,511.944355,-17975.541112,12698.026025,11333.206157,-9049.081391,575.512716,21457.987602,12625.427559,-439.681165,3486.916839,0.010000,-0.018000,1.010000,192.000000,0.000000,0.000000,0.000000,0.000000,0.000000,0.000000,0.000000,0.000000,0.000000,1769523904.858730,0.000000
18.000000,15412.310113,14580.556998,3288.880383,-3291.339075,6368.950769,-10176.749251,589.370798,-17877.372250,12708.374883,11352.227491,-9028.920117,595.137548,21484.563826,12651.690859,-423.274985,3495.298743,0.008000,-0.016000,1.008000,192.000000,0.000000,32.000000,127.500000,64.000000,15.500000,64.000000,0.000000,0.000000,0.000000,1769523904.858740,0.000000
20.000000,15379.698918,14559.568710,3234.185664,-3347.240787,6353.528065,-10200.106823,534.340803,-17947.847301,12636.178748,11355.155570,-8998.499393,615.410580,21477.366564,12662.710269,-400.990296,3518.566909,0.008000,-0.016000,1.008000,192.000000,0.000000,0.000000,0.000000,0.000000,0.000000,0.000000,0.000000,0.000000,0.000000,1769523904.858750,0.000000
22.000000,15433.208994,14578.768859,3252.581150,-3330.767552,6377.913818,-10190.450870,551.506943,-17925.652018,12749.166816,11338.794093,-9075.456449,559.285350,21462.279136,12622.275963,-462.010558,3475.785670,0.008000,-0.016000,1.008000,192.000000,0.000000,0.000000,0.000000,0.000000,0.000000,0.000000,0.000000,0.000000,0.000000,1769523904.858760,0.000000
24.000000,15387.164400,14559.568710,3275.379929,-3301.531470,6359.786553,-10174.447021,576.272676,-17890.939759,12637.765722,11372.075840,-8974.314806,639.058726,21503.898085,12676.836571,-384.829984,3525.540653,0.008000,-0.016000,1.008000,192.000000,0.000000,0.000000,0.000000,0.000000,0.000000,0.000000,0.000000,0.000000,0.000000,1769523904.858770,0.000000
26.000000,15412.399520,14572.510370,3216.751303,-3368.452593,6370.895370,-10204.308951,512.614907,-17970.064934,12695.053243,11344.225567,-9044.655746,581.726501,21469.319936,12634.055332,-439.904683,3486.715673,0.008000,-0.016000,1.008000,192.000000,0.000000,0.000000,0.000000,0.000000,0.000000,0.000000,0.000000,0.000000,0.000000,1769523904.858782,0.000000
28.000000,15411.639561,14575.237283,3291.182612,-3290.824984,6375.097498,-10176.168105,588.320266,-17874.958262,12713.739301,11360.519989,-9022.035780,598.579717,21495.180904,12653.434295,-423.453799,3498.249173,0.007000,-0.014000,1.010000,192.000000,0.000000,24.000000,127.500000,80.000000,15.500000,80.000000,0.000000,0.000000,0.000000,1769523904.858792,0.000000
30.000000,15385.331557,14548.929280,3233.313946,-3350.146514,6350.331765,-10207.728768,530.742172,-17952.697629,12625.964001,11345.097285,-9001.583934,615.365877,21489.391802,12663.917263,-393.770682,3516.756417,0.007000,-0.014000,1.010000,192.000000,0.000000,0.000000,0.000000,0.000000,0.000000,0.000000,0.000000,0.000000,0.000000,1769523904.858802,0.000000
32.000000,15418.434491,14591.397594,3256.425650,-3333.069781,6379.321978,-10192.328416,549.852914,-17926.546088,12743.914156,11334.234337,-9075.121173,559.665329,21462.301488,12618.699684,-465.519782,3469.035443,0.007000,-0.014000,1.010000,192.000000,0.000000,0.000000,0.000000,0.000000,0.000000,0.000000,0.000000,0.000000,0.000000,1769523904.858811,0.000000
34.000000,15388.974892,14551.365620,3276.743385,-3308.438159,6366.402670,-10189.109765,570.841202,-17904.082585,12634.904699,11364.029212,-8983.322559,629.000441,21505.529762,12675.629577,-384.718226,3521.115008,0.007000,-0.014000,1.010000,192.000000,0.000000,0.000000,0.000000,0.000000,0.000000,0.000000,0.000000,0.000000,0.000000,1769523904.858822,0.000000
36.000000,15393.981683,14562.005050,3211.632754,-3371.894762,6358.646614,-10215.037789,506.334067,-17984.884141,12676.769516,11331.082741,-9062.425382,572.271713,21456.244165,12622.968867,-435.277872,3495.902240,0.007000,-0.014000,1.010000,192.000000,0.000000,0.000000,0.000000,0.000000,0.000000,0.000000,0.000000,0.000000,0.000000,1769523904.858832,0.000000
38.000000,15408.867944,14563.793190,3289.215659,-3293.954229,6384.373472,-10172.569474,583.134661,-17887.832867,12700.931752,11351.914567,-9040.788894,586.107443,21478.305337,12647.600490,-424.526682,3504.284144,0.006500,-0.015000,1.010000,192.000000,0.000000,24.000000,127.500000,64.000000,15.500000,72.000000,0.000000,0.000000,0.000000,1769523904.858842,0.000000
40.000000,15395.054566,14542.559033,3235.146789,-3355.086250,6358.668966,-10206.834699,527.657631,-17959.939594,12620.957210,11339.218776,-9011.821033,606.246365,21478.037116,12653.568405,-380.940781,3514.878871,0.006500,-0.015000,1.010000,192.000000,0.000000,0.000000,0.000000,0.000000,0.000000,0.000000,0.000000,0.000000,0.000000,1769523904.858852,0.000000
42.000000,15411.885430,14574.253806,3249.720126,-3336.914281,6382.428870,-10190.875553,544.332033,-17939.465396,12744.897633,11328.109959,-9088.465165,547.975367,21455.126578,12609.379007,-448.934787,3472.544667,0.006500,-0.015000,1.010000,192.000000,0.000000,0.000000,0.000000,0.000000,0.000000,0.000000,0.000000,0.000000,0.000000,1769523904.858862,0.000000
44.000000,15382.716403,14549.421018,3275.961074,-3307.722903,6366.045042,-10175.676367,570.841202,-17905.088413,12631.663696,11358.016593,-8986.094175,620.663240,21501.752317,12670.913359,-375.688121,3526.345316,0.006500,-0.015000,1.010000,192.000000,0.000000,0.000000,0.000000,0.000000,0.000000,0.000000,0.000000,0.000000,0.000000,1769523904.858872,0.000000
46.000000,15390.651273,14549.353963,3213.040914,-3374.889895,6365.754469,-10215.395417,505.842329,-17988.505124,12681.508086,11329.451064,-9059.698470,568.538972,21458.613450,12631.373123,-429.444066,3491.677760,0.006500,-0.015000,1.010000,192.000000,0.000000,0.000000,0.000000,0.000000,0.000000,0.000000,0.000000,0.000000,0.000000,1769523904.858882,0.000000
48.000000,15419.596782,14577.628920,3294.960057,-3288.835679,6377.846763,-10167.003890,588.029693,-17877.126381,12715.281572,11347.913605,-9033.301059,588.297914,21478.215930,12654.954213,-418.491711,3499.053836,0.006250,-0.020500,1.009000,192.000000,0.000000,24.000000,127.500000,24.000000,15.500000,64.000000,0.000000,0.000000,0.000000,1769523904.858892,0.000000
50.000000,15392.193543,14545.196539,3237.784295,-3348.336023,6361.954673,-10201.090300,530.071620,-17953.815216,12634.368257,11353.456837,-8997.918248,620.260909,21480.629919,12659.201045,-392.139005,3520.466807,0.006250,-0.020500,1.009000,192.000000,0.000000,0.000000,0.000000,0.000000,0.000000,0.000000,0.000000,0.000000,0.000000,1769523904.858903,0.000000
52.000000,15420.446148,14574.410269,3252.916426,-3334.165017,6383.993493,-10197.759890,547.148353,-17933.139853,12742.595404,11331.507424,-9081.022034,552.803344,21453.830177,12613.178803,-450.879389,3470.756527,0.006250,-0.020500,1.009000,192.000000,0.000000,0.000000,0.000000,0.000000,0.000000,0.000000,0.000000,0.000000,0.000000,1769523904.858913,0.000000
54.000000,15393.802869,14549.868053,3277.838621,-3302.850223,6359.741850,-10179.699681,575.847992,-17897.332358,12633.965925,11362.464590,-8983.277855,626.698211,21486.262558,12672.098001,-377.275095,3524.557176,0.006250,-0.020500,1.009000,192.000000,0.000000,0.000000,0.000000,0.000000,0.000000,0.000000,0.000000,0.000000,0.000000,1769523904.858923,0.000000
56.000000,15396.172153,14553.891367,3213.040914,-3367.849096,6356.813771,-10217.384722,510.603250,-17980.257330,12683.452688,11332.893232,-9056.502170,571.176478,21449.493939,12637.363391,-440.150552,3485.151051,0.006250,-0.020500,1.009000,192.000000,0.000000,0.000000,0.000000,0.000000,0.000000,0.000000,0.000000,0.000000,0.000000,1769523904.858933,0.000000
58.000000,15410.700787,14571.415135,3292.210793,-3288.053368,6373.555228,-10177.777431,588.007341,-17878.132210,12708.374883,11353.613300,-9035.916214,590.063702,21471.599814,12639.240937,-426.627746,3492.661237,0.006125,-0.023250,1.007500,192.000000,0.000000,24.000000,127.500000,24.000000,15.500000,56.000000,0.000000,0.000000,0.000000,1769523905.338940,0.000000
60.000000,15390.383052,14551.298565,3240.153580,-3343.083363,6355.807943,-10204.912449,535.570149,-17946.260327,12628.489748,11351.959270,-8997.538268,617.533996,21479.668794,12664.029022,-393.815386,3510.028542,0.006125,-0.023250,1.007500,192.000000,0.000000,0.000000,0.000000,0.000000,0.000000,0.000000,0.000000,0.000000,0.000000,1769523905.338990,0.000000
62.000000,15413.561811,14581.272254,3253.631682,-3329.448799,6380.596027,-10200.106823,550.389355,-17928.267172,12740.941374,11340.761047,-9076.954016,563.263960,21448.823386,12638.480978,-459.082479,3466.912027,0.006125,-0.023250,1.007500,192.000000,0.000000,0.000000,0.000000,0.000000,0.000000,0.000000,0.000000,0.000000,0.000000,1769523905.339027,0.000000
64.000000,15401.491869,14560.239263,3280.610237,-3296.502328,6356.813771,-10179.230294,579.960713,-17889.665710,12636.134045,11366.554960,-8984.328387,633.850769,21487.648366,12671.986243,-383.399473,3521.383228,0.006125,-0.023250,1.007500,192.000000,0.000000,0.000000,0.000000,0.000000,0.000000,0.000000,0.000000,0.000000,0.000000,1769523905.339064,0.000000
66.000000,15395.300435,14564.664908,3219.075885,-3361.389442,6354.533893,-10219.754007,516.571166,-17968.232091,12687.654816,11342.593890,-9046.890920,587.381493,21449.940974,12629.205004,-443.078630,3489.844917,0.006125,-0.023250,1.007500,192.000000,0.000000,0.000000,0.000000,0.000000,0.000000,0.000000,0.000000,0.000000,0.000000,1769523905.339102,0.000000
68.000000,15411.147822,14581.942806,3294.937705,-3282.130156,6372.638806,-10173.687062,592.745911,-17869.035050,12708.799566,11359.737678,-9029.054228,603.251231,21468.023535,12650.506216,-426.471284,3502.227783,0.006063,-0.023625,1.006750,192.000000,0.000000,24.000000,127.500000,32.000000,15.500000,56.000000,0.000000,0.000000,0.000000,1769523905.339139,0.000000
70.000000,15400.933075,14556.126542,3240.578263,-3341.183465,6346.308451,-10208.734597,536.330108,-17944.472187,12632.244841,11357.591910,-8995.303094,628.687516,21472.382125,12674.310824,-398.486900,3515.728237,0.006063,-0.023625,1.006750,192.000000,0.000000,0.000000,0.000000,0.000000,0.000000,0.000000,0.000000,0.000000,0.000000,1769523905.339180,0.000000
72.000000,15417.003979,14582.836876,3254.369289,-3328.130046,6371.252998,-10195.569419,549.383527,-17927.976600,12741.097837,11339.375238,-9076.127002,564.962693,21455.148930,12615.570440,-462.345834,3471.203562,0.006063,-0.023625,1.006750,192.000000,0.000000,0.000000,0.000000,0.000000,0.000000,0.000000,0.000000,0.000000,0.000000,1769523905.339191,0.000000
74.000000,15404.084671,14568.040021,3286.265229,-3296.055293,6356.545550,-10172.256550,578.463147,-17888.972806,12639.710324,11369.192465,-8978.986320,637.359993,21484.027384,12679.563484,-384.382949,3519.639792,0.006063,-0.023625,1.006750,192.000000,0.000000,0.000000,0.000000,0.000000,0.000000,0.000000,0.000000,0.000000,0.000000,1769523905.339202,0.000000
76.000000,15403.771747,14565.737792,3219.969954,-3363.602264,6356.791420,-10217.362370,512.123169,-17977.463362,12697.377824,11347.041887,-9044.588690,587.448548,21462.793227,12641.945498,-438.720040,3482.133565,0.006063,-0.023625,1.006750,192.000000,0.000000,0.000000,0.000000,0.000000,0.000000,0.000000,0.000000,0.000000,0.000000,1769523905.339212,0.000000
78.000000,15421.161404,14584.557961,3299.542165,-3276.788089,6375.030443,-10163.852294,593.394112,-17871.717259,12717.360284,11365.772649,-9032.138769,597.752702,21473.678526,12659.178693,-425.398400,3493.421196,0.004031,-0.022812,1.007375,192.000000,0.000000,8.000000,127.500000,40.000000,15.500000,64.000000,0.000000,0.000000,0.000000,1769523905.339223,0.000000
80.000000,15389.578389,14552.103228,3239.438324,-3338.501255,6348.409515,-10199.570382,535.279576,-17950.328344,12640.291469,11364.364489,-8994.677245,623.859539,21480.026422,12678.065917,-397.101092,3515.951755,0.004031,-0.022812,1.007375,192.000000,0.000000,0.000000,0.000000,0.000000,0.000000,0.000000,0.000000,0.000000,0.000000,1769523905.339233,0.000000
82.000000,15416.780462,14583.798001,3246.635586,-3327.392438,6367.922588,-10193.043672,546.991890,-17934.413902,12736.068694,11343.644422,-9084.084223,559.397108,21448.599869,12639.799731,-463.128145,3483.497022,0.004031,-0.022812,1.007375,192.000000,0.000000,0.000000,0.000000,0.000000,0.000000,0.000000,0.000000,0.000000,0.000000,1769523905.339243,0.000000
84.000000,15383.923398,14554.092533,3275.759909,-3297.172880,6347.202521,-10182.739518,574.663350,-17901.355672,12631.574289,11369.684204,-8990.117489,629.291013,21481.814561,12677.685938,-383.980618,3532.782618,0.004031,-0.022812,1.007375,192.000000,0.000000,0.000000,0.000000,0.000000,0.000000,0.000000,0.000000,0.000000,0.000000,1769523905.339253,0.000000
86.000000,15395.635712,14560.239263,3217.935946,-3361.210628,6353.840989,-10213.651981,513.888957,-17981.889007,12684.458516,11346.326631,-9056.658632,580.653617,21452.399665,12641.520815,-430.494598,3490.716635,0.004031,-0.022812,1.007375,192.000000,0.000000,0.000000,0.000000,0.000000,0.000000,0.000000,0.000000,0.000000,0.000000,1769523905.339264,0.000000
88.000000,15407.929171,14574.007937,3293.753063,-3280.185554,6366.246208,-10177.375099,589.482557,-17882.155524,12710.721816,11363.649233,-9039.201920,593.438815,21475.399610,12664.476057,-420.995107,3495.075225,0.005016,-0.023406,1.003687,192.000000,0.000000,24.000000,127.500000,32.000000,15.500000,32.000000,0.000000,0.000000,0.000000,1769523905.339274,0.000000
90.000000,15386.985587,14547.521120,3239.460676,-3337.763648,6345.302623,-10198.452794,534.005527,-17954.083437,12635.396437,11357.211930,-9000.488699,618.696287,21481.769858,12666.778286,-394.016551,3519.997420,0.005016,-0.023406,1.003687,192.000000,0.000000,0.000000,0.000000,0.000000,0.000000,0.000000,0.000000,0.000000,0.000000,1769523905.339294,0.000000
92.000000,15421.407273,14578.567693,3253.989310,-3326.431313,6366.156801,-10193.378948,547.818905,-17935.218565,12745.612889,11345.924299,-9079.122136,560.045309,21454.344267,12643.241899,-463.463421,3472.634074,0.005016,-0.023406,1.003687,192.000000,0.000000,0.000000,0.000000,0.000000,0.000000,0.000000,0.000000,0.000000,0.000000,1769523905.339305,0.000000
94.000000,15399.167287,14558.451123,3284.052406,-3294.758891,6352.209312,-10175.966939,577.882001,-17895.119535,12639.978545,11366.934939,-8984.127222,628.732220,21495.605587,12673.483810,-383.466528,3524.601880,0.005016,-0.023406,1.003687,192.000000,0.000000,0.000000,0.000000,0.000000,0.000000,0.000000,0.000000,0.000000,0.000000,1769523905.339315,0.000000
96.000000,15410.767843,14570.230492,3224.373248,-3357.164962,6357.752545,-10210.478033,518.001678,-17972.814199,12702.854002,11353.702707,-9043.694621,585.705112,21457.205290,12647.891062,-435.546092,3483.698187,0.005016,-0.023406,1.003687,192.000000,0.000000,0.000000,0.000000,0.000000,0.000000,0.000000,0.000000,0.000000,0.000000,1769523905.339325,0.000000
98.000000,15423.955372,14590.391766,3299.229240,-3274.530563,6369.420155,-10164.053460,593.662333,-17869.526788,12725.272802,11379.653082,-9028.026048,604.994667,21479.177055,12663.224359,-428.997031,3499.210298,0.005016,-0.023406,1.003687,192.000000,0.000000,0.000000,0.000000,0.000000,0.000000,0.000000,0.000000,0.000000,0.000000,1769523905.339335,0.000000
100.000000,15405.224610,14567.078896,3250.524789,-3327.683011,6351.404649,-10194.921219,541.247492,-17934.056274,12648.762780,11377.708480,-8982.182620,637.359993,21483.826218,12683.139763,-396.609354,3515.929403,0.006000,-0.028000,1.002000,192.000000,0.000000,24.000000,127.500000,16.000000,15.500000,40.000000,0.000000,0.000000,0.000000,1769523905.339345,0.000000
102.000000,15426.637581,14592.917513,3258.973749,-3319.390514,6377.712652,-10195.435309,548.757678,-17923.595658,12756.878168,11349.969965,-9062.783010,573.612818,21459.485168,12632.468359,-461.496468,3476.322112,0.006000,-0.028000,1.002000,192.000000,0.000000,0.000000,0.000000,0.000000,0.000000,0.000000,0.000000,0.000000,0.000000,1769523905.339355,0.000000
104.000000,15410.767843,14567.257710,3284.633551,-3286.064063,6352.611643,-10176.123402,578.351388,-17885.888265,12653.344888,11375.696823,-8971.565541,643.976110,21500.791192,12687.252484,-388.473319,3530.346278,0.006000,-0.028000,1.002000,192.000000,0.000000,0.000000,0.000000,0.000000,0.000000,0.000000,0.000000,0.000000,0.000000,1769523905.339365,0.000000
106.000000,15399.815488,14552.282042,3216.818359,-3366.619750,6351.248187,-10232.539205,508.323372,-17982.939539,12698.696577,11339.486997,-9043.784028,584.006379,21459.462817,12646.482902,-438.273005,3491.990685,0.006000,-0.028000,1.002000,192.000000,0.000000,0.000000,0.000000,0.000000,0.000000,0.000000,0.000000,0.000000,0.000000,1769523905.339375,0.000000
108.000000,15407.906819,14574.298510,3298.066950,-3284.275923,6370.023652,-10180.414937,587.783824,-17880.277977,12712.129976,11348.941785,-9035.558586,586.509775,21468.649384,12644.784170,-414.714267,3495.365798,0.006000,-0.028000,1.002000,192.000000,0.000000,0.000000,0.000000,0.000000,0.000000,0.000000,0.000000,0.000000,0.000000,1769523905.339385,0.000000
110.000000,15401.760090,14561.937995,3250.547141,-3336.154322,6357.372565,-10206.164146,536.374812,-17944.271021,12642.280774,11360.698803,-8988.731681,626.206473,21480.719326,12666.264196,-388.115691,3512.621345,0.008000,-0.030000,1.000000,192.000000,0.000000,32.000000,127.500000,8.000000,15.500000,32.000000,0.000000,0.000000,0.000000,1769523905.339395,0.000000
112.000000,15436.047666,14591.107022,3257.587940,-3326.587776,6382.630036,-10197.871649,545.539027,-17931.150547,12753.436000,11345.633727,-9069.846162,565.812059,21450.209194,12628.065065,-452.801639,3470.622417,0.008000,-0.030000,1.000000,192.000000,0.000000,0.000000,0.000000,0.000000,0.000000,0.000000,0.000000,0.000000,0.000000,1769523905.339405,0.000000
114.000000,15404.196430,14567.570635,3287.896906,-3293.104862,6363.765164,-10177.620969,575.423309,-17890.358614,12655.490655,11374.489829,-8974.515971,637.874083,21496.477305,12690.046452,-372.268304,3525.965336,0.008000,-0.030000,1.000000,192.000000,0.000000,0.000000,0.000000,0.000000,0.000000,0.000000,0.000000,0.000000,0.000000,1769523905.339416,0.000000
116.000000,15416.221668,14572.286853,3225.066152,-3359.780116,6367.520257,-10211.506213,511.944355,-17972.702440,12708.151365,11349.791151,-9036.564414,591.248344,21465.542491,12639.956193,-428.013555,3488.213240,0.008000,-0.030000,1.000000,192.000000,0.000000,0.000000,0.000000,0.000000,0.000000,0.000000,0.000000,0.000000,0.000000,1769523905.339426,0.000000
118.000000,15423.016599,14586.994301,3300.369179,-3281.258438,6380.104289,-10169.417878,588.655542,-17874.824151,12724.557546,11366.532608,-9025.746170,599.093807,21486.530779,12657.278795,-422.671488,3495.477557,0.008000,-0.030000,1.000000,192.000000,0.000000,0.000000,0.000000,0.000000,0.000000,0.000000,0.000000,0.000000,0.000000,1769523905.339436,0.000000
120.000000,15402.631808,14561.602719,3244.735687,-3336.042563,6350.421172,-10203.101957,534.094934,-17947.221452,12650.148588,11363.671585,-8986.921190,625.893548,21490.576445,12680.681071,-391.781377,3520.980897,0.008000,-0.030000,1.000000,192.000000,0.000000,0.000000,127.500000,24.000000,15.500000,40.000000,0.000000,0.000000,0.000000,1769523905.339446,0.000000
122.000000,15429.811529,14588.916551,3259.979577,-3325.961927,6375.879809,-10195.859992,548.601216,-17929.429463,12761.013241,11349.791151,-9069.063851,565.588542,21454.590136,12646.684068,-462.770517,3473.505792,0.008000,-0.030000,1.000000,192.000000,0.000000,0.000000,0.000000,0.000000,0.000000,0.000000,0.000000,0.000000,0.000000,1769523905.339470,0.000000
124.000000,15403.302360,14564.933129,3287.494574,-3292.814290,6361.105306,-10183.968864,578.373740,-17891.587960,12657.055277,11373.774573,-8974.359509,637.739973,21492.968082,12685.106717,-378.705606,3519.215109,0.008000,-0.030000,1.000000,192.000000,0.000000,0.000000,0.000000,0.000000,0.000000,0.000000,0.000000,0.000000,0.000000,1769523905.339481,0.000000
126.000000,15403.168250,14569.515237,3224.015620,-3358.863695,6351.315242,-10217.518832,514.984192,-17974.870560,12705.357397,11347.757143,-9041.370039,587.403844,21457.138235,12641.789036,-438.630633,3487.565039,0.008000,-0.030000,1.000000,192.000000,0.000000,0.000000,0.000000,0.000000,0.000000,0.000000,0.000000,0.000000,0.000000,1769523905.339491,0.000000
128.000000,15418.054511,14585.586141,3300.168014,-3280.409071,6374.538705,-10176.503381,591.069530,-17875.897035,12729.072598,11365.660890,-9028.316620,599.518490,21479.422924,12652.897853,-428.617052,3496.349275,0.008000,-0.030000,1.000000,192.000000,0.000000,0.000000,0.000000,0.000000,0.000000,0.000000,0.000000,0.000000,0.000000,1769523905.339501,0.000000
130.000000,15400.351930,14561.043925,3251.396507,-3334.276776,6349.437696,-10212.959077,540.353422,-17942.907565,12644.426542,11357.413096,-8989.245771,622.384324,21482.954500,12673.059127,-393.323647,3512.196661,0.006000,-0.024000,1.004000,192.000000,0.000000,24.000000,127.500000,32.000000,15.500000,48.000000,0.000000,0.000000,0.000000,1769523905.339511,0.000000
132.000000,15433.656029,14587.798964,3257.811458,-3326.476017,6368.257865,-10199.369216,548.780030,-17931.642286,12762.354346,11347.891253,-9067.342766,567.756661,21456.557090,12631.216661,-465.810354,3469.549533,0.006000,-0.024000,1.004000,192.000000,0.000000,0.000000,0.000000,0.000000,0.000000,0.000000,0.000000,0.000000,0.000000,1769523905.339521,0.000000
134.000000,15416.266372,14572.890350,3290.802633,-3289.953266,6354.779763,-10195.323550,582.195888,-17886.223541,12649.790961,11371.919378,-8977.309940,636.711793,21487.715422,12683.340929,-381.298409,3521.047952,0.006000,-0.024000,1.004000,192.000000,0.000000,0.000000,0.000000,0.000000,0.000000,0.000000,0.000000,0.000000,0.000000,1769523905.339531,0.000000
136.000000,15418.836822,14586.860190,3229.357687,-3354.259235,6352.432829,-10200.665617,518.605175,-17964.812275,12711.548830,11351.758105,-9035.849158,594.422292,21466.101285,12657.144684,-439.658813,3487.363873,0.006000,-0.024000,1.004000,192.000000,0.000000,0.000000,0.000000,0.000000,0.000000,0.000000,0.000000,0.000000,0.000000,1769523905.339541,0.000000
138.000000,15427.933982,14594.124507,3300.078607,-3276.609275,6372.348234,-10158.510227,591.181289,-17870.443209,12734.638182,11377.149686,-9022.125187,609.554423,21484.630881,12667.135914,-425.577214,3487.945019,0.006000,-0.024000,1.004000,192.000000,0.000000,0.000000,0.000000,0.000000,0.000000,0.000000,0.000000,0.000000,0.000000,1769523905.339551,0.000000
140.000000,15392.059433,14564.597853,3242.187588,-3333.405058,6343.089800,-10196.955227,536.218349,-17940.471225,12640.492635,11363.738640,-8991.391539,630.833284,21475.287852,12685.598455,-397.861051,3526.367667,0.012000,-0.024000,1.010000,192.000000,0.000000,48.000000,127.500000,32.000000,15.500000,72.000000,0.000000,0.000000,0.000000,1769523905.339561,0.000000
142.000000,15417.495718,14597.298455,3255.397469,-3324.196139,6372.571751,-10198.832774,546.969539,-17924.892059,12751.111418,11349.344116,-9070.695528,572.070548,21446.007066,12641.789036,-465.229209,3477.640865,0.012000,-0.024000,1.010000,192.000000,0.000000,0.000000,0.000000,0.000000,0.000000,0.000000,0.000000,0.000000,0.000000,1769523905.339571,0.000000
144.000000,15404.643465,14577.763030,3288.969790,-3282.376025,6360.434754,-10165.774544,580.497155,-17882.043765,12653.523702,11379.898951,-8971.587893,647.284168,21494.823276,12685.643159,-380.605505,3522.053781,0.012000,-0.024000,1.010000,192.000000,0.000000,0.000000,0.000000,0.000000,0.000000,0.000000,0.000000,0.000000,0.000000,1769523905.339581,0.000000
146.000000,15402.251828,14575.147876,3221.266356,-3358.215494,6356.143219,-10214.993085,509.284497,-17974.848208,12698.763633,11350.059372,-9041.414743,594.981086,21450.499767,12645.477074,-435.456685,3490.649580,0.012000,-0.024000,1.010000,192.000000,0.000000,0.000000,0.000000,0.000000,0.000000,0.000000,0.000000,0.000000,0.000000,1769523905.339591,0.000000
148.000000,15416.266372,14590.861153,3300.324476,-3275.134060,6374.561056,-10163.472314,589.124929,-17872.499570,12723.596421,11365.213855,-9029.411856,600.703132,21460.066314,12662.017365,-427.968851,3501.758397,0.012000,-0.024000,1.010000,192.000000,0.000000,0.000000,0.000000,0.000000,0.000000,0.000000,0.000000,0.000000,0.000000,1769523905.339602,0.000000
150.000000,15389.533685,14557.981736,3245.249777,-3334.388534,6349.750620,-10199.212754,535.637204,-17944.427484,12641.476112,11361.302300,-8985.825954,631.705002,21480.495808,12688.012444,-395.089435,3517.136397,0.006000,-0.024000,1.010000,192.000000,0.000000,24.000000,127.500000,32.000000,15.500000,72.000000,0.000000,0.000000,0.000000,1769523905.339612,0.000000
152.000000,15410.141994,14586.614321,3251.865894,-3327.057162,6373.577580,-10187.321626,543.326204,-17935.397379,12748.876244,11339.285831,-9078.026900,560.626454,21442.877822,12622.387722,-460.825915,3477.953789,0.006000,-0.024000,1.010000,192.000000,0.000000,0.000000,0.000000,0.000000,0.000000,0.000000,0.000000,0.000000,0.000000,1769523905.339622,0.000000
154.000000,15381.643520,14557.825274,3281.996045,-3293.708359,6363.027556,-10169.820210,574.417481,-17897.958207,12643.554824,11365.280910,-8982.428489,634.767191,21494.264483,12694.047415,-374.101147,3526.434723,0.006000,-0.024000,1.010000,192.000000,0.000000,0.000000,0.000000,0.000000,0.000000,0.000000,0.000000,0.000000,0.000000,1769523905.339632,0.000000
156.000000,15401.603627,14564.396687,3223.456827,-3359.802468,6367.028519,-10204.063082,510.536195,-17978.960929,12691.096984,11337.944727,-9049.059039,583.648751,21445.671790,12643.107789,-427.410057,3493.979990,0.006000,-0.024000,1.010000,192.000000,0.000000,0.000000,0.000000,0.000000,0.000000,0.000000,0.000000,0.000000,0.000000,1769523905.339642,0.000000
158.000000,15405.872811,14574.566731,3290.333246,-3279.224429,6374.225780,-10161.997099,584.565173,-17883.898960,12719.841328,11361.615224,-9035.446827,596.858632,21465.676602,12664.945443,-427.566520,3498.539746,0.006000,-0.024000,1.010000,192.000000,0.000000,0.000000,0.000000,0.000000,0.000000,0.000000,0.000000,0.000000,0.000000,1769523905.339652,0.000000
160.000000,15378.491924,14541.732018,3234.655051,-3335.819046,6346.151989,-10191.903733,529.602233,-17955.849225,12629.964963,11347.265404,-9001.382768,617.176368,21464.156683,12686.827801,-388.853298,3524.870101,0.012000,-0.022000,1.011000,192.000000,0.000000,72.000000,127.500000,48.000000,15.500000,80.000000,0.000000,0.000000,0.000000,1769523905.339662,0.000000
162.000000,15404.196430,14570.521065,3243.305176,-3326.230148,6369.688376,-10193.758928,538.945262,-17945.656830,12734.638182,11333.787302,-9087.839316,556.580789,21427.946857,12636.379914,-456.422622,3484.033463,0.012000,-0.022000,1.011000,192.000000,0.000000,0.000000,0.000000,0.000000,0.000000,0.000000,0.000000,0.000000,0.000000,1769523905.339672,0.000000
164.000000,15382.269368,14551.298565,3279.447946,-3290.757929,6361.529989,-10167.585035,572.316417,-17903.769660,12631.753103,11362.732811,-8989.804565,627.972260,21477.835951,12685.844324,-376.336321,3528.804008,0.012000,-0.022000,1.011000,192.000000,0.000000,0.000000,0.000000,0.000000,0.000000,0.000000,0.000000,0.000000,0.000000,1769523905.339682,0.000000
166.000000,15397.625017,14556.014783,3219.232347,-3357.321424,6357.663138,-10208.019341,510.089160,-17983.833609,12685.084365,11334.681372,-9053.015298,577.636132,21437.513404,12639.576213,-431.053392,3492.504775,0.012000,-0.022000,1.011000,192.000000,0.000000,0.000000,0.000000,0.000000,0.000000,0.000000,0.000000,0.000000,0.000000,1769523905.339693,0.000000
168.000000,15408.711482,14568.308242,3294.825947,-3281.459603,6375.566885,-10166.869779,585.146318,-17887.721108,12714.946296,11364.453896,-9041.146522,593.125891,21464.246090,12656.742353,-425.286642,3494.337618,0.012000,-0.022000,1.011000,192.000000,0.000000,0.000000,0.000000,0.000000,0.000000,0.000000,0.000000,0.000000,0.000000,1769523905.339703,0.000000
170.000000,15370.624110,14539.474492,3245.249777,-3334.343831,6352.008146,-10196.776414,533.491437,-17957.726772,12636.357562,11351.087552,-9002.612114,618.383362,21471.465703,12674.489638,-388.272153,3517.874005,0.013000,-0.022000,1.011500,192.000000,0.000000,56.000000,127.500000,40.000000,15.500000,80.000000,0.000000,0.000000,0.000000,1769523905.339713,0.000000
172.000000,15403.145898,14562.563844,3253.206998,-3330.007592,6363.161667,-10200.017416,540.465181,-17947.176748,12735.442845,11326.344171,-9085.246514,555.060870,21420.660188,12621.516004,-459.417756,3473.885771,0.013000,-0.022000,1.011500,192.000000,0.000000,0.000000,0.000000,0.000000,0.000000,0.000000,0.000000,0.000000,0.000000,1769523905.339723,0.000000
174.000000,15387.387918,14549.689239,3290.556763,-3290.735577,6354.936225,-10183.231256,577.502021,-17896.035957,12641.900795,11358.240111,-8983.993111,629.559234,21475.556073,12674.847266,-384.628819,3519.751551,0.013000,-0.022000,1.011500,192.000000,0.000000,0.000000,0.000000,0.000000,0.000000,0.000000,0.000000,0.000000,0.000000,1769523905.339739,0.000000
176.000000,15395.412194,14556.238300,3221.825149,-3358.327253,6351.739925,-10213.495518,512.592556,-17978.983281,12695.902609,11336.961250,-9043.448751,587.202679,21446.096473,12641.073780,-434.003822,3486.514507,0.013000,-0.022000,1.011500,192.000000,0.000000,0.000000,0.000000,0.000000,0.000000,0.000000,0.000000,0.000000,0.000000,1769523905.339750,0.000000
178.000000,15405.381072,14570.655176,3295.720016,-3280.610237,6360.658271,-10173.485896,587.984990,-17878.467486,12721.875336,11354.596776,-9037.123208,596.121025,21461.653288,12653.434295,-432.752124,3488.928496,0.013000,-0.022000,1.011500,192.000000,0.000000,0.000000,0.000000,0.000000,0.000000,0.000000,0.000000,0.000000,0.000000,1769523905.818417,0.000000
180.000000,15392.327653,14549.890405,3245.741516,-3332.645098,6338.999431,-10202.632571,537.537102,-17943.086379,12645.588833,11356.988413,-8992.687940,631.995574,21466.257747,12682.826839,-399.090397,3509.000362,0.011500,-0.020000,1.009750,192.000000,0.000000,40.000000,127.500000,56.000000,15.500000,64.000000,0.000000,0.000000,0.000000,1769523905.818472,0.000000
182.000000,15424.424758,14584.736775,3252.447039,-3324.799636,6360.479457,-10202.341998,545.427268,-17934.212736,12753.726572,11341.141026,-9077.937493,568.293103,21432.350151,12621.627763,-471.733567,3467.135545,0.011500,-0.020000,1.009750,192.000000,0.000000,0.000000,0.000000,0.000000,0.000000,0.000000,0.000000,0.000000,0.000000,1769523905.818515,0.000000
184.000000,15386.583255,14550.180978,3281.034920,-3288.634513,6345.146161,-10176.861009,578.887830,-17895.566570,12643.487769,11369.214817,-8982.696710,640.042202,21476.494846,12681.910417,-393.122481,3520.846787,0.011500,-0.020000,1.009750,192.000000,0.000000,0.000000,0.000000,0.000000,0.000000,0.000000,0.000000,0.000000,0.000000,1769523905.818553,0.000000
186.000000,15388.930188,14548.437542,3214.627888,-3359.467192,6339.781742,-10222.682085,511.497320,-17982.045470,12688.235961,11341.878634,-9050.131923,586.107443,21438.943915,12642.817216,-446.073764,3487.699150,0.011500,-0.020000,1.009750,192.000000,0.000000,0.000000,0.000000,0.000000,0.000000,0.000000,0.000000,0.000000,0.000000,1769523905.818594,0.000000
188.000000,15408.555020,14567.481228,3291.517888,-3278.978560,6360.300643,-10177.710376,587.761472,-17879.830942,12716.868546,11355.602605,-9041.280632,592.991780,21459.663982,12655.065972,-444.017404,3492.974161,0.011500,-0.020000,1.009750,192.000000,0.000000,0.000000,0.000000,0.000000,0.000000,0.000000,0.000000,0.000000,0.000000,1769523905.818636,0.000000
190.000000,15407.884468,14549.421018,3245.920330,-3326.319555,6346.353155,-10197.670483,539.504056,-17940.314763,12636.581080,11359.715326,-8994.431376,628.374592,21465.944823,12683.162115,-404.700685,3513.068380,0.013750,-0.020000,1.006875,192.000000,0.000000,64.000000,127.500000,48.000000,15.500000,48.000000,0.000000,0.000000,0.000000,1769523905.818678,0.000000
192.000000,15410.119642,14583.172152,3251.128286,-3320.061066,6370.671853,-10198.586905,546.477800,-17928.580097,12753.793627,11346.013706,-9074.875304,572.517582,21442.184918,12638.145702,-472.247657,3469.415423,0.013750,-0.020000,1.006875,192.000000,0.000000,0.000000,0.000000,0.000000,0.000000,0.000000,0.000000,0.000000,0.000000,1769523905.818704,0.000000
194.000000,15400.284874,14552.282042,3284.678255,-3286.779319,6348.029536,-10186.136983,579.714844,-17889.911579,12649.455684,11375.428602,-8979.031024,639.371650,21472.248014,12703.591609,-388.763891,3518.142226,0.013750,-0.020000,1.006875,192.000000,0.000000,0.000000,0.000000,0.000000,0.000000,0.000000,0.000000,0.000000,0.000000,1769523905.818715,0.000000
196.000000,15389.667796,14553.645498,3214.136149,-3356.025023,6348.141294,-10222.726789,511.743189,-17980.391440,12697.668397,11341.766875,-9047.740286,580.653617,21442.453139,12639.263289,-446.923130,3489.308475,0.013750,-0.020000,1.006875,192.000000,0.000000,0.000000,0.000000,0.000000,0.000000,0.000000,0.000000,0.000000,0.000000,1769523905.818725,0.000000
198.000000,15409.538497,14567.525931,3294.334208,-3276.788089,6365.173324,-10168.993195,588.186155,-17883.116649,12721.160081,11355.356736,-9038.039629,594.042312,21460.111017,12654.306013,-438.496523,3489.219068,0.013750,-0.020000,1.006875,192.000000,0.000000,0.000000,0.000000,0.000000,0.000000,0.000000,0.000000,0.000000,0.000000,1769523905.818735,0.000000
200.000000,15377.463743,14539.474492,3238.521902,-3329.873482,6340.318184,-10201.693797,534.743134,-17956.005687,12630.300239,11344.404381,-9000.555754,619.322135,21468.738791,12672.813257,-394.932973,3518.164577,0.009875,-0.021000,1.005437,192.000000,0.000000,24.000000,127.500000,40.000000,15.500000,48.000000,0.000000,0.000000,0.000000,1769523905.818745,0.000000
202.000000,15411.214878,14567.458876,3241.405277,-3325.067857,6362.580521,-10197.536373,540.979271,-17948.495501,12741.522520,11334.949593,-9089.225124,557.407803,21437.781625,12630.590812,-475.108680,3475.360987,0.009875,-0.021000,1.005437,192.000000,0.000000,0.000000,0.000000,0.000000,0.000000,0.000000,0.000000,0.000000,0.000000,1769523905.818756,0.000000
204.000000,15409.247924,14548.325783,3276.743385,-3290.310894,6346.822542,-10181.644283,574.149260,-17904.753137,12631.082550,11361.883445,-9000.578106,624.753609,21466.369506,12684.346757,-389.009761,3521.383228,0.009875,-0.021000,1.005437,192.000000,0.000000,0.000000,0.000000,0.000000,0.000000,0.000000,0.000000,0.000000,0.000000,1769523905.818766,0.000000
206.000000,15385.733889,14546.247071,3214.583184,-3362.350567,6355.562074,-10220.066931,505.238832,-17992.975473,12688.571237,11330.523948,-9055.384583,577.546725,21431.143156,12648.271042,-434.227340,3485.955714,0.009875,-0.021000,1.005437,192.000000,0.000000,0.000000,0.000000,0.000000,0.000000,0.000000,0.000000,0.000000,0.000000,1769523905.818776,0.000000
208.000000,15393.288778,14552.170283,3287.025188,-3280.900810,6367.229684,-10179.185591,581.905315,-17895.141887,12713.828708,11347.511273,-9048.790818,585.772167,21451.818520,12649.858016,-426.694802,3492.705940,0.009875,-0.021000,1.005437,192.000000,0.000000,0.000000,0.000000,0.000000,0.000000,0.000000,0.000000,0.000000,0.000000,1769523905.818786,0.000000
210.000000,15379.184828,14531.003181,3240.153580,-3335.640232,6341.346364,-10210.030998,530.541006,-17960.923071,12623.304143,11338.950555,-9007.864774,613.555385,21457.585270,12665.928920,-398.017514,3517.426970,0.005938,-0.019500,1.004719,192.000000,0.000000,8.000000,127.500000,56.000000,15.500000,48.000000,0.000000,0.000000,0.000000,1769523905.818796,0.000000
212.000000,15411.751319,14570.722231,3249.720126,-3328.152398,6373.264655,-10205.515946,538.207655,-17948.607260,12735.733418,11332.200328,-9085.201810,554.323262,21433.400683,12620.756044,-459.529514,3470.823583,0.005938,-0.019500,1.004719,192.000000,0.000000,0.000000,0.000000,0.000000,0.000000,0.000000,0.000000,0.000000,0.000000,1769523905.818806,0.000000
214.000000,15401.514220,14549.935108,3285.684083,-3288.589810,6358.154876,-10179.967902,573.009321,-17901.154506,12648.293394,11360.765858,-8990.743338,626.295880,21493.102192,12679.854057,-382.348941,3516.890528,0.005938,-0.019500,1.004719,192.000000,0.000000,0.000000,0.000000,0.000000,0.000000,0.000000,0.000000,0.000000,0.000000,1769523905.818817,0.000000
216.000000,15398.653197,14553.667850,3216.550138,-3358.059032,6354.779763,-10219.172861,506.177605,-17987.186371,12695.075595,11336.938898,-9051.025993,584.587524,21447.169357,12653.434295,-441.514008,3487.587391,0.005938,-0.019500,1.004719,192.000000,0.000000,0.000000,0.000000,0.000000,0.000000,0.000000,0.000000,0.000000,0.000000,1769523905.818827,0.000000
218.000000,15411.192526,14572.152742,3295.742368,-3280.029092,6367.877885,-10175.072870,583.827565,-17887.944625,12721.204784,11352.451009,-9043.359344,591.784786,21458.568747,12650.975603,-430.807523,3487.319170,0.005938,-0.019500,1.004719,192.000000,0.000000,0.000000,0.000000,0.000000,0.000000,0.000000,0.000000,0.000000,0.000000,1769523905.818837,0.000000
220.000000,15402.207124,14548.124617,3245.853275,-3330.164055,6347.269576,-10201.358521,534.653727,-17952.787036,12636.670487,11355.200273,-8998.566449,623.993650,21469.386991,12676.300129,-397.436368,3510.475577,0.007969,-0.017750,1.003359,192.000000,0.000000,40.000000,127.500000,64.000000,15.500000,40.000000,0.000000,0.000000,0.000000,1769523905.818848,0.000000
222.000000,15413.897087,14570.454010,3250.234216,-3326.140741,6372.281179,-10199.011588,539.571111,-17945.902699,12748.228043,11338.794093,-9085.246514,564.962693,21447.951668,12633.831815,-470.325407,3469.035443,0.007969,-0.017750,1.003359,192.000000,0.000000,0.000000,0.000000,0.000000,0.000000,0.000000,0.000000,0.000000,0.000000,1769523905.818858,0.000000
224.000000,15388.192581,14544.593041,3277.771566,-3288.589810,6351.449353,-10181.733690,572.629341,-17904.797841,12643.286603,11359.558864,-8991.145669,630.922691,21483.356831,12686.380766,-389.523851,3523.663106,0.007969,-0.017750,1.003359,192.000000,0.000000,0.000000,0.000000,0.000000,0.000000,0.000000,0.000000,0.000000,0.000000,1769523905.818868,0.000000
226.000000,15393.333482,14554.383106,3215.387847,-3355.645043,6352.924568,-10209.986295,507.161082,-17988.147496,12690.784060,11339.397590,-9058.692641,585.012208,21441.782587,12653.188426,-441.357546,3496.438682,0.007969,-0.017750,1.003359,192.000000,0.000000,0.000000,0.000000,0.000000,0.000000,0.000000,0.000000,0.000000,0.000000,1769523905.818878,0.000000
228.000000,15404.934037,14570.632824,3293.507194,-3278.732691,6375.991568,-10159.024317,583.380530,-17889.173971,12728.245584,11363.045736,-9044.767504,590.376626,21456.311221,12671.472153,-435.702555,3502.026618,0.007969,-0.017750,1.003359,192.000000,0.000000,0.000000,0.000000,0.000000,0.000000,0.000000,0.000000,0.000000,0.000000,1769523905.818888,0.000000
230.000000,15395.278084,14549.063390,3241.070001,-3327.928880,6352.701050,-10185.108803,533.089105,-17951.401228,12636.089341,11361.726983,-8999.572277,625.580624,21478.618262,12689.375900,-394.597697,3522.277298,0.007969,-0.017750,1.003359,192.000000,0.000000,0.000000,0.000000,0.000000,0.000000,0.000000,0.000000,0.000000,0.000000,1769523905.818898,0.000000
232.000000,15437.500529,14580.847571,3252.268225,-3322.653869,6377.042100,-10189.199172,539.146428,-17941.097074,12756.319375,11343.577366,-9083.324263,563.576885,21446.342343,12630.859033,-460.825915,3483.877001,0.010000,-0.028000,1.010000,192.000000,0.000000,40.000000,127.500000,16.000000,15.500000,72.000000,0.000000,0.000000,0.000000,1769523905.818908,0.000000
234.000000,15405.626941,14556.104190,3281.906638,-3287.829851,6357.484324,-10175.385794,571.399995,-17899.232256,12651.020306,11373.551056,-8987.815259,633.671955,21481.546340,12688.615941,-374.972865,3528.021697,0.010000,-0.028000,1.010000,192.000000,0.000000,0.000000,0.000000,0.000000,0.000000,0.000000,0.000000,0.000000,0.000000,1769523905.818918,0.000000
236.000000,15393.735813,14549.711591,3216.125454,-3357.790811,6358.937187,-10211.036826,504.836500,-17987.074612,12695.187354,11337.587099,-9054.021127,585.258077,21448.756331,12643.331306,-428.952328,3497.109234,0.010000,-0.028000,1.010000,192.000000,0.000000,0.000000,0.000000,0.000000,0.000000,0.000000,0.000000,0.000000,0.000000,1769523905.818928,0.000000
238.000000,15413.606514,14574.589083,3291.920220,-3276.721034,6379.366682,-10166.713317,583.157013,-17884.994195,12722.255316,11352.898044,-9044.566339,592.634152,21462.837930,12656.205911,-426.583043,3495.745778,0.010000,-0.028000,1.010000,192.000000,0.000000,0.000000,0.000000,0.000000,0.000000,0.000000,0.000000,0.000000,0.000000,1769523905.818938,0.000000
