Sample_index,EXG Channel 0,EXG Channel 1,EXG Channel 2,EXG Channel 3,EXG Channel 4,EXG Channel 5,EXG Channel 6,EXG Channel 7,EXG Channel 8,EXG Channel 9,EXG Channel 10,EXG Channel 11,EXG Channel 12,EXG Channel 13,EXG Channel 14,EXG Channel 15,Accel Channel 0,Accel Channel 1,Accel Channel 2,Not Used,Digital Channel 0 (D11),Digital Channel 1 (D12),Digital Channel 2 (D13),Digital Channel 3 (D17),Not Used,Digital Channel 4 (D18),Analog Channel 0,Analog Channel 1,Analog Channel 2,Timestamp,Marker Channel
90.000000,15294.292902,14232.786206,3293.954229,-3311.098017,6263.405831,-10324.203709,602.044237,-18033.074502,12552.091486,11171.446582,-9063.408859,631.749705,21487.558959,12512.260677,-440.396421,3533.386115,0.010000,-0.024000,1.012000,192.000000,0.000000,0.000000,0.000000,0.000000,0.000000,0.000000,0.000000,0.000000,0.000000,1769524004.048093,111.000000
92.000000,15318.008103,14259.295375,3269.121441,-3338.680069,6279.074404,-10341.615718,577.323208,-18066.624471,12661.391516,11153.498131,-9152.525264,563.800402,21446.074122,12464.025612,-518.404009,3487.810908,0.010000,-0.024000,1.012000,192.000000,0.000000,0.000000,0.000000,0.000000,0.000000,0.000000,0.000000,0.000000,0.000000,1769524004.048144,0.000000
94.000000,15314.185955,14254.333288,3334.790866,-3270.797821,6275.408718,-10301.427281,641.785639,-17981.576083,12597.532582,11187.629245,-9071.857819,623.077228,21490.487038,12510.673703,-457.048471,3527.552310,0.004000,-0.022000,1.014000,192.000000,0.000000,16.000000,127.500000,40.000000,15.500000,88.000000,0.000000,0.000000,0.000000,1769524004.048186,0.000000
96.000000,15327.060560,14258.401305,3262.773545,-3346.436125,6265.819820,-10341.347497,569.298931,-18073.866436,12598.896038,11164.450486,-9099.551630,606.335772,21467.352982,12490.534781,-476.136860,3512.219013,0.004000,-0.022000,1.014000,192.000000,0.000000,0.000000,0.000000,0.000000,0.000000,0.000000,0.000000,0.000000,0.000000,1769524004.048223,0.000000
98.000000,15339.979868,14289.202009,3327.414790,-3277.816269,6292.686617,-10304.690636,633.604900,-17988.281606,12681.016348,11176.922760,-9127.267793,590.376626,21461.161549,12479.381261,-502.467215,3493.510603,0.004000,-0.022000,1.014000,192.000000,0.000000,0.000000,0.000000,0.000000,0.000000,0.000000,0.000000,0.000000,0.000000,1769524004.048261,0.000000
100.000000,15324.713626,14262.469323,3296.927011,-3302.067912,6267.317387,-10314.413645,606.469882,-18022.725644,12567.894169,11191.674911,-9048.880225,650.413412,21486.039041,12520.128491,-452.466363,3539.778714,0.004000,-0.022000,1.014000,192.000000,0.000000,0.000000,0.000000,0.000000,0.000000,0.000000,0.000000,0.000000,0.000000,1769524004.048298,0.000000
102.000000,15333.475510,14279.188428,3267.400356,-3341.406982,6279.029701,-10349.595290,573.523411,-18065.439828,12660.005708,11156.694431,-9146.736163,574.216315,21437.289886,12459.622319,-516.325297,3493.845879,0.004000,-0.022000,1.014000,192.000000,0.000000,0.000000,0.000000,0.000000,0.000000,0.000000,0.000000,0.000000,0.000000,1769524004.048322,0.000000
104.000000,15351.513368,14294.924056,3335.081438,-3266.863914,6279.990826,-10297.627485,641.115086,-17969.483789,12601.868820,11191.652559,-9067.901560,636.912958,21480.719326,12510.271372,-444.665604,3531.173293,0.007000,-0.020000,1.015000,192.000000,0.000000,40.000000,127.500000,56.000000,15.500000,96.000000,0.000000,0.000000,0.000000,1769524004.048333,0.000000
106.000000,15352.921528,14278.450820,3262.550028,-3346.927863,6270.759555,-10345.415514,567.421385,-18069.954880,12609.311951,11181.840143,-9089.023958,619.746819,21467.487093,12496.748566,-477.500317,3514.141263,0.007000,-0.020000,1.015000,192.000000,0.000000,0.000000,0.000000,0.000000,0.000000,0.000000,0.000000,0.000000,0.000000,1769524004.048344,0.000000
108.000000,15334.995429,14295.572257,3321.536281,-3285.058234,6291.211401,-10320.739188,627.681688,-17995.523571,12679.317615,11174.799344,-9134.599165,585.123966,21459.306354,12472.943958,-490.911363,3491.096615,0.007000,-0.020000,1.015000,192.000000,0.000000,0.000000,0.000000,0.000000,0.000000,0.000000,0.000000,0.000000,0.000000,1769524004.048355,0.000000
110.000000,15322.657266,14272.862884,3300.257421,-3303.565479,6263.383480,-10322.326162,606.313420,-18020.423415,12559.154637,11189.797364,-9049.528426,644.266682,21478.908834,12518.273296,-428.415886,3533.654336,0.007000,-0.020000,1.015000,192.000000,0.000000,0.000000,0.000000,0.000000,0.000000,0.000000,0.000000,0.000000,0.000000,1769524004.048366,0.000000
112.000000,15362.130447,14306.435204,3275.134060,-3331.214587,6283.768270,-10338.777046,580.586562,-18049.413627,12669.996938,11174.240550,-9132.185177,587.247382,21447.303468,12474.508581,-509.977401,3488.772033,0.007000,-0.020000,1.015000,192.000000,0.000000,0.000000,0.000000,0.000000,0.000000,0.000000,0.000000,0.000000,0.000000,1769524004.048376,0.000000
114.000000,15360.051734,14305.161155,3342.926901,-3261.343033,6280.080233,-10296.241676,647.038298,-17962.375934,12619.146719,11207.276429,-9048.813170,649.362880,21500.455916,12525.336447,-451.885218,3526.144150,0.010500,-0.020000,1.012500,192.000000,0.000000,56.000000,127.500000,48.000000,15.500000,72.000000,0.000000,0.000000,0.000000,1769524004.048387,0.000000
116.000000,15357.056601,14299.483812,3267.646225,-3337.495427,6266.915055,-10334.485511,573.098728,-18059.673078,12614.743425,11185.528181,-9079.077432,628.553406,21475.489017,12506.560982,-478.148517,3515.035333,0.010500,-0.020000,1.012500,192.000000,0.000000,0.000000,0.000000,0.000000,0.000000,0.000000,0.000000,0.000000,0.000000,1769524004.048397,0.000000
118.000000,15380.592988,14319.958010,3325.537244,-3275.737557,6285.735224,-10306.501127,631.660298,-17983.185408,12686.783098,11191.987835,-9122.350409,600.636077,21461.407418,12489.819525,-499.740303,3494.225859,0.010500,-0.020000,1.012500,192.000000,0.000000,0.000000,0.000000,0.000000,0.000000,0.000000,0.000000,0.000000,0.000000,1769524004.048409,0.000000
120.000000,15343.623202,14286.475097,3301.531470,-3296.234107,6258.801372,-10314.637162,609.174443,-18013.472022,12569.458791,11202.984894,-9038.374905,656.560142,21484.675584,12530.946735,-440.910511,3538.795237,0.010500,-0.020000,1.012500,192.000000,0.000000,0.000000,0.000000,0.000000,0.000000,0.000000,0.000000,0.000000,0.000000,1769524004.048425,0.000000
122.000000,15355.536682,14304.982341,3270.931932,-3329.359392,6270.759555,-10337.167720,580.921838,-18051.760560,12674.154362,11177.660367,-9130.955831,591.740083,21450.522119,12476.184961,-518.851044,3490.113138,0.010500,-0.020000,1.012500,192.000000,0.000000,0.000000,0.000000,0.000000,0.000000,0.000000,0.000000,0.000000,0.000000,1769524004.048436,0.000000
124.000000,15351.468665,14296.466326,3336.936633,-3261.544199,6264.031680,-10300.376749,644.467848,-17966.823932,12606.070948,11200.772071,-9055.898673,647.015947,21496.544361,12520.374360,-461.585875,3529.183987,0.009250,-0.022000,1.011250,192.000000,0.000000,32.000000,127.500000,32.000000,15.500000,72.000000,0.000000,0.000000,0.000000,1769524004.048447,0.000000
126.000000,15362.063391,14296.466326,3265.656920,-3340.468209,6258.488447,-10342.375677,570.751795,-18061.170645,12602.226448,11181.482516,-9083.860705,624.887720,21453.003163,12497.530877,-474.795756,3513.738932,0.009250,-0.022000,1.011250,192.000000,0.000000,0.000000,0.000000,0.000000,0.000000,0.000000,0.000000,0.000000,0.000000,1769524004.048458,0.000000
128.000000,15388.594912,14318.527498,3323.994973,-3280.364368,6281.823669,-10310.189165,630.743877,-17984.995900,12679.407022,11190.624379,-9119.042351,594.042312,21451.125616,12484.343348,-509.642125,3492.862403,0.009250,-0.022000,1.011250,192.000000,0.000000,0.000000,0.000000,0.000000,0.000000,0.000000,0.000000,0.000000,0.000000,1769524004.048469,0.000000
130.000000,15333.676676,14283.658777,3302.894926,-3298.156357,6254.040450,-10318.034627,611.856653,-18011.549772,12557.947643,11199.967408,-9043.314641,655.509610,21474.013802,12522.430721,-440.441124,3537.141208,0.009250,-0.022000,1.011250,192.000000,0.000000,0.000000,0.000000,0.000000,0.000000,0.000000,0.000000,0.000000,0.000000,1769524004.048479,0.000000
132.000000,15358.420057,14302.814222,3272.876534,-3331.371049,6267.362090,-10344.320279,582.352350,-18050.955898,12663.336118,11179.716728,-9131.268755,592.678856,21444.934183,12476.162610,-521.175625,3491.454243,0.009250,-0.022000,1.011250,192.000000,0.000000,0.000000,0.000000,0.000000,0.000000,0.000000,0.000000,0.000000,0.000000,1769524004.048490,0.000000
134.000000,15353.413266,14295.728719,3338.434200,-3262.639435,6268.367919,-10307.462252,647.865313,-17964.991089,12594.738614,11206.985856,-9059.519656,646.054822,21477.232453,12519.122662,-451.460535,3525.585356,0.010625,-0.023000,1.009625,192.000000,0.000000,48.000000,127.500000,32.000000,15.500000,64.000000,0.000000,0.000000,0.000000,1769524004.048500,0.000000
136.000000,15358.867092,14289.671396,3263.980539,-3339.842360,6255.672128,-10350.221139,573.903391,-18062.444694,12592.324626,11182.041309,-9085.671197,626.742915,21454.590136,12495.921552,-473.477003,3512.330772,0.010625,-0.023000,1.009625,192.000000,0.000000,0.000000,0.000000,0.000000,0.000000,0.000000,0.000000,0.000000,0.000000,1769524004.048511,0.000000
138.000000,15353.457970,14305.205858,3321.268060,-3280.006740,6276.168677,-10320.158043,631.682650,-17986.895798,12665.995975,11182.488344,-9126.574889,594.779920,21448.666924,12476.296720,-508.166910,3491.700112,0.010625,-0.023000,1.009625,192.000000,0.000000,0.000000,0.000000,0.000000,0.000000,0.000000,0.000000,0.000000,0.000000,1769524004.048522,0.000000
140.000000,15335.263650,14288.710271,3305.308915,-3297.977543,6257.840247,-10325.075427,613.868310,-18008.889915,12552.560872,11201.487327,-9043.113475,656.470735,21474.930224,12522.408369,-443.793886,3528.178159,0.010625,-0.023000,1.009625,192.000000,0.000000,0.000000,0.000000,0.000000,0.000000,0.000000,0.000000,0.000000,0.000000,1769524004.048532,0.000000
142.000000,15358.621223,14298.477983,3270.306083,-3331.751029,6274.313483,-10346.421343,580.921838,-18055.560357,12662.509103,11176.028690,-9133.280412,584.587524,21444.062465,12471.066412,-516.191186,3477.819679,0.010625,-0.023000,1.009625,192.000000,0.000000,0.000000,0.000000,0.000000,0.000000,0.000000,0.000000,0.000000,0.000000,1769524004.048542,0.000000
144.000000,15342.796188,14286.206876,3334.589700,-3265.925141,6269.373747,-10313.407816,643.059688,-17974.669394,12594.984483,11198.112213,-9067.521580,639.304595,21477.143047,12513.244154,-462.099965,3530.927423,0.011312,-0.021500,1.005812,192.000000,0.000000,48.000000,127.500000,48.000000,15.500000,40.000000,0.000000,0.000000,0.000000,1769524004.048553,0.000000
146.000000,15329.027513,14275.723907,3261.052461,-3346.190255,6258.890779,-10355.853779,567.779013,-18074.246415,12584.188591,11170.060774,-9095.237743,614.874138,21449.046904,12487.249075,-472.001788,3511.190833,0.011312,-0.021500,1.005812,192.000000,0.000000,0.000000,0.000000,0.000000,0.000000,0.000000,0.000000,0.000000,0.000000,1769524004.048564,0.000000
148.000000,15365.796133,14301.473117,3322.229185,-3284.544144,6284.751747,-10321.230927,628.843979,-17993.891894,12664.163132,11177.347443,-9134.241537,585.325132,21450.030380,12471.736964,-502.064884,3489.710807,0.011312,-0.021500,1.005812,192.000000,0.000000,0.000000,0.000000,0.000000,0.000000,0.000000,0.000000,0.000000,0.000000,1769524004.048574,0.000000
150.000000,15333.654324,14268.683108,3299.720979,-3306.650019,6261.036546,-10329.903404,608.146263,-18022.792700,12559.355802,11188.500963,-9049.148446,646.010118,21485.815523,12516.239287,-433.199159,3534.146075,0.011312,-0.021500,1.005812,192.000000,0.000000,0.000000,0.000000,0.000000,0.000000,0.000000,0.000000,0.000000,0.000000,1769524004.048585,0.000000
152.000000,15362.555130,14297.472155,3271.602484,-3336.422543,6273.777041,-10347.158950,580.631266,-18055.426247,12661.257405,11161.768277,-9139.807122,577.054987,21442.944877,12461.432810,-516.638221,3485.285161,0.011312,-0.021500,1.005812,192.000000,0.000000,0.000000,0.000000,0.000000,0.000000,0.000000,0.000000,0.000000,0.000000,1769524004.048596,0.000000
154.000000,15357.883615,14293.985283,3338.478904,-3268.652054,6271.564218,-10313.117243,644.579607,-17970.556673,12610.608352,11197.598123,-9059.072621,636.868255,21480.451105,12510.584296,-457.093174,3525.495949,0.010656,-0.020750,1.006906,192.000000,0.000000,40.000000,127.500000,48.000000,15.500000,64.000000,0.000000,0.000000,0.000000,1769524004.048606,0.000000
156.000000,15336.269478,14280.864809,3265.120478,-3343.306880,6257.661433,-10351.159912,572.137603,-18064.344593,12601.891172,11178.241513,-9082.497249,617.444589,21460.759218,12491.227685,-474.080500,3506.631077,0.010656,-0.020750,1.006906,192.000000,0.000000,0.000000,0.000000,0.000000,0.000000,0.000000,0.000000,0.000000,0.000000,1769524004.048617,0.000000
158.000000,15377.083764,14312.067844,3324.844339,-3281.951342,6283.567105,-10322.169700,631.123856,-17988.214551,12679.988167,11181.393109,-9122.417465,588.990818,21453.092569,12475.067374,-508.815111,3488.324998,0.010656,-0.020750,1.006906,192.000000,0.000000,0.000000,0.000000,0.000000,0.000000,0.000000,0.000000,0.000000,0.000000,1769524004.048628,0.000000
160.000000,15344.181996,14283.703480,3304.504252,-3302.984333,6258.823724,-10330.730418,608.079208,-18017.987075,12564.586111,11190.445565,-9040.699487,650.033432,21480.831084,12518.161537,-440.150552,3535.174255,0.010656,-0.020750,1.006906,192.000000,0.000000,0.000000,0.000000,0.000000,0.000000,0.000000,0.000000,0.000000,0.000000,1769524004.048638,0.000000
162.000000,15357.235415,14300.780213,3275.022301,-3337.204854,6273.955855,-10355.227930,578.127870,-18056.186206,12659.581025,11162.327071,-9133.615689,576.742062,21443.369561,12462.751563,-510.737361,3489.777862,0.010656,-0.020750,1.006906,192.000000,0.000000,0.000000,0.000000,0.000000,0.000000,0.000000,0.000000,0.000000,0.000000,1769524004.048649,0.000000
164.000000,15361.012859,14295.080518,3341.652851,-3266.685100,6267.004462,-10312.156118,645.093697,-17969.796714,12603.545201,11199.118042,-9055.831618,635.951833,21484.496770,12511.813642,-453.695709,3524.199548,0.008328,-0.022375,1.006453,192.000000,0.000000,24.000000,127.500000,32.000000,15.500000,56.000000,0.000000,0.000000,0.000000,1769524004.048660,0.000000
166.000000,15354.933185,14291.973626,3268.406185,-3343.508046,6257.683785,-10351.986927,571.757623,-18064.724572,12591.631721,11172.944149,-9085.134755,615.030600,21467.844721,12492.658197,-474.236962,3514.901223,0.008328,-0.022375,1.006453,192.000000,0.000000,0.000000,0.000000,0.000000,0.000000,0.000000,0.000000,0.000000,0.000000,1769524004.048670,0.000000
168.000000,15370.601758,14314.593591,3321.804502,-3288.947438,6280.504916,-10323.667267,627.681688,-17994.383632,12669.281682,11181.102536,-9127.670124,588.007341,21461.139197,12470.842894,-504.478872,3494.047045,0.008328,-0.022375,1.006453,192.000000,0.000000,0.000000,0.000000,0.000000,0.000000,0.000000,0.000000,0.000000,0.000000,1769524004.048680,0.000000
170.000000,15333.207289,14284.441088,3306.717075,-3310.650982,6261.684747,-10330.931584,608.213318,-18020.557525,12547.375267,11188.500963,-9047.963804,641.964453,21469.655212,12509.690226,-437.177770,3535.665993,0.008328,-0.022375,1.006453,192.000000,0.000000,0.000000,0.000000,0.000000,0.000000,0.000000,0.000000,0.000000,0.000000,1769524004.048691,0.000000
172.000000,15372.054621,14303.931809,3276.296351,-3343.262177,6276.883933,-10354.333860,576.786766,-18057.683773,12656.138856,11163.355251,-9135.225014,579.580734,21443.593078,12459.622319,-512.167872,3479.049024,0.008328,-0.022375,1.006453,192.000000,0.000000,0.000000,0.000000,0.000000,0.000000,0.000000,0.000000,0.000000,0.000000,1769524004.048701,0.000000
174.000000,15361.124618,14299.126184,3343.552750,-3269.143792,6272.033605,-10311.731435,643.998461,-17966.309841,12605.646265,11198.425138,-9058.826752,637.270586,21484.742640,12506.315113,-454.969758,3527.440551,0.008328,-0.022375,1.006453,192.000000,0.000000,0.000000,0.000000,0.000000,0.000000,0.000000,0.000000,0.000000,0.000000,1769524004.048712,0.000000
176.000000,15365.371450,14298.321521,3271.490725,-3343.195122,6265.573950,-10344.432037,571.712920,-18058.130808,12600.393605,11182.018957,-9077.624569,623.054877,21466.302450,12490.445374,-470.973607,3516.622307,0.006000,-0.022000,1.010000,192.000000,0.000000,24.000000,127.500000,40.000000,15.500000,72.000000,0.000000,0.000000,0.000000,1769524004.048723,0.000000
178.000000,15394.249903,14329.636315,3328.934709,-3280.632589,6286.137555,-10313.005485,631.101505,-17978.916225,12680.770478,11191.272580,-9115.331962,595.517528,21464.044924,12477.794287,-507.295192,3494.739949,0.006000,-0.022000,1.010000,192.000000,0.000000,0.000000,0.000000,0.000000,0.000000,0.000000,0.000000,0.000000,0.000000,1769524004.048734,0.000000
180.000000,15357.973022,14294.007634,3310.896851,-3301.486767,6264.523418,-10326.572994,610.001458,-18008.711101,12565.726050,11205.510641,-9034.016315,658.370633,21493.035137,12521.894279,-440.977566,3540.538673,0.006000,-0.022000,1.010000,192.000000,0.000000,0.000000,0.000000,0.000000,0.000000,0.000000,0.000000,0.000000,0.000000,1769524004.048744,0.000000
182.000000,15369.908854,14316.851117,3280.878458,-3336.534302,6279.946122,-10347.851854,578.686664,-18050.642973,12670.645138,11174.285254,-9130.531148,585.995684,21453.181976,12467.020746,-502.444864,3488.190888,0.006000,-0.022000,1.010000,192.000000,0.000000,0.000000,0.000000,0.000000,0.000000,0.000000,0.000000,0.000000,0.000000,1769524004.048755,0.000000
184.000000,15369.841799,14311.777271,3348.447782,-3263.309987,6278.672073,-10305.383540,646.568912,-17959.805484,12613.871707,11208.773995,-9053.618795,644.266682,21493.839800,12516.105177,-449.471229,3527.351144,0.006000,-0.022000,1.010000,192.000000,0.000000,0.000000,0.000000,0.000000,0.000000,0.000000,0.000000,0.000000,0.000000,1769524004.048765,0.000000
186.000000,15364.209159,14299.886143,3275.692853,-3342.479866,6266.043337,-10349.729401,572.830507,-18056.320316,12612.999989,11184.164725,-9075.791726,629.022792,21473.477360,12499.408424,-467.710253,3515.862348,0.010000,-0.024000,1.010000,192.000000,0.000000,40.000000,127.500000,32.000000,15.500000,72.000000,0.000000,0.000000,0.000000,1769524004.048776,0.000000
188.000000,15392.171191,14323.221364,3332.689802,-3281.906638,6288.104509,-10316.648819,629.715697,-17978.692708,12693.555676,11185.729347,-9116.650714,596.657466,21473.276195,12481.102345,-499.092102,3490.291952,0.010000,-0.024000,1.010000,192.000000,0.000000,0.000000,0.000000,0.000000,0.000000,0.000000,0.000000,0.000000,0.000000,1769524004.048786,0.000000
190.000000,15359.448237,14303.194201,3316.618898,-3299.229240,6266.691538,-10325.991848,612.974240,-17998.295188,12577.393660,11204.884792,-9027.020219,660.382290,21497.393727,12525.224689,-434.808485,3531.441513,0.010000,-0.024000,1.010000,192.000000,0.000000,0.000000,0.000000,0.000000,0.000000,0.000000,0.000000,0.000000,0.000000,1769524004.048797,0.000000
192.000000,15382.336424,14311.419643,3279.157374,-3336.668412,6280.191991,-10349.327069,578.619609,-18044.786816,12679.183504,11178.487382,-9117.321267,591.293048,21466.123636,12471.602854,-508.882166,3487.632094,0.010000,-0.024000,1.010000,192.000000,0.000000,0.000000,0.000000,0.000000,0.000000,0.000000,0.000000,0.000000,0.000000,1769524004.048808,0.000000
194.000000,15373.015746,14309.229172,3345.027965,-3262.035938,6278.470907,-10307.730473,646.390098,-17955.469245,12617.358579,11204.750681,-9049.573129,648.401755,21487.000166,12514.361741,-451.706404,3527.574662,0.010000,-0.024000,1.010000,192.000000,0.000000,0.000000,0.000000,0.000000,0.000000,0.000000,0.000000,0.000000,0.000000,1769524004.048818,0.000000
196.000000,15367.517217,14306.681074,3271.602484,-3336.176674,6268.010291,-10343.403857,573.545763,-18050.620622,12611.055387,11185.908161,-9071.299025,635.996537,21471.979794,12498.939037,-472.135898,3518.298688,0.006000,-0.022000,1.010000,192.000000,0.000000,24.000000,127.500000,40.000000,15.500000,72.000000,0.000000,0.000000,0.000000,1769524004.048829,0.000000
198.000000,15397.267389,14324.897745,3325.783113,-3281.861935,6290.898477,-10320.918002,628.486351,-17981.330214,12690.091156,11190.825545,-9116.293087,597.439778,21462.055619,12476.833162,-508.725704,3496.259868,0.006000,-0.022000,1.010000,192.000000,0.000000,0.000000,0.000000,0.000000,0.000000,0.000000,0.000000,0.000000,0.000000,1769524004.048840,0.000000
200.000000,15390.494810,14298.343873,3310.002781,-3296.949362,6270.536038,-10325.589517,612.147225,-18002.027929,12571.090468,11202.537859,-9033.882205,656.806011,21497.393727,12517.803910,-438.876502,3541.142171,0.006000,-0.022000,1.010000,192.000000,0.000000,0.000000,0.000000,0.000000,0.000000,0.000000,0.000000,0.000000,0.000000,1769524004.048850,0.000000
202.000000,15370.981737,14320.896783,3279.090319,-3332.935671,6284.997616,-10349.125904,579.670141,-18042.708104,12678.155324,11177.056870,-9121.836319,597.305667,21457.227642,12467.177208,-511.407913,3492.080091,0.006000,-0.022000,1.010000,192.000000,0.000000,0.000000,0.000000,0.000000,0.000000,0.000000,0.000000,0.000000,0.000000,1769524004.048861,0.000000
204.000000,15372.345194,14316.895821,3344.603282,-3260.381908,6280.482564,-10310.166813,647.194761,-17954.798693,12618.900850,11208.371664,-9044.543987,651.016909,21486.016689,12513.422968,-458.724851,3528.804008,0.006000,-0.022000,1.010000,192.000000,0.000000,0.000000,0.000000,0.000000,0.000000,0.000000,0.000000,0.000000,0.000000,1769524004.048872,0.000000
206.000000,15372.680470,14302.009559,3270.015510,-3336.266081,6267.160924,-10342.532139,572.674045,-18053.816921,12613.402321,11191.898428,-9066.314586,635.661261,21470.795151,12499.989569,-476.807413,3517.918708,0.006000,-0.020000,1.010000,192.000000,0.000000,24.000000,127.500000,48.000000,15.500000,72.000000,0.000000,0.000000,0.000000,1769524004.048882,0.000000
208.000000,15375.250921,14326.060036,3326.498369,-3281.638417,6289.043282,-10321.365037,629.648641,-17980.994938,12681.932769,11181.706033,-9118.036523,595.741045,21456.445331,12474.307415,-496.566355,3496.796310,0.006000,-0.020000,1.010000,192.000000,0.000000,0.000000,0.000000,0.000000,0.000000,0.000000,0.000000,0.000000,0.000000,1769524004.048892,0.000000
210.000000,15357.146008,14297.136879,3307.253517,-3299.184537,6262.936445,-10327.020028,610.873176,-18004.620731,12566.910692,11194.893562,-9031.892900,656.515438,21492.699861,12517.289819,-428.281776,3535.911862,0.006000,-0.020000,1.010000,192.000000,0.000000,0.000000,0.000000,0.000000,0.000000,0.000000,0.000000,0.000000,0.000000,1769524004.528935,0.000000
212.000000,15390.539514,14323.914268,3270.954284,-3335.684936,6275.587532,-10348.589462,575.065681,-18051.157063,12667.225321,11172.139486,-9128.452436,586.107443,21447.012895,12466.953691,-505.596460,3488.995551,0.006000,-0.020000,1.010000,192.000000,0.000000,0.000000,0.000000,0.000000,0.000000,0.000000,0.000000,0.000000,0.000000,1769524004.529007,0.000000
214.000000,15377.620206,14303.618885,3340.490561,-3260.761888,6274.961683,-10309.987999,644.020813,-17961.481865,12612.955286,11205.354179,-9057.306833,640.444534,21485.703765,12513.177098,-451.549941,3526.814702,0.006000,-0.020000,1.010000,192.000000,0.000000,0.000000,0.000000,0.000000,0.000000,0.000000,0.000000,0.000000,0.000000,1769524004.529063,0.000000
216.000000,15375.049755,14299.372053,3268.652054,-3336.735468,6268.323215,-10345.057886,570.461222,-18055.046267,12602.137041,11185.572885,-9075.836429,627.122894,21465.944823,12494.558095,-468.269046,3515.415313,0.004000,-0.020000,1.008000,192.000000,0.000000,16.000000,127.500000,48.000000,15.500000,64.000000,0.000000,0.000000,0.000000,1769524004.529116,0.000000
218.000000,15396.619188,14335.470120,3328.711191,-3277.212772,6290.339683,-10317.364075,629.335717,-17976.032850,12686.358414,11194.602990,-9113.320305,598.020923,21468.403514,12481.392918,-505.238832,3491.521298,0.004000,-0.020000,1.008000,192.000000,0.000000,0.000000,0.000000,0.000000,0.000000,0.000000,0.000000,0.000000,0.000000,1769524004.529183,0.000000
220.000000,15379.877732,14304.200030,3313.243784,-3293.082511,6267.071517,-10321.096816,613.801254,-17995.411813,12570.330509,11212.216164,-9023.779216,661.633988,21497.080803,12528.085712,-434.495560,3538.325851,0.004000,-0.020000,1.008000,192.000000,0.000000,0.000000,0.000000,0.000000,0.000000,0.000000,0.000000,0.000000,0.000000,1769524004.529208,0.000000
222.000000,15388.416098,14320.382693,3278.933856,-3332.019249,6279.253218,-10346.086066,579.245458,-18040.629392,12672.880313,11188.344501,-9112.135662,601.798368,21451.259726,12477.146086,-514.984192,3488.481461,0.004000,-0.020000,1.008000,192.000000,0.000000,0.000000,0.000000,0.000000,0.000000,0.000000,0.000000,0.000000,0.000000,1769524004.529234,0.000000
224.000000,15379.743621,14307.016350,3343.284529,-3262.214752,6268.010291,-10317.006447,645.138400,-17958.352620,12614.564611,11204.996551,-9048.477894,648.401755,21481.166361,12512.551250,-454.790944,3524.713638,0.004000,-0.020000,1.008000,192.000000,0.000000,0.000000,0.000000,0.000000,0.000000,0.000000,0.000000,0.000000,0.000000,1769524004.529259,0.000000
226.000000,15358.621223,14295.281684,3269.546124,-3338.233034,6253.325195,-10352.679831,571.847030,-18054.107494,12598.113727,11182.063661,-9074.450621,628.843979,21457.138235,12491.361796,-475.354549,3515.214147,0.008000,-0.020000,1.008000,192.000000,0.000000,32.000000,127.500000,48.000000,15.500000,64.000000,0.000000,0.000000,0.000000,1769524004.529284,0.000000
228.000000,15382.694052,14327.892879,3328.599433,-3279.202077,6284.304712,-10320.225098,628.151074,-17975.585815,12682.424507,11188.836239,-9108.469976,600.703132,21451.885575,12478.844819,-509.597422,3495.164632,0.008000,-0.020000,1.008000,192.000000,0.000000,0.000000,0.000000,0.000000,0.000000,0.000000,0.000000,0.000000,0.000000,1769524004.529309,0.000000
230.000000,15380.570636,14306.278742,3314.294316,-3290.824984,6266.602131,-10320.918002,615.120007,-17991.924941,12570.375212,11206.360007,-9021.119359,668.808898,21486.419020,12526.565793,-436.238997,3538.974051,0.008000,-0.020000,1.008000,192.000000,0.000000,0.000000,0.000000,0.000000,0.000000,0.000000,0.000000,0.000000,0.000000,1769524004.529333,0.000000
232.000000,15408.286799,14328.608135,3280.610237,-3327.638308,6278.068576,-10343.537968,581.547687,-18036.360209,12672.232112,11189.529144,-9111.599220,603.742969,21455.573613,12476.252017,-511.005582,3492.325961,0.008000,-0.020000,1.008000,192.000000,0.000000,0.000000,0.000000,0.000000,0.000000,0.000000,0.000000,0.000000,0.000000,1769524004.529358,0.000000
234.000000,15371.585235,14312.581934,3342.703383,-3257.207961,6271.966549,-10305.249429,647.060650,-17954.396362,12618.006780,11211.500908,-9045.929795,654.369671,21493.906855,12517.535689,-459.685976,3529.362801,0.008000,-0.020000,1.008000,192.000000,0.000000,0.000000,0.000000,0.000000,0.000000,0.000000,0.000000,0.000000,0.000000,1769524004.529382,0.000000
236.000000,15357.570691,14290.364300,3263.399394,-3339.104752,6252.721697,-10354.803247,570.282408,-18057.504959,12593.531620,11183.494173,-9072.617778,628.441647,21464.380200,12494.088709,-475.287494,3518.857481,0.008000,-0.020000,1.012000,192.000000,0.000000,32.000000,127.500000,48.000000,15.500000,80.000000,0.000000,0.000000,0.000000,1769524004.529408,0.000000
238.000000,15382.492886,14325.233021,3321.133950,-3279.984388,6281.242523,-10322.840252,627.346412,-17981.553731,12674.646100,11180.409632,-9119.332924,594.690513,21455.640668,12470.328804,-508.189262,3493.622362,0.008000,-0.020000,1.012000,192.000000,0.000000,0.000000,0.000000,0.000000,0.000000,0.000000,0.000000,0.000000,0.000000,1769524004.529432,0.000000
240.000000,15367.226644,14302.054262,3309.399284,-3292.121386,6262.578817,-10321.454444,614.225938,-17996.149420,12562.775619,11204.527164,-9033.345763,661.298711,21491.112887,12523.727122,-439.211779,3540.069287,0.008000,-0.020000,1.012000,192.000000,0.000000,0.000000,0.000000,0.000000,0.000000,0.000000,0.000000,0.000000,0.000000,1769524004.529457,0.000000
242.000000,15380.861209,14316.694655,3276.966903,-3331.728677,6278.359148,-10344.275575,578.619609,-18040.562337,12666.197141,11181.884847,-9118.081226,596.322190,21448.890442,12474.821505,-517.800512,3493.443548,0.008000,-0.020000,1.012000,192.000000,0.000000,0.000000,0.000000,0.000000,0.000000,0.000000,0.000000,0.000000,0.000000,1769524004.529482,0.000000
244.000000,15364.298566,14308.044530,3344.089191,-3266.081603,6271.184238,-10316.961743,642.657357,-17957.190330,12610.943629,11203.186059,-9047.159141,648.602921,21482.105134,12512.238325,-450.499409,3523.193720,0.008000,-0.020000,1.012000,192.000000,0.000000,0.000000,0.000000,0.000000,0.000000,0.000000,0.000000,0.000000,0.000000,1769524004.529507,0.000000
246.000000,15378.983662,14295.415794,3271.021339,-3339.551787,6259.226055,-10350.109380,571.355292,-18052.632279,12594.090413,11184.701167,-9070.270845,629.447476,21468.649384,12493.216991,-467.442032,3517.248156,0.009000,-0.019000,1.014000,192.000000,0.000000,40.000000,127.500000,56.000000,15.500000,96.000000,0.000000,0.000000,0.000000,1769524004.529532,0.000000
248.000000,15389.868962,14324.830690,3324.330249,-3279.917333,6286.182259,-10316.760578,625.982955,-17980.190275,12678.959987,11180.990777,-9117.991819,597.126853,21465.140160,12473.882732,-504.948259,3492.728292,0.009000,-0.019000,1.014000,192.000000,0.000000,0.000000,0.000000,0.000000,0.000000,0.000000,0.000000,0.000000,0.000000,1769524004.529557,0.000000
250.000000,15363.203330,14301.495469,3310.472168,-3290.780281,6265.484544,-10320.560374,611.722542,-17996.171772,12564.273186,11208.103443,-9031.758789,662.125726,21485.882579,12527.638677,-440.061145,3538.795237,0.009000,-0.019000,1.014000,192.000000,0.000000,0.000000,0.000000,0.000000,0.000000,0.000000,0.000000,0.000000,0.000000,1769524004.529585,0.000000
252.000000,15367.986604,14313.543059,3271.088394,-3336.288433,6273.754689,-10356.390221,572.919914,-18048.385447,12668.611129,11181.035481,-9120.986953,591.203641,21454.388971,12469.837066,-507.965744,3487.229763,0.009000,-0.019000,1.014000,192.000000,0.000000,0.000000,0.000000,0.000000,0.000000,0.000000,0.000000,0.000000,0.000000,1769524004.529611,0.000000
254.000000,15368.210121,14298.030948,3338.277738,-3266.841563,6270.178410,-10319.398084,640.802162,-17961.325402,12610.250725,11196.793460,-9058.960862,642.031508,21479.333517,12505.599857,-453.852171,3525.115970,0.009000,-0.019000,1.014000,192.000000,0.000000,0.000000,0.000000,0.000000,0.000000,0.000000,0.000000,0.000000,0.000000,1769524004.529636,0.000000
0.000000,15367.025479,14296.756899,3267.087432,-3340.334098,6261.885913,-10352.031631,569.276580,-18054.241604,12601.801765,11176.743946,-9076.104650,627.659336,21461.362715,12491.719424,-470.481869,3514.856519,0.008500,-0.017500,1.012000,192.000000,0.000000,32.000000,127.500000,64.000000,15.500000,72.000000,0.000000,0.000000,0.000000,1769524004.529661,0.000000
2.000000,15395.456898,14326.819995,3322.765627,-3280.163202,6285.355244,-10317.073502,624.910071,-17978.513894,12688.884162,11185.684643,-9116.024866,598.356199,21460.692163,12478.643653,-507.719875,3490.336655,0.008500,-0.017500,1.012000,192.000000,0.000000,0.000000,0.000000,0.000000,0.000000,0.000000,0.000000,0.000000,0.000000,1769524004.529685,0.000000
4.000000,15376.144990,14299.707329,3304.906583,-3293.037807,6256.990881,-10319.800415,609.219147,-17999.323368,12573.839733,11210.808004,-9026.774350,665.523191,21498.354852,12535.104160,-441.312843,3534.816627,0.008500,-0.017500,1.012000,192.000000,0.000000,0.000000,0.000000,0.000000,0.000000,0.000000,0.000000,0.000000,0.000000,1769524004.529711,0.000000
6.000000,15387.745546,14323.824862,3270.998987,-3328.688840,6282.449518,-10337.771218,574.484536,-18046.574956,12674.221417,11184.678815,-9123.825624,594.377589,21459.999259,12482.756374,-515.140654,3489.710807,0.008500,-0.017500,1.012000,192.000000,0.000000,0.000000,0.000000,0.000000,0.000000,0.000000,0.000000,0.000000,0.000000,1769524004.529736,0.000000
8.000000,15379.274235,14316.828765,3343.463343,-3257.677347,6282.874201,-10303.818918,644.557255,-17956.542129,12625.762835,11214.943077,-9055.339879,645.004290,21498.488962,12523.794177,-451.393479,3526.524130,0.008500,-0.017500,1.012000,192.000000,0.000000,0.000000,0.000000,0.000000,0.000000,0.000000,0.000000,0.000000,0.000000,1769524004.529762,0.000000
10.000000,15385.979758,14299.126184,3269.657882,-3333.427409,6271.050128,-10344.275575,573.545763,-18045.300906,12612.284733,11196.860516,-9067.499228,636.935310,21490.621148,12505.286933,-465.653892,3515.437664,0.007250,-0.020750,1.007000,192.000000,0.000000,24.000000,127.500000,32.000000,15.500000,40.000000,0.000000,0.000000,0.000000,1769524004.529794,0.000000
12.000000,15397.826183,14325.769463,3321.111598,-3279.738519,6295.011198,-10321.812072,626.608804,-17974.781153,12692.326330,11194.781803,-9112.247421,607.252193,21473.857340,12481.571732,-505.417646,3492.750644,0.007250,-0.020750,1.007000,192.000000,0.000000,0.000000,0.000000,0.000000,0.000000,0.000000,0.000000,0.000000,0.000000,1769524004.529819,0.000000
14.000000,15386.180924,14301.361358,3304.727769,-3293.127214,6267.138573,-10328.092912,610.403789,-18000.105679,12575.829038,11211.702074,-9027.534309,668.786546,21496.522009,12526.901070,-434.272043,3530.413333,0.007250,-0.020750,1.007000,192.000000,0.000000,0.000000,0.000000,0.000000,0.000000,0.000000,0.000000,0.000000,0.000000,1769524004.529844,0.000000
16.000000,15365.438505,14314.928867,3265.835734,-3332.578043,6273.419413,-10353.372735,572.674045,-18050.531215,12665.481885,11183.807097,-9129.190043,593.461167,21452.600831,12470.507618,-510.782064,3493.376493,0.007250,-0.020750,1.007000,192.000000,0.000000,0.000000,0.000000,0.000000,0.000000,0.000000,0.000000,0.000000,0.000000,1769524004.529868,0.000000
18.000000,15364.320918,14303.976512,3335.126142,-3258.593769,6276.123974,-10309.339799,640.623348,-17961.794789,12615.235164,11209.824527,-9059.273786,647.977072,21488.095401,12514.898183,-459.149535,3525.898281,0.007250,-0.020750,1.007000,192.000000,0.000000,0.000000,0.000000,0.000000,0.000000,0.000000,0.000000,0.000000,0.000000,1769524004.529908,0.000000
20.000000,15359.314127,14295.616960,3262.706490,-3335.260252,6264.188142,-10343.314450,568.270751,-18057.594366,12595.699739,11191.093766,-9076.708147,634.208397,21477.031288,12501.397729,-472.024139,3516.197624,0.007625,-0.022375,1.004500,192.000000,0.000000,32.000000,127.500000,32.000000,15.500000,40.000000,0.000000,0.000000,0.000000,1769524004.529933,0.000000
22.000000,15391.522991,14318.192222,3315.590717,-3283.560667,6282.650683,-10318.302848,621.914938,-17988.236903,12683.184467,11189.506792,-9127.111331,596.098673,21474.125561,12475.849685,-511.922003,3495.924592,0.007625,-0.022375,1.004500,192.000000,0.000000,0.000000,0.000000,0.000000,0.000000,0.000000,0.000000,0.000000,0.000000,1769524004.529958,0.000000
24.000000,15350.731057,14295.929884,3305.957115,-3299.139833,6260.634215,-10327.355305,607.363952,-18004.352510,12562.060364,11204.057777,-9039.112513,657.677729,21481.300471,12518.675628,-436.015479,3537.230615,0.007625,-0.022375,1.004500,192.000000,0.000000,0.000000,0.000000,0.000000,0.000000,0.000000,0.000000,0.000000,0.000000,1769524004.529975,0.000000
26.000000,15385.867999,14319.533327,3271.535429,-3333.270947,6277.845058,-10345.370811,572.495231,-18048.251337,12664.766629,11184.343539,-9121.992781,593.997609,21449.985677,12471.267578,-508.144558,3489.084958,0.007625,-0.022375,1.004500,192.000000,0.000000,0.000000,0.000000,0.000000,0.000000,0.000000,0.000000,0.000000,0.000000,1769524004.529991,0.000000
28.000000,15389.533685,14318.236925,3341.339927,-3257.185609,6276.258084,-10302.321351,641.875046,-17958.196158,12623.706475,11219.212260,-9054.535217,657.275397,21492.677509,12519.904973,-458.903665,3525.048915,0.007625,-0.022375,1.004500,192.000000,0.000000,0.000000,0.000000,0.000000,0.000000,0.000000,0.000000,0.000000,0.000000,1769524004.530003,0.000000
30.000000,15355.402572,14301.093137,3268.540295,-3335.327308,6268.926712,-10343.001526,568.047234,-18059.628375,12604.595733,11203.588391,-9075.724670,638.477580,21479.311166,12507.209183,-468.850192,3514.633002,0.006812,-0.020188,1.005250,192.000000,0.000000,24.000000,127.500000,56.000000,15.500000,56.000000,0.000000,0.000000,0.000000,1769524004.530016,0.000000
32.000000,15370.489999,14327.647010,3327.280680,-3278.531525,6298.274553,-10312.893726,624.172464,-17984.459458,12680.859885,11196.927571,-9123.423293,598.736179,21472.672698,12483.382223,-499.159157,3490.627228,0.006812,-0.020188,1.005250,192.000000,0.000000,0.000000,0.000000,0.000000,0.000000,0.000000,0.000000,0.000000,0.000000,1769524004.530028,0.000000
34.000000,15370.110019,14308.335103,3317.825892,-3291.003798,6276.950988,-10315.710046,612.616612,-17995.590627,12570.531675,11217.848804,-9026.193205,668.965360,21496.030271,12534.500663,-424.303165,3535.621290,0.006812,-0.020188,1.005250,192.000000,0.000000,0.000000,0.000000,0.000000,0.000000,0.000000,0.000000,0.000000,0.000000,1769524004.530040,0.000000
36.000000,15392.707633,14332.318524,3278.240952,-3331.572215,6287.702177,-10335.938375,575.289199,-18044.853871,12674.355528,11197.531068,-9115.935459,604.972315,21466.905948,12486.042081,-506.624640,3488.146184,0.006812,-0.020188,1.005250,192.000000,0.000000,0.000000,0.000000,0.000000,0.000000,0.000000,0.000000,0.000000,0.000000,1769524004.530052,0.000000
38.000000,15376.703784,14318.214574,3345.631462,-3260.784240,6281.153116,-10301.471985,644.244330,-17960.498388,12626.969829,11226.878909,-9052.143580,651.821572,21502.914608,12528.398636,-450.924093,3527.753476,0.006812,-0.020188,1.005250,192.000000,0.000000,0.000000,0.000000,0.000000,0.000000,0.000000,0.000000,0.000000,0.000000,1769524004.530079,0.000000
40.000000,15366.332575,14304.356492,3271.960112,-3334.813217,6271.273645,-10340.073447,571.399995,-18057.482607,12598.292541,11202.113176,-9072.930702,636.734144,21475.489017,12510.897220,-458.166058,3516.845824,0.009406,-0.021094,1.007625,192.000000,0.000000,48.000000,127.500000,40.000000,15.500000,72.000000,0.000000,0.000000,0.000000,1769524004.530090,0.000000
42.000000,15390.807735,14327.870527,3324.173787,-3281.727824,6294.720625,-10316.984095,621.825531,-17989.220379,12685.307882,11199.945056,-9121.813967,600.613725,21464.111979,12490.132450,-495.851099,3493.443548,0.009406,-0.021094,1.007625,192.000000,0.000000,0.000000,0.000000,0.000000,0.000000,0.000000,0.000000,0.000000,0.000000,1769524004.530102,0.000000
44.000000,15377.754316,14304.647065,3316.954174,-3290.221487,6271.720680,-10317.095854,612.236632,-17998.921037,12570.844599,11212.149109,-9031.557623,665.478488,21493.839800,12534.992401,-427.991203,3538.281147,0.009406,-0.021094,1.007625,192.000000,0.000000,0.000000,0.000000,0.000000,0.000000,0.000000,0.000000,0.000000,0.000000,1769524004.530113,0.000000
46.000000,15387.589084,14317.588725,3277.279827,-3334.165017,6282.673035,-10346.354287,573.590466,-18050.866491,12673.841438,11192.233705,-9116.136624,602.513624,21463.083799,12484.723328,-499.919116,3490.917801,0.009406,-0.021094,1.007625,192.000000,0.000000,0.000000,0.000000,0.000000,0.000000,0.000000,0.000000,0.000000,0.000000,1769524004.530124,0.000000
48.000000,15394.272255,14316.806414,3349.073630,-3260.203095,6284.036491,-10300.108528,644.892531,-17957.749123,12622.633591,11218.228783,-9052.590615,646.479505,21493.884503,12521.268430,-444.777363,3527.082923,0.009406,-0.021094,1.007625,192.000000,0.000000,0.000000,0.000000,0.000000,0.000000,0.000000,0.000000,0.000000,0.000000,1769524004.530137,0.000000
50.000000,15364.700897,14312.805451,3274.731728,-3333.136837,6270.491334,-10336.184244,573.970446,-18051.805264,12603.187573,11204.236591,-9068.482705,638.745801,21475.153741,12509.980799,-460.825915,3520.355048,0.010703,-0.020547,1.008812,192.000000,0.000000,48.000000,127.500000,48.000000,15.500000,72.000000,0.000000,0.000000,0.000000,1769524004.530149,0.000000
52.000000,15396.485078,14332.296173,3331.460456,-3276.408109,6298.363960,-10310.837365,629.223958,-17980.302033,12690.560542,11203.364873,-9115.175499,605.419350,21465.140160,12487.807868,-503.920079,3493.376493,0.010703,-0.020547,1.008812,192.000000,0.000000,0.000000,0.000000,0.000000,0.000000,0.000000,0.000000,0.000000,0.000000,1769524004.530160,0.000000
54.000000,15383.498714,14307.061053,3318.384685,-3289.975618,6270.468983,-10318.928697,615.768208,-17996.507048,12574.175009,11223.235574,-9021.342876,676.386139,21500.299454,12538.568680,-431.567482,3536.560063,0.010703,-0.020547,1.008812,192.000000,0.000000,0.000000,0.000000,0.000000,0.000000,0.000000,0.000000,0.000000,0.000000,1769524004.530171,0.000000
56.000000,15378.916607,14321.008542,3275.201115,-3334.902624,6280.773137,-10344.923776,573.635170,-18052.297002,12667.091211,11188.590370,-9122.596279,594.936382,21459.306354,12475.760278,-503.584803,3490.023731,0.010703,-0.020547,1.008812,192.000000,0.000000,0.000000,0.000000,0.000000,0.000000,0.000000,0.000000,0.000000,0.000000,1769524004.530183,0.000000
58.000000,15374.692127,14306.457556,3346.860808,-3261.678310,6278.694424,-10307.618714,644.870179,-17960.967775,12610.317780,11212.573792,-9057.977385,646.434801,21499.852419,12515.747549,-454.276854,3528.580490,0.010703,-0.020547,1.008812,192.000000,0.000000,0.000000,0.000000,0.000000,0.000000,0.000000,0.000000,0.000000,0.000000,1769524004.530202,0.000000
60.000000,15359.872920,14295.974588,3274.508211,-3336.444895,6263.785811,-10354.020936,573.746928,-18055.873281,12589.888285,11192.747795,-9073.981234,631.459133,21470.146951,12498.447299,-457.875485,3516.890528,0.010703,-0.020547,1.008812,192.000000,0.000000,0.000000,0.000000,0.000000,0.000000,0.000000,0.000000,0.000000,0.000000,1769524004.530213,0.000000
62.000000,15377.664909,14318.862774,3322.318592,-3282.644246,6281.108413,-10325.589517,625.066534,-17991.120278,12676.277778,11192.926609,-9122.708037,597.998571,21460.915680,12475.313243,-502.511919,3493.152975,0.010000,-0.018000,1.014000,192.000000,0.000000,40.000000,127.500000,56.000000,15.500000,88.000000,0.000000,0.000000,0.000000,1769524004.530225,0.000000
64.000000,15361.929281,14295.751070,3311.768569,-3290.601467,6259.159000,-10328.674058,615.701153,-18004.844249,12553.834922,11210.986818,-9039.872472,660.359938,21484.541474,12524.911764,-431.187502,3539.644604,0.010000,-0.018000,1.014000,192.000000,0.000000,0.000000,0.000000,0.000000,0.000000,0.000000,0.000000,0.000000,0.000000,1769524004.530237,0.000000
66.000000,15376.189694,14320.516803,3270.596656,-3334.187369,6270.401927,-10355.160875,575.825641,-18055.515654,12655.378897,11187.964521,-9126.507834,596.813929,21454.724247,12473.055717,-508.077503,3488.973199,0.010000,-0.018000,1.014000,192.000000,0.000000,0.000000,0.000000,0.000000,0.000000,0.000000,0.000000,0.000000,0.000000,1769524004.530248,0.000000
68.000000,15367.874845,14315.532364,3341.027002,-3262.035938,6268.792602,-10308.445729,646.501857,-17961.235995,12612.754120,11211.523260,-9061.933644,642.456191,21494.376241,12512.461843,-458.009596,3526.457074,0.010000,-0.018000,1.014000,192.000000,0.000000,0.000000,0.000000,0.000000,0.000000,0.000000,0.000000,0.000000,0.000000,1769524004.530260,0.000000
70.000000,15375.139162,14306.368149,3274.441156,-3336.646061,6265.953930,-10344.677907,577.233801,-18050.642973,12597.957265,11198.693359,-9069.354423,637.069420,21485.435544,12502.135337,-463.217552,3517.248156,0.010000,-0.018000,1.014000,192.000000,0.000000,0.000000,0.000000,0.000000,0.000000,0.000000,0.000000,0.000000,0.000000,1769524004.530272,0.000000
72.000000,15397.960293,14329.122225,3325.514892,-3281.683121,6291.434919,-10321.745017,629.201606,-17984.817086,12692.058109,11194.044196,-9118.125930,602.200699,21477.679488,12476.654348,-503.584803,3489.867269,0.012000,-0.018000,1.014000,192.000000,0.000000,48.000000,127.500000,56.000000,15.500000,88.000000,0.000000,0.000000,0.000000,1769524004.530283,0.000000
74.000000,15363.449200,14304.043568,3313.377895,-3292.344903,6265.350433,-10324.874261,615.745856,-18001.111508,12570.442268,11210.472728,-9029.411856,666.484316,21502.780497,12526.096407,-434.719078,3541.879778,0.012000,-0.018000,1.014000,192.000000,0.000000,0.000000,0.000000,0.000000,0.000000,0.000000,0.000000,0.000000,0.000000,1769524005.009772,0.000000
76.000000,15378.246054,14316.672303,3272.429499,-3337.115447,6275.341663,-10348.947090,576.272676,-18052.587575,12661.547978,11184.276484,-9122.395113,595.986914,21462.167378,12474.776801,-510.826768,3493.555307,0.012000,-0.018000,1.014000,192.000000,0.000000,0.000000,0.000000,0.000000,0.000000,0.000000,0.000000,0.000000,0.000000,1769524005.009826,0.000000
78.000000,15378.268406,14313.386597,3344.424468,-3263.019414,6276.816878,-10310.189165,648.424107,-17958.374972,12616.553917,11213.803138,-9055.876321,646.345394,21493.236303,12513.735892,-457.830782,3523.238423,0.012000,-0.018000,1.014000,192.000000,0.000000,0.000000,0.000000,0.000000,0.000000,0.000000,0.000000,0.000000,0.000000,1769524005.009868,0.000000
80.000000,15359.828217,14301.495469,3274.485859,-3333.583872,6261.327119,-10346.086066,578.932533,-18048.966592,12594.537448,11197.262847,-9068.527409,638.343470,21478.037116,12499.497831,-466.816183,3517.762246,0.012000,-0.018000,1.014000,192.000000,0.000000,0.000000,0.000000,0.000000,0.000000,0.000000,0.000000,0.000000,0.000000,1769524005.009905,0.000000
82.000000,15393.847572,14328.921059,3323.592642,-3280.543182,6284.639988,-10323.957839,628.151074,-17984.414754,12686.269007,11193.843030,-9117.231860,608.012153,21472.315070,12479.381261,-509.373904,3490.828394,0.006000,-0.016000,1.014000,192.000000,0.000000,24.000000,127.500000,64.000000,15.500000,88.000000,0.000000,0.000000,0.000000,1769524005.009946,0.000000
84.000000,15354.173226,14304.177678,3310.092188,-3292.076682,6258.801372,-10331.937412,617.578699,-17999.457478,12565.256663,11207.924629,-9033.658687,670.731148,21502.936960,12521.514299,-432.953290,3535.375420,0.006000,-0.016000,1.014000,192.000000,0.000000,0.000000,0.000000,0.000000,0.000000,0.000000,0.000000,0.000000,0.000000,1769524005.009984,0.000000
86.000000,15386.180924,14323.578992,3271.133098,-3333.114485,6277.621541,-10347.382468,578.552553,-18049.838310,12659.893949,11184.656463,-9123.244479,600.099635,21455.685372,12472.809848,-510.290326,3491.834222,0.006000,-0.016000,1.014000,192.000000,0.000000,0.000000,0.000000,0.000000,0.000000,0.000000,0.000000,0.000000,0.000000,1769524005.009998,0.000000
88.000000,15377.530799,14319.913306,3343.262177,-3260.404260,6278.001520,-10307.194031,647.351223,-17957.212681,12620.174899,11214.205469,-9052.747077,654.056746,21488.922416,12515.881659,-454.142744,3527.127627,0.006000,-0.016000,1.014000,192.000000,0.000000,0.000000,0.000000,0.000000,0.000000,0.000000,0.000000,0.000000,0.000000,1769524005.010010,0.000000
90.000000,15364.298566,14309.251524,3270.596656,-3337.227206,6265.283378,-10349.237662,572.986969,-18053.861624,12595.990312,11191.540801,-9071.053156,636.041240,21476.897177,12498.380244,-470.191296,3521.740856,0.006000,-0.016000,1.014000,192.000000,0.000000,0.000000,0.000000,0.000000,0.000000,0.000000,0.000000,0.000000,0.000000,1769524005.010030,0.000000
92.000000,15389.936017,14329.546908,3323.726752,-3282.666598,6289.155041,-10321.074464,627.659336,-17982.671318,12692.259275,11194.290065,-9114.415540,603.787673,21472.538587,12478.107211,-512.838425,3496.304571,0.008000,-0.018000,1.008000,192.000000,0.000000,32.000000,127.500000,56.000000,15.500000,64.000000,0.000000,0.000000,0.000000,1769524005.010042,0.000000
94.000000,15371.965214,14296.913361,3308.661676,-3293.998932,6268.077346,-10326.684752,616.192891,-18001.022101,12569.034108,11202.113176,-9028.160158,667.512496,21493.772744,12520.419064,-434.875540,3542.080944,0.008000,-0.018000,1.008000,192.000000,0.000000,0.000000,0.000000,0.000000,0.000000,0.000000,0.000000,0.000000,0.000000,1769524005.010055,0.000000
96.000000,15386.136220,14320.628562,3268.428536,-3335.573177,6277.398023,-10340.699296,574.775109,-18054.420418,12664.118429,11178.152106,-9124.317363,592.969429,21455.126578,12469.904121,-509.284497,3495.969295,0.008000,-0.018000,1.008000,192.000000,0.000000,0.000000,0.000000,0.000000,0.000000,0.000000,0.000000,0.000000,0.000000,1769524005.010067,0.000000
98.000000,15361.571653,14317.454614,3344.782096,-3255.464525,6285.914038,-10295.481717,647.485333,-17956.251556,12623.304143,11215.032484,-9053.305871,647.038298,21496.991396,12519.122662,-460.960026,3531.687383,0.008000,-0.018000,1.008000,192.000000,0.000000,0.000000,0.000000,0.000000,0.000000,0.000000,0.000000,0.000000,0.000000,1769524005.010080,0.000000
100.000000,15358.800037,14303.820050,3272.250685,-3332.354526,6273.642930,-10342.420380,573.813984,-18052.453465,12596.616160,11196.681702,-9065.554627,640.221016,21485.770820,12504.951656,-463.463421,3527.798179,0.008000,-0.018000,1.008000,192.000000,0.000000,0.000000,0.000000,0.000000,0.000000,0.000000,0.000000,0.000000,0.000000,1769524005.010092,0.000000
102.000000,15399.770784,14339.739304,3327.079514,-3277.771566,6302.342570,-10310.390331,627.257005,-17979.027984,12691.432260,11200.280333,-9113.275601,607.609821,21481.903968,12486.019729,-500.209689,3496.505737,0.006000,-0.020000,1.006000,192.000000,0.000000,24.000000,127.500000,48.000000,15.500000,56.000000,0.000000,0.000000,0.000000,1769524005.010104,0.000000
104.000000,15361.415191,14302.478946,3311.343886,-3291.361426,6271.832439,-10321.700313,614.270641,-17998.429298,12578.243027,11216.910030,-9023.913327,674.508592,21520.460727,12535.931174,-425.711325,3542.863255,0.006000,-0.020000,1.006000,192.000000,0.000000,0.000000,0.000000,0.000000,0.000000,0.000000,0.000000,0.000000,0.000000,1769524005.010116,0.000000
106.000000,15370.355889,14319.019236,3269.076737,-3334.701459,6281.778965,-10349.550587,573.791632,-18051.402933,12660.743315,11181.102536,-9124.295011,593.237650,21465.810712,12472.765144,-497.572183,3496.706903,0.006000,-0.020000,1.006000,192.000000,0.000000,0.000000,0.000000,0.000000,0.000000,0.000000,0.000000,0.000000,0.000000,1769524005.010127,0.000000
108.000000,15361.996336,14318.303981,3342.703383,-3257.364423,6287.970398,-10306.232906,645.898360,-17954.798693,12621.091321,11215.501871,-9052.501208,649.675804,21501.774669,12518.072130,-454.925055,3529.273394,0.006000,-0.020000,1.006000,192.000000,0.000000,0.000000,0.000000,0.000000,0.000000,0.000000,0.000000,0.000000,0.000000,1769524005.010139,0.000000
110.000000,15367.651328,14304.088271,3268.763813,-3336.109619,6269.150230,-10348.880035,571.802327,-18049.815959,12597.264361,11195.184135,-9066.068717,640.511589,21479.869959,12503.118813,-457.294340,3517.426970,0.006000,-0.020000,1.006000,192.000000,0.000000,0.000000,0.000000,0.000000,0.000000,0.000000,0.000000,0.000000,0.000000,1769524005.010150,0.000000
112.000000,15407.437433,14336.967687,3320.061066,-3283.851240,6292.597210,-10320.560374,623.703077,-17980.056164,12688.347720,11193.775975,-9117.053046,600.993705,21478.081820,12477.503714,-502.243698,3494.024693,0.010000,-0.022000,1.010000,192.000000,0.000000,40.000000,127.500000,40.000000,15.500000,72.000000,0.000000,0.000000,0.000000,1769524005.010162,0.000000
114.000000,15371.272310,14311.978437,3312.819101,-3291.719054,6271.854791,-10317.721703,616.125836,-17988.080441,12573.459753,11216.507699,-9022.974553,671.893438,21514.649274,12531.952564,-431.679241,3542.639737,0.010000,-0.022000,1.010000,192.000000,0.000000,0.000000,0.000000,0.000000,0.000000,0.000000,0.000000,0.000000,0.000000,1769524005.010174,0.000000
116.000000,15366.332575,14316.135861,3268.853220,-3339.641194,6284.081195,-10348.522407,573.098728,-18047.223156,12665.817161,11180.566094,-9113.476767,604.994667,21483.625052,12476.229665,-502.422512,3498.338580,0.010000,-0.022000,1.010000,192.000000,0.000000,0.000000,0.000000,0.000000,0.000000,0.000000,0.000000,0.000000,0.000000,1769524005.010186,0.000000
118.000000,15373.239264,14312.917210,3338.858883,-3264.494629,6285.757576,-10306.367017,643.417316,-17959.291394,12624.131158,11209.802176,-9055.429286,644.579607,21496.253788,12514.764072,-447.906607,3527.574662,0.010000,-0.022000,1.010000,192.000000,0.000000,0.000000,0.000000,0.000000,0.000000,0.000000,0.000000,0.000000,0.000000,1769524005.010198,0.000000
120.000000,15362.376316,14303.395367,3268.115612,-3336.623709,6272.793564,-10343.895596,573.121080,-18055.225081,12592.928123,11192.256056,-9072.193095,634.566025,21479.668794,12501.353026,-458.076651,3524.400714,0.010000,-0.022000,1.010000,192.000000,0.000000,0.000000,0.000000,0.000000,0.000000,0.000000,0.000000,0.000000,0.000000,1769524005.010210,0.000000
122.000000,15375.474438,14328.898707,3317.669430,-3286.488746,6300.085044,-10319.196918,623.926595,-17987.342833,12685.330234,11194.155955,-9125.122026,598.646772,21473.097381,12477.190790,-502.847195,3493.152975,0.010000,-0.020000,1.008000,192.000000,0.000000,40.000000,127.500000,48.000000,15.500000,64.000000,0.000000,0.000000,0.000000,1769524005.010224,0.000000
124.000000,15352.116865,14294.745242,3310.114540,-3294.848298,6275.676939,-10319.666305,616.215243,-17995.300054,12563.177951,11209.712769,-9030.618850,665.165563,21503.696919,12524.151805,-425.376049,3539.890473,0.010000,-0.020000,1.008000,192.000000,0.000000,0.000000,0.000000,0.000000,0.000000,0.000000,0.000000,0.000000,0.000000,1769524005.010236,0.000000
126.000000,15398.072052,14315.934696,3268.920275,-3335.416715,6287.053977,-10343.649726,576.876173,-18047.692543,12662.106772,11187.741004,-9115.287258,600.636077,21471.197482,12473.770973,-503.718913,3498.718560,0.010000,-0.020000,1.008000,192.000000,0.000000,0.000000,0.000000,0.000000,0.000000,0.000000,0.000000,0.000000,0.000000,1769524005.010248,0.000000
128.000000,15374.446258,14308.357454,3337.651889,-3266.886266,6281.868372,-10313.653685,643.730240,-17965.259309,12616.397454,11205.532993,-9062.492438,638.432877,21492.185771,12508.594991,-449.515933,3528.871063,0.010000,-0.020000,1.008000,192.000000,0.000000,0.000000,0.000000,0.000000,0.000000,0.000000,0.000000,0.000000,0.000000,1769524005.010259,0.000000
130.000000,15361.258729,14292.599475,3266.014548,-3338.680069,6264.590474,-10349.081200,573.054024,-18058.600194,12590.491782,11187.696300,-9072.953054,626.765266,21475.511369,12495.206296,-456.623787,3520.958545,0.010000,-0.020000,1.008000,192.000000,0.000000,0.000000,0.000000,0.000000,0.000000,0.000000,0.000000,0.000000,0.000000,1769524005.010271,0.000000
132.000000,15389.712499,14332.072655,3317.892947,-3281.481955,6293.111300,-10317.721703,626.809970,-17985.822914,12689.532362,11190.982007,-9118.617668,596.411597,21467.352982,12472.251054,-506.691695,3495.432853,0.009000,-0.019000,1.006000,192.000000,0.000000,32.000000,127.500000,56.000000,15.500000,48.000000,0.000000,0.000000,0.000000,1769524005.010283,0.000000
134.000000,15372.702822,14301.584876,3309.108711,-3291.316723,6270.156058,-10323.890784,617.757513,-17996.730566,12568.967053,11218.027618,-9026.573184,667.020758,21503.562808,12527.102235,-432.349793,3540.091639,0.009000,-0.019000,1.006000,192.000000,0.000000,0.000000,0.000000,0.000000,0.000000,0.000000,0.000000,0.000000,0.000000,1769524005.010294,0.000000
136.000000,15375.765011,14316.828765,3267.757984,-3338.814180,6280.370805,-10352.501017,575.222144,-18049.570090,12656.027097,11183.740042,-9121.456340,598.333847,21462.994392,12466.506656,-495.269954,3496.841013,0.009000,-0.019000,1.006000,192.000000,0.000000,0.000000,0.000000,0.000000,0.000000,0.000000,0.000000,0.000000,0.000000,1769524005.010306,0.000000
138.000000,15383.565770,14316.873469,3344.513875,-3262.147696,6285.645817,-10307.283438,650.256950,-17949.993068,12624.064103,11212.707903,-9053.127057,649.742860,21498.779535,12513.288857,-447.660738,3527.641717,0.009000,-0.019000,1.006000,192.000000,0.000000,0.000000,0.000000,0.000000,0.000000,0.000000,0.000000,0.000000,0.000000,1769524005.010318,0.000000
140.000000,15375.966177,14310.100890,3275.424632,-3334.299127,6272.279474,-10343.493264,581.257115,-18041.702275,12603.031111,11198.089862,-9058.267958,643.797296,21488.609491,12503.878773,-455.103869,3519.595089,0.009000,-0.019000,1.006000,192.000000,0.000000,0.000000,0.000000,0.000000,0.000000,0.000000,0.000000,0.000000,0.000000,1769524005.010329,0.000000
142.000000,15385.130392,14329.770426,3320.552805,-3286.511098,6292.552506,-10329.724590,627.905205,-17983.699499,12694.494449,11197.978103,-9110.392226,602.625382,21479.489980,12476.117906,-501.707256,3491.230725,0.007500,-0.019500,1.005000,192.000000,0.000000,24.000000,127.500000,48.000000,15.500000,48.000000,0.000000,0.000000,0.000000,1769524005.010341,0.000000
144.000000,15359.358830,14305.809355,3314.406075,-3290.221487,6272.458288,-10327.288249,621.199682,-17991.075574,12573.146829,11214.764263,-9024.427417,667.601903,21505.753279,12521.313133,-427.499464,3543.712621,0.007500,-0.019500,1.005000,192.000000,0.000000,0.000000,0.000000,0.000000,0.000000,0.000000,0.000000,0.000000,0.000000,1769524005.010352,0.000000
146.000000,15381.487057,14322.036722,3272.094223,-3336.243729,6280.013177,-10358.826561,578.239629,-18047.133749,12664.878388,11186.422251,-9113.946153,599.876118,21468.761142,12467.512484,-497.035741,3495.902240,0.007500,-0.019500,1.005000,192.000000,0.000000,0.000000,0.000000,0.000000,0.000000,0.000000,0.000000,0.000000,0.000000,1769524005.010364,0.000000
148.000000,15382.314072,14318.147518,3343.709212,-3261.343033,6280.639026,-10315.978267,650.815743,-17953.837568,12624.824062,11214.741911,-9051.942414,647.127705,21507.027329,12506.337465,-454.075689,3526.702944,0.007500,-0.019500,1.005000,192.000000,0.000000,0.000000,0.000000,0.000000,0.000000,0.000000,0.000000,0.000000,0.000000,1769524005.010375,0.000000
150.000000,15360.096438,14298.388576,3272.228333,-3338.143627,6263.852866,-10354.423267,578.887830,-18049.033648,12589.932989,11190.356158,-9065.040537,632.532016,21501.931131,12488.724290,-452.935750,3522.322002,0.007500,-0.019500,1.005000,192.000000,0.000000,0.000000,0.000000,0.000000,0.000000,0.000000,0.000000,0.000000,0.000000,1769524005.010387,0.000000
152.000000,15383.699880,14329.882184,3321.491578,-3285.125290,6291.077291,-10328.584651,630.430952,-17981.844304,12678.848228,11187.964521,-9116.091921,595.673990,21461.496825,12467.244264,-500.299096,3491.320132,0.008750,-0.020750,1.004500,192.000000,0.000000,40.000000,127.500000,40.000000,15.500000,48.000000,0.000000,0.000000,0.000000,1769524005.010398,0.000000
154.000000,15353.994412,14302.188373,3314.540185,-3290.132080,6268.032642,-10328.852872,623.099580,-17990.606188,12563.982614,11211.970295,-9022.304001,670.127651,21502.959311,12522.028389,-427.387706,3535.286014,0.008750,-0.020750,1.004500,192.000000,0.000000,0.000000,0.000000,0.000000,0.000000,0.000000,0.000000,0.000000,0.000000,1769524005.010411,0.000000
156.000000,15375.519142,14317.275800,3267.378004,-3338.121276,6272.055956,-10357.261939,576.831469,-18052.274651,12653.590757,11184.276484,-9118.215337,596.456301,21460.692163,12466.707822,-500.276744,3495.879888,0.008750,-0.020750,1.004500,192.000000,0.000000,0.000000,0.000000,0.000000,0.000000,0.000000,0.000000,0.000000,0.000000,1769524005.010422,0.000000
158.000000,15384.526895,14319.823899,3344.312709,-3260.895999,6278.627369,-10314.860679,651.486296,-17953.770513,12618.118539,11214.049007,-9054.959900,648.111182,21496.700823,12507.835031,-450.141782,3523.886624,0.008750,-0.020750,1.004500,192.000000,0.000000,0.000000,0.000000,0.000000,0.000000,0.000000,0.000000,0.000000,0.000000,1769524005.010434,0.000000
160.000000,15366.265519,14304.624713,3275.558743,-3338.009517,6267.227980,-10359.742982,581.570039,-18047.200805,12592.749309,11194.960617,-9062.313624,641.360955,21483.245073,12493.753432,-455.305035,3517.270507,0.008750,-0.020750,1.004500,192.000000,0.000000,0.000000,0.000000,0.000000,0.000000,0.000000,0.000000,0.000000,0.000000,1769524005.010446,0.000000
162.000000,15392.864095,14330.977420,3323.972621,-3288.478051,6293.111300,-10331.848005,630.721525,-17985.554693,12689.979397,11196.748757,-9113.610877,604.569984,21478.685317,12468.674775,-501.327276,3488.324998,0.010375,-0.021375,1.002250,192.000000,0.000000,48.000000,127.500000,40.000000,15.500000,32.000000,0.000000,0.000000,0.000000,1769524005.010457,0.000000
164.000000,15369.104191,14310.659684,3315.255441,-3292.657827,6268.770250,-10325.097778,621.602013,-17995.523571,12566.955396,11209.153975,-9027.176681,668.898305,21510.156573,12519.480290,-427.432409,3540.002232,0.010375,-0.021375,1.002250,192.000000,0.000000,0.000000,0.000000,0.000000,0.000000,0.000000,0.000000,0.000000,0.000000,1769524005.010469,0.000000
166.000000,15386.203275,14329.077521,3273.457679,-3335.372011,6286.361073,-10343.828540,580.318341,-18046.664363,12664.900740,11191.339635,-9116.293087,604.458225,21473.790285,12474.195656,-495.851099,3496.237516,0.010375,-0.021375,1.002250,192.000000,0.000000,0.000000,0.000000,0.000000,0.000000,0.000000,0.000000,0.000000,0.000000,1769524005.010488,0.000000
168.000000,15395.747470,14330.440978,3346.391421,-3258.727879,6284.952913,-10304.377711,652.335662,-17950.417751,12632.893042,11225.873080,-9055.295176,654.950816,21508.346082,12518.966200,-449.426526,3526.188854,0.010375,-0.021375,1.002250,192.000000,0.000000,0.000000,0.000000,0.000000,0.000000,0.000000,0.000000,0.000000,0.000000,1769524005.010500,0.000000
170.000000,15364.365621,14310.682036,3276.229295,-3332.242767,6271.295997,-10342.241566,582.441757,-18045.546776,12604.327512,11209.891583,-9062.872417,649.273473,21503.965140,12511.076034,-460.512991,3530.346278,0.010375,-0.021375,1.002250,192.000000,0.000000,0.000000,0.000000,0.000000,0.000000,0.000000,0.000000,0.000000,0.000000,1769524005.010512,0.000000
172.000000,15385.756241,14333.883147,3322.162130,-3286.801670,6290.674960,-10321.432092,629.469827,-17987.700461,12688.370071,11205.421234,-9117.343619,606.045199,21487.760125,12482.778726,-504.970611,3496.662199,0.010188,-0.021687,1.003125,192.000000,0.000000,40.000000,127.500000,40.000000,15.500000,48.000000,0.000000,0.000000,0.000000,1769524005.010524,0.000000
174.000000,15359.470589,14308.849193,3315.210738,-3290.176784,6266.222151,-10324.740151,623.658374,-17994.875371,12565.234311,11216.954734,-9030.060056,670.686444,21510.111870,12525.045875,-427.477113,3543.578511,0.010188,-0.021687,1.003125,192.000000,0.000000,0.000000,0.000000,0.000000,0.000000,0.000000,0.000000,0.000000,0.000000,1769524005.010536,0.000000
176.000000,15379.408345,14328.317562,3272.943589,-3336.154322,6278.649721,-10347.874206,581.614742,-18049.123055,12663.179655,11195.832335,-9113.476767,607.185138,21475.868997,12477.414307,-499.986172,3497.220993,0.010188,-0.021687,1.003125,192.000000,0.000000,0.000000,0.000000,0.000000,0.000000,0.000000,0.000000,0.000000,0.000000,1769524005.010548,0.000000
178.000000,15382.939921,14329.122225,3347.799581,-3257.900865,6286.852811,-10304.936505,655.554313,-17951.535338,12625.807539,11220.486310,-9053.439981,654.593188,21509.038986,12519.949677,-450.968796,3528.669897,0.010188,-0.021687,1.003125,192.000000,0.000000,0.000000,0.000000,0.000000,0.000000,0.000000,0.000000,0.000000,0.000000,1769524005.010560,0.000000
180.000000,15383.789287,14310.816146,3276.162240,-3334.410886,6268.278512,-10349.617642,582.374702,-18046.194976,12599.343073,11206.717635,-9062.760659,642.769115,21502.512276,12506.404520,-457.227285,3526.278261,0.010188,-0.021687,1.003125,192.000000,0.000000,0.000000,0.000000,0.000000,0.000000,0.000000,0.000000,0.000000,0.000000,1769524005.010572,0.000000
182.000000,15386.136220,14341.393333,3326.096037,-3285.169993,6295.122957,-10322.661438,630.855636,-17980.212626,12691.521667,11199.140394,-9116.918935,608.839167,21490.732907,12477.101383,-499.516785,3494.471728,0.008094,-0.021844,1.006563,192.000000,0.000000,24.000000,127.500000,40.000000,15.500000,72.000000,0.000000,0.000000,0.000000,1769524005.010584,0.000000
184.000000,15358.621223,14308.245696,3320.016363,-3290.489708,6274.000558,-10322.527328,624.977127,-17992.148458,12575.270245,11219.592240,-9018.437149,678.554258,21524.662855,12533.271317,-425.711325,3540.985708,0.008094,-0.021844,1.006563,192.000000,0.000000,0.000000,0.000000,0.000000,0.000000,0.000000,0.000000,0.000000,0.000000,1769524005.010596,0.000000
186.000000,15380.324767,14322.371998,3271.691891,-3341.429334,6281.957779,-10356.636090,576.116213,-18055.850930,12662.620862,11183.851800,-9115.354313,600.569022,21484.072087,12472.966310,-494.666457,3499.210298,0.008094,-0.021844,1.006563,192.000000,0.000000,0.000000,0.000000,0.000000,0.000000,0.000000,0.000000,0.000000,0.000000,1769524005.010609,0.000000
188.000000,15367.964252,14319.041588,3344.893854,-3263.511153,6282.091890,-10313.921906,649.698156,-17958.017344,12627.461568,11212.171461,-9057.642109,644.736069,21516.817393,12510.047854,-449.538284,3526.971165,0.008094,-0.021844,1.006563,192.000000,0.000000,0.000000,0.000000,0.000000,0.000000,0.000000,0.000000,0.000000,0.000000,1769524005.010622,0.000000
190.000000,15366.936072,14310.100890,3277.413938,-3335.439066,6274.827573,-10351.316375,581.167708,-18044.809168,12600.237143,11203.364873,-9059.072621,643.059688,21520.125451,12502.627075,-453.114564,3523.216072,0.008094,-0.021844,1.006563,192.000000,0.000000,0.000000,0.000000,0.000000,0.000000,0.000000,0.000000,0.000000,0.000000,1769524005.010634,0.000000
192.000000,15394.339310,14344.567280,3321.692744,-3285.818194,6297.760462,-10321.387389,628.821627,-17980.927882,12698.093080,11204.527164,-9113.409712,609.844996,21492.163419,12482.666967,-498.175680,3492.929458,0.006047,-0.022922,1.008281,192.000000,0.000000,16.000000,127.500000,32.000000,15.500000,72.000000,0.000000,0.000000,0.000000,1769524005.010646,0.000000
194.000000,15362.398668,14312.157251,3317.870595,-3293.708359,6274.671110,-10326.863566,622.496083,-17991.500257,12573.906788,11220.709827,-9024.159196,674.977979,21518.627884,12528.979782,-422.291508,3541.119819,0.006047,-0.022922,1.008281,192.000000,0.000000,0.000000,0.000000,0.000000,0.000000,0.000000,0.000000,0.000000,0.000000,1769524005.490976,0.000000
196.000000,15390.740680,14331.245641,3274.932894,-3336.802523,6285.221134,-10350.645822,579.781899,-18047.714895,12665.839513,11196.569943,-9111.040427,609.241499,21481.926320,12482.309339,-492.051302,3492.884754,0.006047,-0.022922,1.008281,192.000000,0.000000,0.000000,0.000000,0.000000,0.000000,0.000000,0.000000,0.000000,0.000000,1769524005.491032,0.000000
198.000000,15381.710575,14332.072655,3345.497351,-3258.034975,6284.707044,-10303.327179,651.307482,-17950.685972,12630.680219,11224.643734,-9058.044441,655.487258,21516.146841,12517.736854,-445.246750,3527.485255,0.006047,-0.022922,1.008281,192.000000,0.000000,0.000000,0.000000,0.000000,0.000000,0.000000,0.000000,0.000000,0.000000,1769524005.491079,0.000000
200.000000,15362.376316,14316.873469,3274.709377,-3329.292337,6270.401927,-10341.727476,582.329998,-18038.304810,12601.310027,11212.327923,-9058.044441,656.314272,21510.961236,12513.624133,-453.651005,3524.959508,0.006047,-0.022922,1.008281,192.000000,0.000000,0.000000,0.000000,0.000000,0.000000,0.000000,0.000000,0.000000,0.000000,1769524005.491121,0.000000
202.000000,15386.136220,14342.846196,3318.965831,-3286.198173,6290.943180,-10321.029761,626.564101,-17980.704365,12690.471135,11212.439682,-9115.734293,611.811949,21488.765954,12484.700976,-502.422512,3494.829356,0.006047,-0.022922,1.008281,192.000000,0.000000,0.000000,0.000000,0.000000,0.000000,0.000000,0.000000,0.000000,0.000000,1769524005.491163,0.000000
204.000000,15372.792229,14320.941486,3317.647078,-3288.209830,6268.233808,-10317.051150,624.977127,-17983.565388,12574.309119,11228.510586,-9020.359399,679.537735,21521.555963,12540.312116,-431.411020,3546.171313,0.006000,-0.022000,1.010000,192.000000,0.000000,24.000000,127.500000,40.000000,15.500000,72.000000,0.000000,0.000000,0.000000,1769524005.491206,0.000000
206.000000,15376.346156,14331.111530,3274.038824,-3338.613014,6283.768270,-10351.495189,580.273638,-18044.876223,12669.415792,11203.431929,-9105.787767,612.638964,21489.660023,12487.561999,-498.533308,3491.700112,0.006000,-0.022000,1.010000,192.000000,0.000000,0.000000,0.000000,0.000000,0.000000,0.000000,0.000000,0.000000,0.000000,1769524005.491232,0.000000
208.000000,15365.863188,14319.533327,3345.139723,-3260.985406,6283.120070,-10317.453482,651.687461,-17954.642231,12627.752140,11224.576679,-9055.138714,650.905150,21515.722157,12518.318000,-448.219532,3522.992554,0.006000,-0.022000,1.010000,192.000000,0.000000,0.000000,0.000000,0.000000,0.000000,0.000000,0.000000,0.000000,0.000000,1769524005.491242,0.000000
210.000000,15346.908909,14299.372053,3272.787127,-3339.887063,6267.160924,-10358.893616,576.920876,-18052.587575,12583.830963,11200.839126,-9068.259188,640.735107,21493.079840,12503.364683,-446.364337,3523.283127,0.006000,-0.022000,1.010000,192.000000,0.000000,0.000000,0.000000,0.000000,0.000000,0.000000,0.000000,0.000000,0.000000,1769524005.491253,0.000000
212.000000,15373.283967,14330.150405,3321.916261,-3292.747234,6294.586515,-10334.440808,625.044182,-17988.594531,12678.356490,11198.335731,-9124.317363,596.635115,21480.875788,12474.441525,-493.526518,3487.565039,0.006000,-0.022000,1.010000,192.000000,0.000000,0.000000,0.000000,0.000000,0.000000,0.000000,0.000000,0.000000,0.000000,1769524005.491264,0.000000
214.000000,15360.275252,14300.132012,3316.998877,-3296.345865,6269.396099,-10335.021953,622.674897,-17995.344757,12559.601672,11214.876022,-9032.027010,669.993540,21518.225553,12522.520128,-418.469360,3537.565891,0.010000,-0.022000,1.014000,192.000000,0.000000,40.000000,127.500000,40.000000,15.500000,88.000000,0.000000,0.000000,0.000000,1769524005.491275,0.000000
216.000000,15371.540531,14319.533327,3272.809478,-3341.116409,6285.176430,-10353.819770,580.005417,-18054.398066,12656.876464,11187.137507,-9117.656543,604.748798,21476.494846,12473.078069,-490.821956,3492.013036,0.010000,-0.022000,1.014000,192.000000,0.000000,0.000000,0.000000,0.000000,0.000000,0.000000,0.000000,0.000000,0.000000,1769524005.491286,0.000000
218.000000,15367.271348,14326.887050,3347.173732,-3261.119516,6291.077291,-10310.077406,653.721470,-17959.313745,12624.265268,11219.078150,-9061.330147,644.669014,21517.331483,12513.199450,-446.587854,3526.904109,0.010000,-0.022000,1.014000,192.000000,0.000000,0.000000,0.000000,0.000000,0.000000,0.000000,0.000000,0.000000,0.000000,1769524005.491303,0.000000
220.000000,15352.787418,14305.161155,3277.190420,-3331.482808,6276.459250,-10341.168683,584.319304,-18049.771255,12592.369329,11208.192850,-9064.079412,642.031508,21507.429660,12510.360779,-452.086383,3528.915766,0.010000,-0.022000,1.014000,192.000000,0.000000,0.000000,0.000000,0.000000,0.000000,0.000000,0.000000,0.000000,0.000000,1769524005.491314,0.000000
222.000000,15391.567694,14338.554661,3325.738409,-3285.125290,6305.181242,-10317.967572,630.542711,-17987.275778,12690.851115,11206.583525,-9120.115235,604.301763,21497.706651,12484.924493,-496.566355,3497.220993,0.010000,-0.022000,1.014000,192.000000,0.000000,0.000000,0.000000,0.000000,0.000000,0.000000,0.000000,0.000000,0.000000,1769524005.491324,0.000000
224.000000,15360.476418,14305.608190,3318.161168,-3290.757929,6273.866448,-10324.293116,623.099580,-17995.255351,12571.537503,11225.984839,-9028.897766,675.112090,21517.733814,12535.104160,-419.296374,3544.584339,0.006000,-0.024000,1.010000,192.000000,0.000000,24.000000,127.500000,32.000000,15.500000,72.000000,0.000000,0.000000,0.000000,1769524005.491335,0.000000
226.000000,15390.673624,14323.735455,3272.004816,-3340.222340,6286.115204,-10349.170607,578.418443,-18053.034610,12655.043620,11201.107347,-9116.516604,604.458225,21475.801942,12480.543552,-495.091140,3496.997475,0.006000,-0.024000,1.010000,192.000000,0.000000,0.000000,0.000000,0.000000,0.000000,0.000000,0.000000,0.000000,0.000000,1769524005.491345,0.000000
228.000000,15371.786400,14314.414777,3346.883160,-3261.991234,6289.602076,-10309.093929,655.487258,-17957.525606,12629.316763,11224.174347,-9059.877284,652.112144,21513.419928,12520.217898,-451.393479,3523.417237,0.006000,-0.024000,1.010000,192.000000,0.000000,0.000000,0.000000,0.000000,0.000000,0.000000,0.000000,0.000000,0.000000,1769524005.491356,0.000000
230.000000,15343.444388,14294.275855,3272.362443,-3338.233034,6267.227980,-10351.294023,581.748853,-18056.655593,12586.401413,11198.782766,-9067.365118,640.757458,21497.438430,12503.319979,-455.975587,3522.344353,0.006000,-0.024000,1.010000,192.000000,0.000000,0.000000,0.000000,0.000000,0.000000,0.000000,0.000000,0.000000,0.000000,1769524005.491367,0.000000
232.000000,15377.687261,14324.048379,3319.144645,-3291.540240,6296.978151,-10326.304773,626.050010,-17997.736394,12675.875446,11191.943132,-9131.089941,592.187118,21483.133314,12472.519275,-495.940506,3492.862403,0.006000,-0.024000,1.010000,192.000000,0.000000,0.000000,0.000000,0.000000,0.000000,0.000000,0.000000,0.000000,0.000000,1769524005.491414,0.000000
234.000000,15348.071199,14295.080518,3314.786054,-3294.065987,6271.854791,-10329.434017,622.250214,-18001.044452,12557.098276,11217.133548,-9034.530405,666.841944,21522.226515,12527.482215,-421.978584,3544.271415,0.004000,-0.018000,1.010000,192.000000,0.000000,16.000000,127.500000,56.000000,15.500000,72.000000,0.000000,0.000000,0.000000,1769524005.491425,0.000000
236.000000,15377.351985,14315.264143,3269.300254,-3342.658680,6281.868372,-10357.530160,576.138565,-18061.215348,12648.539263,11186.556362,-9122.037485,598.557365,21476.561901,12472.027537,-490.710198,3499.187946,0.004000,-0.018000,1.010000,192.000000,0.000000,0.000000,0.000000,0.000000,0.000000,0.000000,0.000000,0.000000,0.000000,1769524005.491435,0.000000
238.000000,15380.592988,14317.119338,3345.430296,-3260.963054,6288.216268,-10314.905383,652.469772,-17961.683030,12625.338152,11219.927516,-9067.208656,642.791467,21504.680396,12512.014808,-442.944520,3528.491083,0.004000,-0.018000,1.010000,192.000000,0.000000,0.000000,0.000000,0.000000,0.000000,0.000000,0.000000,0.000000,0.000000,1769524005.491446,0.000000
240.000000,15358.509464,14313.878335,3277.950380,-3329.761723,6277.800355,-10343.739133,584.520469,-18048.027819,12591.810535,11205.085958,-9066.158124,645.116048,21496.119678,12512.528898,-447.303110,3526.859406,0.004000,-0.018000,1.010000,192.000000,0.000000,0.000000,0.000000,0.000000,0.000000,0.000000,0.000000,0.000000,0.000000,1769524005.491457,0.000000
242.000000,15382.738755,14338.286440,3320.373991,-3286.622856,6299.794471,-10328.607002,627.167598,-17994.048356,12684.950255,11206.337655,-9118.729427,605.396999,21485.681413,12485.706804,-491.827785,3493.912935,0.004000,-0.018000,1.010000,192.000000,0.000000,0.000000,0.000000,0.000000,0.000000,0.000000,0.000000,0.000000,0.000000,1769524005.491467,0.000000
244.000000,15359.582348,14306.234039,3320.105770,-3286.153470,6280.728433,-10324.874261,625.580624,-17995.836496,12561.210997,11221.492138,-9031.267051,670.150002,21517.800870,12531.840805,-418.424656,3547.624176,0.006000,-0.020000,1.008000,192.000000,0.000000,24.000000,127.500000,48.000000,15.500000,64.000000,0.000000,0.000000,0.000000,1769524005.491477,0.000000
246.000000,15378.491924,14329.435149,3274.932894,-3335.573177,6298.363960,-10349.796456,578.820774,-18053.660459,12660.296280,11200.705016,-9112.314476,610.023810,21489.324747,12484.253941,-490.732550,3501.311362,0.006000,-0.020000,1.008000,192.000000,0.000000,0.000000,0.000000,0.000000,0.000000,0.000000,0.000000,0.000000,0.000000,1769524005.491488,0.000000
248.000000,15383.722232,14327.021161,3350.794715,-3255.196304,6300.777948,-10302.589572,656.157810,-17953.681106,12632.334248,11227.527109,-9055.473990,648.692328,21518.136146,12520.106139,-441.893988,3531.821493,0.006000,-0.020000,1.008000,192.000000,0.000000,0.000000,0.000000,0.000000,0.000000,0.000000,0.000000,0.000000,0.000000,1769524005.491499,0.000000
250.000000,15366.757258,14308.111585,3277.995083,-3328.822950,6280.236695,-10345.750790,586.532126,-18047.938412,12599.454832,11206.963504,-9058.513827,647.865313,21506.289721,12511.701883,-447.169000,3526.904109,0.006000,-0.020000,1.008000,192.000000,0.000000,0.000000,0.000000,0.000000,0.000000,0.000000,0.000000,0.000000,0.000000,1769524005.491511,0.000000
252.000000,15385.555075,14336.230080,3318.675258,-3284.700606,6295.614695,-10330.953935,629.782752,-17992.841362,12686.648987,11200.973237,-9120.182290,600.636077,21487.871884,12480.364738,-501.394332,3492.527126,0.006000,-0.020000,1.008000,192.000000,0.000000,0.000000,0.000000,0.000000,0.000000,0.000000,0.000000,0.000000,0.000000,1769524005.491522,0.000000
254.000000,15362.152798,14310.324408,3320.888081,-3284.387682,6272.212419,-10331.199805,630.632118,-17991.008519,12565.189608,11223.973182,-9027.154330,673.256895,21519.432547,12529.605631,-426.515988,3537.364726,0.008000,-0.022000,1.008000,192.000000,0.000000,32.000000,127.500000,40.000000,15.500000,64.000000,0.000000,0.000000,0.000000,1769524005.491532,0.000000
0.000000,15368.903025,14325.992981,3270.842525,-3335.193197,6286.651645,-10355.384392,581.368873,-18054.688639,12654.551882,11196.681702,-9113.499119,610.493196,21484.809695,12481.907008,-493.057131,3491.633057,0.008000,-0.022000,1.008000,192.000000,0.000000,0.000000,0.000000,0.000000,0.000000,0.000000,0.000000,0.000000,0.000000,1769524005.491543,0.000000
2.000000,15382.984624,14325.344780,3345.832628,-3258.772583,6293.759500,-10313.385464,655.621368,-17957.503254,12625.896946,11224.397865,-9062.984176,647.462982,21513.688149,12518.295648,-453.941578,3520.667973,0.008000,-0.022000,1.008000,192.000000,0.000000,0.000000,0.000000,0.000000,0.000000,0.000000,0.000000,0.000000,0.000000,1769524005.491554,0.000000
4.000000,15361.392839,14312.894858,3278.106842,-3327.817121,6277.621541,-10344.364982,586.465071,-18046.351438,12589.195381,11211.389150,-9062.827714,647.217112,21502.936960,12514.808776,-455.685014,3519.349220,0.008000,-0.022000,1.008000,192.000000,0.000000,0.000000,0.000000,0.000000,0.000000,0.000000,0.000000,0.000000,0.000000,1769524005.491564,0.000000
6.000000,15384.750412,14336.811225,3318.652906,-3284.655903,6299.950933,-10326.707104,628.173426,-17993.668377,12690.717005,11212.551440,-9117.924764,602.759493,21497.997224,12489.730118,-498.108625,3487.363873,0.008000,-0.022000,1.008000,192.000000,0.000000,0.000000,0.000000,0.000000,0.000000,0.000000,0.000000,0.000000,0.000000,1769524005.491575,0.000000
8.000000,15356.318993,14317.231097,3317.088284,-3280.990217,6278.292093,-10320.538023,627.726391,-17991.254388,12565.949567,11227.661220,-9027.847234,674.575648,21538.923268,12537.205224,-421.285679,3542.192703,0.006000,-0.020000,1.010000,192.000000,0.000000,24.000000,127.500000,48.000000,15.500000,72.000000,0.000000,0.000000,0.000000,1769524005.491585,0.000000
10.000000,15387.387918,14341.885071,3272.384795,-3329.649965,6292.016064,-10341.526311,580.921838,-18049.614793,12659.245748,11204.840088,-9112.582697,614.292993,21489.861189,12495.094537,-495.269954,3498.070359,0.006000,-0.020000,1.010000,192.000000,0.000000,0.000000,0.000000,0.000000,0.000000,0.000000,0.000000,0.000000,0.000000,1769524005.491596,0.000000
12.000000,15385.353909,14338.733475,3347.441953,-3252.961129,6295.033550,-10303.148365,655.844886,-17950.641269,12634.681181,11240.088789,-9054.021127,660.158772,21522.204163,12534.523014,-454.075689,3523.193720,0.006000,-0.020000,1.010000,192.000000,0.000000,0.000000,0.000000,0.000000,0.000000,0.000000,0.000000,0.000000,0.000000,1769524005.491607,0.000000
14.000000,15364.365621,14315.621771,3279.067967,-3324.173787,6270.893666,-10343.962651,587.582658,-18041.948145,12594.760966,11225.180176,-9054.021127,655.442554,21507.496715,12519.770863,-454.656834,3524.199548,0.006000,-0.020000,1.010000,192.000000,0.000000,0.000000,0.000000,0.000000,0.000000,0.000000,0.000000,0.000000,0.000000,1769524005.491617,0.000000
16.000000,15392.372357,14347.160083,3319.770493,-3281.481955,6299.928582,-10320.023932,629.492179,-17988.371013,12691.499316,11218.497004,-9117.343619,612.013115,21491.671680,12492.233514,-499.717951,3496.505737,0.006000,-0.020000,1.010000,192.000000,0.000000,0.000000,0.000000,0.000000,0.000000,0.000000,0.000000,0.000000,0.000000,1769524005.491628,0.000000
18.000000,15362.443371,14307.686902,3317.110636,-3278.285656,6274.402890,-10319.308677,629.402772,-17987.476943,12572.185704,11234.947888,-9020.918193,682.197593,21527.076844,12543.307250,-422.604432,3545.277243,0.007000,-0.021000,1.011000,192.000000,0.000000,32.000000,127.500000,40.000000,15.500000,80.000000,0.000000,0.000000,0.000000,1769524005.491639,0.000000
20.000000,15374.356851,14325.769463,3270.551952,-3331.952194,6285.779927,-10351.361078,580.944190,-18049.748903,12658.865769,11204.504812,-9111.196889,617.198720,21478.528855,12488.925456,-497.169852,3500.998438,0.007000,-0.021000,1.011000,192.000000,0.000000,0.000000,0.000000,0.000000,0.000000,0.000000,0.000000,0.000000,0.000000,1769524005.491649,0.000000
22.000000,15379.475400,14331.849138,3349.006575,-3250.882417,6286.741052,-10305.092967,658.460040,-17945.835644,12622.119501,11233.942060,-9054.803438,657.275397,21511.072995,12529.493872,-451.818162,3523.573699,0.007000,-0.021000,1.011000,192.000000,0.000000,0.000000,0.000000,0.000000,0.000000,0.000000,0.000000,0.000000,0.000000,1769524005.491660,0.000000
24.000000,15357.883615,14309.318579,3275.491688,-3324.218491,6267.429145,-10348.030668,586.465071,-18042.149310,12582.378099,11215.010132,-9056.099839,655.219037,21503.786326,12520.799043,-454.835648,3524.020734,0.007000,-0.021000,1.011000,192.000000,0.000000,0.000000,0.000000,0.000000,0.000000,0.000000,0.000000,0.000000,0.000000,1769524005.491670,0.000000
26.000000,15372.054621,14339.985173,3314.450778,-3281.481955,6287.679826,-10325.410703,627.569929,-17990.136801,12675.964853,11211.858536,-9122.484520,612.057818,21483.602701,12490.780650,-505.350590,3494.270562,0.007000,-0.021000,1.011000,192.000000,0.000000,0.000000,0.000000,0.000000,0.000000,0.000000,0.000000,0.000000,0.000000,1769524005.491682,0.000000
28.000000,15347.355944,14305.518783,3313.310839,-3284.275923,6264.769288,-10328.562299,625.670031,-17994.361281,12552.180892,11228.868214,-9029.769484,676.475546,21513.643445,12538.859253,-427.678278,3547.467714,0.008500,-0.020500,1.012500,192.000000,0.000000,40.000000,127.500000,48.000000,15.500000,88.000000,0.000000,0.000000,0.000000,1769524005.491693,0.000000
30.000000,15371.607586,14323.646048,3269.948455,-3336.713116,6279.677901,-10357.105477,578.977237,-18052.922851,12640.358524,11199.162745,-9115.868403,608.839167,21477.947709,12483.158706,-494.308829,3497.936249,0.008500,-0.020500,1.012500,192.000000,0.000000,0.000000,0.000000,0.000000,0.000000,0.000000,0.000000,0.000000,0.000000,1769524005.491704,0.000000
32.000000,15373.596892,14326.574126,3347.374898,-3258.258493,6285.824631,-10309.518613,654.816706,-17951.289469,12620.621934,11220.016923,-9057.217426,652.872104,21512.637617,12520.642581,-450.320596,3525.630060,0.008500,-0.020500,1.012500,192.000000,0.000000,0.000000,0.000000,0.000000,0.000000,0.000000,0.000000,0.000000,0.000000,1769524005.491714,0.000000
34.000000,15365.349098,14316.806414,3278.732691,-3329.851130,6273.307654,-10343.761485,586.062740,-18039.958839,12581.349919,11211.836184,-9055.362231,653.855581,21502.981663,12514.585258,-448.443049,3529.988650,0.008500,-0.020500,1.012500,192.000000,0.000000,0.000000,0.000000,0.000000,0.000000,0.000000,0.000000,0.000000,0.000000,1769524005.491724,0.000000
36.000000,15401.983607,14349.641126,3322.944441,-3283.672426,6304.242468,-10319.711008,629.916862,-17984.057127,12685.687862,11214.428987,-9112.605049,609.375609,21492.833971,12490.691243,-501.595497,3499.433815,0.008500,-0.020500,1.012500,192.000000,0.000000,0.000000,0.000000,0.000000,0.000000,0.000000,0.000000,0.000000,0.000000,1769524005.491735,0.000000
38.000000,15363.963290,14312.313713,3325.045505,-3280.342016,6283.008311,-10318.660476,632.375554,-17985.442935,12569.011756,11230.969278,-9018.906536,676.900229,21532.620076,12542.077904,-420.145741,3546.618348,0.011250,-0.020250,1.013250,192.000000,0.000000,56.000000,127.500000,48.000000,15.500000,88.000000,0.000000,0.000000,0.000000,1769524005.491746,0.000000
40.000000,15384.303377,14330.642144,3275.849316,-3331.527511,6288.216268,-10345.862549,583.939324,-18049.905366,12663.470228,11204.303647,-9104.558421,614.404752,21498.488962,12495.496869,-492.230116,3498.964429,0.011250,-0.020250,1.013250,192.000000,0.000000,0.000000,0.000000,0.000000,0.000000,0.000000,0.000000,0.000000,0.000000,1769524005.491756,0.000000
42.000000,15380.950616,14330.463330,3351.912302,-3251.776487,6296.128785,-10308.266915,658.549447,-17949.098998,12630.926088,11231.796292,-9055.719859,650.145191,21515.141012,12527.571622,-454.992110,3528.558138,0.011250,-0.020250,1.013250,192.000000,0.000000,0.000000,0.000000,0.000000,0.000000,0.000000,0.000000,0.000000,0.000000,1769524005.491767,0.000000
44.000000,15385.018633,14316.717007,3286.175822,-3324.419656,6281.287227,-10341.101627,588.186155,-18037.746017,12593.822192,11221.715656,-9052.009470,655.688424,21496.678471,12523.794177,-445.023232,3524.177197,0.011250,-0.020250,1.013250,192.000000,0.000000,0.000000,0.000000,0.000000,0.000000,0.000000,0.000000,0.000000,0.000000,1769524005.491791,0.000000
46.000000,15389.176057,14349.216443,3326.855996,-3285.572324,6305.762387,-10324.851909,628.642813,-17985.532342,12691.856944,11214.160766,-9111.800386,607.140435,21489.794134,12488.165496,-492.140709,3490.448414,0.011250,-0.020250,1.013250,192.000000,0.000000,0.000000,0.000000,0.000000,0.000000,0.000000,0.000000,0.000000,0.000000,1769524005.491801,0.000000
48.000000,15354.575557,14314.705350,3326.185444,-3283.828888,6275.364015,-10328.651706,629.313365,-17986.359356,12569.659957,11231.997458,-9015.598478,682.443462,21517.063262,12538.725142,-418.178787,3544.003194,0.013625,-0.020125,1.009625,192.000000,0.000000,64.000000,127.500000,48.000000,15.500000,56.000000,0.000000,0.000000,0.000000,1769524005.491812,0.000000
50.000000,15375.049755,14327.736417,3276.296351,-3336.489598,6282.762442,-10356.859607,580.586562,-18053.436941,12658.239920,11199.699187,-9108.626438,612.147225,21472.292718,12479.470668,-490.821956,3498.204469,0.013625,-0.020125,1.009625,192.000000,0.000000,0.000000,0.000000,0.000000,0.000000,0.000000,0.000000,0.000000,0.000000,1769524005.491822,0.000000
52.000000,15376.368508,14322.461405,3349.520665,-3258.951397,6285.712872,-10313.184299,653.922636,-17959.447856,12629.428521,11223.839071,-9057.150371,644.333737,21502.042890,12513.847651,-450.141782,3528.424028,0.013625,-0.020125,1.009625,192.000000,0.000000,0.000000,0.000000,0.000000,0.000000,0.000000,0.000000,0.000000,0.000000,1769524005.491833,0.000000
54.000000,15360.722287,14309.877373,3283.225391,-3329.001764,6276.772174,-10343.806189,586.330961,-18047.871357,12589.240085,11209.399844,-9058.625586,643.082040,21490.755259,12509.511412,-441.961043,3528.356973,0.013625,-0.020125,1.009625,192.000000,0.000000,0.000000,0.000000,0.000000,0.000000,0.000000,0.000000,0.000000,0.000000,1769524005.491844,0.000000
56.000000,15377.083764,14342.175644,3322.676220,-3288.880383,6299.414492,-10328.182319,626.027659,-17995.009481,12685.441993,11210.025693,-9121.366933,599.518490,21477.120695,12482.152877,-496.409893,3498.338580,0.013625,-0.020125,1.009625,192.000000,0.000000,0.000000,0.000000,0.000000,0.000000,0.000000,0.000000,0.000000,0.000000,1769524005.491855,0.000000
58.000000,15355.447275,14319.510975,3326.990107,-3285.527621,6282.382462,-10325.231889,630.162731,-17988.214551,12569.168218,11230.678705,-9025.679115,674.083909,21520.974817,12534.523014,-416.480054,3547.288900,0.011813,-0.023062,1.007812,192.000000,0.000000,40.000000,127.500000,24.000000,15.500000,56.000000,0.000000,0.000000,0.000000,1769524005.971777,0.000000
60.000000,15378.536627,14330.731551,3275.938723,-3339.462380,6289.512669,-10353.909177,579.312513,-18053.772217,12660.184522,11203.834260,-9110.191060,612.638964,21476.360735,12483.225761,-485.859869,3500.149071,0.011813,-0.023062,1.007812,192.000000,0.000000,0.000000,0.000000,0.000000,0.000000,0.000000,0.000000,0.000000,0.000000,1769524005.971862,0.000000
62.000000,15396.865058,14341.125112,3353.320462,-3257.967920,6302.297867,-10310.524441,655.777831,-17954.955155,12634.211795,11228.689400,-9059.586711,650.659281,21510.402442,12519.010904,-449.873561,3526.010040,0.011813,-0.023062,1.007812,192.000000,0.000000,0.000000,0.000000,0.000000,0.000000,0.000000,0.000000,0.000000,0.000000,1769524005.971933,0.000000
64.000000,15374.401554,14325.769463,3289.975618,-3324.442008,6291.099643,-10340.766351,592.053007,-18037.120168,12594.515096,11217.692342,-9055.809266,652.693290,21502.825201,12515.076997,-436.395459,3523.260775,0.011813,-0.023062,1.007812,192.000000,0.000000,0.000000,0.000000,0.000000,0.000000,0.000000,0.000000,0.000000,0.000000,1769524005.972001,0.000000
66.000000,15395.993340,14349.305850,3324.419656,-3285.102938,6309.361018,-10324.181357,630.073324,-17987.253426,12702.541077,11216.038312,-9108.559383,615.231766,21495.918512,12487.159668,-495.851099,3492.080091,0.011813,-0.023062,1.007812,192.000000,0.000000,0.000000,0.000000,0.000000,0.000000,0.000000,0.000000,0.000000,0.000000,1769524005.972034,0.000000
68.000000,15353.703839,14314.638295,3324.821988,-3282.510135,6283.321236,-10322.259107,631.950871,-17988.639234,12575.739631,11227.460054,-9020.202937,680.878840,21527.881506,12533.316020,-421.755066,3544.763153,0.007906,-0.022531,1.006906,192.000000,0.000000,16.000000,127.500000,40.000000,15.500000,56.000000,0.000000,0.000000,0.000000,1769524005.972061,0.000000
70.000000,15375.586197,14324.785987,3269.948455,-3336.444895,6286.539887,-10353.640956,580.743024,-18058.376677,12659.491618,11195.675873,-9112.873270,611.811949,21479.847608,12480.588255,-489.436148,3500.864327,0.007906,-0.022531,1.006906,192.000000,0.000000,0.000000,0.000000,0.000000,0.000000,0.000000,0.000000,0.000000,0.000000,1769524005.972086,0.000000
72.000000,15362.219854,14322.774330,3348.939520,-3255.218655,6294.430053,-10308.646895,657.767136,-17957.682068,12634.010629,11223.950830,-9062.872417,649.608749,21505.418003,12516.015770,-452.309901,3527.529958,0.007906,-0.022531,1.006906,192.000000,0.000000,0.000000,0.000000,0.000000,0.000000,0.000000,0.000000,0.000000,0.000000,1769524005.972111,0.000000
74.000000,15357.973022,14308.156289,3280.163202,-3326.520720,6274.648759,-10345.013183,589.951943,-18046.574956,12586.423765,11207.209373,-9058.312661,651.843924,21498.108983,12514.652314,-449.940616,3532.581452,0.007906,-0.022531,1.006906,192.000000,0.000000,0.000000,0.000000,0.000000,0.000000,0.000000,0.000000,0.000000,0.000000,1769524005.972136,0.000000
76.000000,15388.170229,14341.393333,3321.156302,-3286.511098,6297.469890,-10326.684752,630.408601,-17993.176638,12687.252484,11198.872173,-9121.255174,609.085036,21478.372392,12481.437621,-501.528442,3501.490176,0.007906,-0.022531,1.006906,192.000000,0.000000,0.000000,0.000000,0.000000,0.000000,0.000000,0.000000,0.000000,0.000000,1769524005.972160,0.000000
78.000000,15371.160551,14315.733530,3325.179616,-3280.677292,6276.906285,-10322.348514,633.023755,-17984.682975,12566.933044,11226.118949,-9021.566394,683.493994,21513.598742,12534.523014,-418.469360,3547.445363,0.007953,-0.021266,1.004453,192.000000,0.000000,32.000000,127.500000,48.000000,15.500000,40.000000,0.000000,0.000000,0.000000,1769524005.972185,0.000000
80.000000,15379.095421,14336.945336,3279.693816,-3335.282604,6291.099643,-10353.015107,585.638056,-18044.965630,12649.679202,11203.722501,-9105.005456,623.188987,21476.360735,12485.930322,-485.904573,3504.619420,0.007953,-0.021266,1.004453,192.000000,0.000000,0.000000,0.000000,0.000000,0.000000,0.000000,0.000000,0.000000,0.000000,1769524005.972210,0.000000
82.000000,15370.311185,14342.086237,3355.712099,-3258.549065,6295.435881,-10313.094892,661.388118,-17945.500367,12634.859995,11232.623307,-9049.796647,661.254008,21506.624997,12523.369494,-445.492619,3527.351144,0.007953,-0.021266,1.004453,192.000000,0.000000,0.000000,0.000000,0.000000,0.000000,0.000000,0.000000,0.000000,0.000000,1769524005.972235,0.000000
84.000000,15366.846665,14320.136824,3288.880383,-3328.666488,6280.594323,-10345.415514,595.673990,-18031.308714,12592.302274,11216.462996,-9044.007545,659.421165,21500.187695,12514.965238,-433.087401,3528.133455,0.007953,-0.021266,1.004453,192.000000,0.000000,0.000000,0.000000,0.000000,0.000000,0.000000,0.000000,0.000000,0.000000,1769524005.972260,0.000000
86.000000,15394.205200,14348.344725,3325.559595,-3286.779319,6304.622448,-10324.024895,634.834246,-17981.486676,12696.215534,11209.712769,-9105.944229,616.595223,21490.107058,12489.126621,-498.980343,3499.702036,0.007953,-0.021266,1.004453,192.000000,0.000000,0.000000,0.000000,0.000000,0.000000,0.000000,0.000000,0.000000,0.000000,1769524005.972285,0.000000
88.000000,15375.317976,14322.170832,3329.560558,-3280.967865,6286.718701,-10322.639087,639.036374,-17976.681051,12578.041861,11229.494063,-9016.380789,688.299619,21519.879582,12540.937965,-416.569461,3545.299595,0.007953,-0.021266,1.004453,192.000000,0.000000,0.000000,0.000000,0.000000,0.000000,0.000000,0.000000,0.000000,0.000000,1769524005.972310,0.000000
90.000000,15387.700842,14341.773312,3275.446984,-3333.628575,6297.469890,-10340.632241,585.705112,-18044.116264,12672.008595,11206.002379,-9101.138604,632.733182,21488.229512,12498.447299,-489.167927,3503.770054,0.010000,-0.022000,1.010000,192.000000,0.000000,40.000000,127.500000,40.000000,15.500000,72.000000,0.000000,0.000000,0.000000,1769524005.972344,0.000000
92.000000,15375.943825,14338.353495,3348.447782,-3250.748307,6302.521384,-10300.689674,661.991616,-17945.925050,12642.057257,11234.277336,-9055.205769,661.499877,21512.123527,12526.364628,-446.565502,3531.575624,0.010000,-0.022000,1.010000,192.000000,0.000000,0.000000,0.000000,0.000000,0.000000,0.000000,0.000000,0.000000,0.000000,1769524005.972369,0.000000
94.000000,15371.138200,14318.907478,3278.486821,-3321.692744,6279.119108,-10342.420380,594.914030,-18034.236793,12594.492745,11219.927516,-9047.650879,670.261761,21500.321806,12522.944811,-445.470267,3535.800104,0.010000,-0.022000,1.010000,192.000000,0.000000,0.000000,0.000000,0.000000,0.000000,0.000000,0.000000,0.000000,0.000000,1769524005.972397,0.000000
96.000000,15381.196485,14345.573109,3315.858938,-3282.443080,6300.688541,-10327.668229,633.135513,-17983.587740,12696.036720,11203.074301,-9112.672104,616.595223,21477.835951,12482.957540,-500.008523,3499.500871,0.010000,-0.022000,1.010000,192.000000,0.000000,0.000000,0.000000,0.000000,0.000000,0.000000,0.000000,0.000000,0.000000,1769524005.972430,0.000000
98.000000,15379.877732,14327.557603,3325.023153,-3272.340092,6282.471869,-10313.787796,639.706926,-17972.456571,12578.243027,11236.870138,-9009.183527,692.859375,21520.952466,12544.044858,-426.940671,3554.553217,0.010000,-0.022000,1.010000,192.000000,0.000000,0.000000,0.000000,0.000000,0.000000,0.000000,0.000000,0.000000,0.000000,1769524005.972463,0.000000
100.000000,15384.325729,14341.862719,3275.983426,-3330.566386,6293.401872,-10348.768276,586.733292,-18042.998677,12663.269062,11207.946981,-9095.103633,629.156903,21487.335442,12495.787441,-489.302038,3509.939135,0.010000,-0.024000,1.004000,192.000000,0.000000,40.000000,127.500000,32.000000,15.500000,48.000000,0.000000,0.000000,0.000000,1769524005.972515,0.000000
102.000000,15387.343214,14342.309754,3354.572160,-3251.418859,6301.426149,-10301.360226,663.757403,-17943.108731,12643.353658,11229.784635,-9053.194112,659.443517,21516.303303,12524.688247,-445.023232,3534.280185,0.010000,-0.024000,1.004000,192.000000,0.000000,0.000000,0.000000,0.000000,0.000000,0.000000,0.000000,0.000000,0.000000,1769524005.972552,0.000000
104.000000,15378.670738,14333.413760,3287.427519,-3318.854072,6289.780890,-10332.585613,597.149205,-18026.324275,12604.528678,11230.544595,-9042.085295,667.981883,21516.571524,12531.349067,-441.782229,3539.018755,0.010000,-0.024000,1.004000,192.000000,0.000000,0.000000,0.000000,0.000000,0.000000,0.000000,0.000000,0.000000,0.000000,1769524005.972577,0.000000
106.000000,15396.216857,14358.537121,3320.329287,-3282.398377,6309.986867,-10313.385464,633.068458,-17979.564426,12702.496374,11223.034408,-9106.011284,627.145246,21497.438430,12503.342331,-495.001733,3501.758397,0.010000,-0.024000,1.004000,192.000000,0.000000,0.000000,0.000000,0.000000,0.000000,0.000000,0.000000,0.000000,0.000000,1769524005.972600,0.000000
108.000000,15373.216912,14331.156234,3327.146569,-3276.385757,6284.818802,-10312.759616,638.745801,-17974.065897,12583.942721,11242.435723,-9009.407045,695.742750,21523.969951,12554.036087,-419.408133,3555.514342,0.010000,-0.024000,1.004000,192.000000,0.000000,0.000000,0.000000,0.000000,0.000000,0.000000,0.000000,0.000000,0.000000,1769524005.972624,0.000000
110.000000,15392.528819,14346.355420,3277.011606,-3331.192235,6293.893611,-10343.180340,588.879059,-18039.824729,12664.699574,11210.450376,-9093.091976,627.905205,21494.957387,12497.463822,-487.290381,3508.463920,0.012000,-0.026000,1.000000,192.000000,0.000000,48.000000,127.500000,24.000000,15.500000,32.000000,0.000000,0.000000,0.000000,1769524005.972649,0.000000
112.000000,15391.880619,14348.076504,3355.421526,-3250.480086,6301.537907,-10299.683845,667.132517,-17939.398341,12652.808446,11240.602880,-9043.582862,666.350206,21508.457840,12530.656163,-452.823991,3527.865234,0.012000,-0.026000,1.000000,192.000000,0.000000,0.000000,0.000000,0.000000,0.000000,0.000000,0.000000,0.000000,0.000000,1769524005.972673,0.000000
114.000000,15373.149857,14326.149443,3283.873592,-3324.240842,6276.191029,-10343.761485,595.294010,-18036.002581,12599.968922,11215.054836,-9045.840388,659.331758,21496.946692,12519.860270,-444.553845,3534.995441,0.012000,-0.026000,1.000000,192.000000,0.000000,0.000000,0.000000,0.000000,0.000000,0.000000,0.000000,0.000000,0.000000,1769524005.972698,0.000000
116.000000,15412.019540,14361.152275,3326.431313,-3280.051444,6308.377541,-10322.661438,634.923653,-17980.324385,12707.547868,11209.511603,-9114.169671,616.483464,21483.736811,12488.523124,-491.917192,3497.310400,0.012000,-0.026000,1.000000,192.000000,0.000000,0.000000,0.000000,0.000000,0.000000,0.000000,0.000000,0.000000,0.000000,1769524005.972722,0.000000
118.000000,15390.025424,14330.955068,3330.789903,-3267.020377,6288.886820,-10314.972438,641.360955,-17972.657737,12583.719204,11235.640792,-9011.575164,695.809805,21527.322713,12546.525901,-415.876557,3551.714546,0.012000,-0.026000,1.000000,192.000000,0.000000,0.000000,0.000000,0.000000,0.000000,0.000000,0.000000,0.000000,0.000000,1769524005.972748,0.000000
120.000000,15386.695014,14347.070676,3281.057272,-3319.882252,6304.443634,-10336.608927,588.364969,-18039.690618,12670.421621,11215.792443,-9094.209563,639.349298,21497.930169,12504.951656,-483.021198,3514.811816,0.008000,-0.020000,1.004000,192.000000,0.000000,32.000000,127.500000,48.000000,15.500000,48.000000,0.000000,0.000000,0.000000,1769524005.972772,0.000000
122.000000,15382.537589,14358.358307,3359.087212,-3239.214806,6316.982963,-10284.395252,664.807935,-17938.146643,12659.357507,11245.654374,-9043.515807,676.319084,21535.436396,12542.301421,-441.961043,3542.818551,0.008000,-0.020000,1.004000,192.000000,0.000000,0.000000,0.000000,0.000000,0.000000,0.000000,0.000000,0.000000,0.000000,1769524005.972789,0.000000
124.000000,15376.681432,14333.704333,3286.019359,-3318.831720,6289.602076,-10330.417494,592.991780,-18034.907345,12607.568515,11236.490159,-9040.431266,673.279246,21525.288704,12541.407352,-438.362412,3545.925444,0.008000,-0.020000,1.004000,192.000000,0.000000,0.000000,0.000000,0.000000,0.000000,0.000000,0.000000,0.000000,0.000000,1769524005.972801,0.000000
126.000000,15395.367491,14359.945281,3323.927918,-3288.478051,6315.820672,-10307.953990,628.799275,-17988.996862,12706.273819,11222.766188,-9112.605049,614.672973,21498.846590,12498.022616,-490.710198,3505.424083,0.008000,-0.020000,1.004000,192.000000,0.000000,0.000000,0.000000,0.000000,0.000000,0.000000,0.000000,0.000000,0.000000,1769524005.972814,0.000000
128.000000,15373.261615,14331.513862,3330.901662,-3280.833755,6292.820727,-10304.824746,636.041240,-17979.340908,12583.629797,11244.246214,-9011.821033,684.119843,21532.687131,12551.622099,-416.189482,3555.179066,0.008000,-0.020000,1.004000,192.000000,0.000000,0.000000,0.000000,0.000000,0.000000,0.000000,0.000000,0.000000,0.000000,1769524005.972825,0.000000
130.000000,15389.220761,14344.969612,3274.798784,-3336.444895,6295.704102,-10346.488398,583.201716,-18051.000601,12662.911435,11213.713731,-9097.830546,619.880929,21490.129410,12498.044967,-486.239849,3511.257888,0.008000,-0.020000,1.006000,192.000000,0.000000,32.000000,127.500000,48.000000,15.500000,56.000000,0.000000,0.000000,0.000000,1769524005.972836,0.000000
132.000000,15380.458877,14342.108588,3348.179561,-3253.475219,6297.626352,-10307.663418,659.331758,-17955.022210,12635.642306,11237.384228,-9057.172722,657.565970,21511.408271,12527.012828,-450.097078,3529.608670,0.008000,-0.020000,1.006000,192.000000,0.000000,0.000000,0.000000,0.000000,0.000000,0.000000,0.000000,0.000000,0.000000,1769524005.972848,0.000000
134.000000,15362.309261,14325.769463,3278.129194,-3321.312764,6276.593360,-10340.095799,592.276525,-18043.646877,12585.864971,11218.698170,-9055.317528,657.945950,21497.036099,12521.581354,-440.508180,3535.062496,0.008000,-0.020000,1.006000,192.000000,0.000000,0.000000,0.000000,0.000000,0.000000,0.000000,0.000000,0.000000,0.000000,1769524005.972859,0.000000
136.000000,15390.360700,14349.886996,3316.149511,-3285.594676,6301.381445,-10323.600212,630.386249,-17995.031833,12691.231095,11214.563097,-9118.103578,607.989801,21481.188712,12489.797174,-504.881204,3496.751606,0.008000,-0.020000,1.006000,192.000000,0.000000,0.000000,0.000000,0.000000,0.000000,0.000000,0.000000,0.000000,0.000000,1769524005.972871,0.000000
138.000000,15361.906929,14319.130995,3323.547938,-3281.012569,6278.515611,-10320.828595,635.929481,-17989.823877,12571.716317,11231.326906,-9023.756865,672.005197,21516.325655,12536.400561,-419.631650,3543.913787,0.008000,-0.020000,1.006000,192.000000,0.000000,0.000000,0.000000,0.000000,0.000000,0.000000,0.000000,0.000000,0.000000,1769524005.972883,0.000000
140.000000,15374.178037,14329.703370,3273.569438,-3337.294261,6291.792547,-10350.578767,584.207545,-18054.196901,12649.858016,11199.833298,-9105.586601,607.051028,21487.536608,12483.561037,-486.932753,3505.424083,0.006000,-0.026000,1.002000,192.000000,0.000000,24.000000,127.500000,24.000000,15.500000,40.000000,0.000000,0.000000,0.000000,1769524005.972895,0.000000
142.000000,15388.036119,14340.991001,3355.577988,-3253.318757,6300.375617,-10307.506956,663.265665,-17945.388609,12643.107789,11224.084940,-9052.143580,654.816706,21516.124489,12516.306343,-447.414869,3525.831226,0.006000,-0.026000,1.002000,192.000000,0.000000,0.000000,0.000000,0.000000,0.000000,0.000000,0.000000,0.000000,0.000000,1769524005.972906,0.000000
144.000000,15369.417115,14322.081425,3285.684083,-3321.156302,6280.907247,-10347.516578,593.997609,-18038.215403,12599.208963,11215.323057,-9043.962842,664.204438,21514.045777,12517.178061,-440.932863,3528.021697,0.006000,-0.026000,1.002000,192.000000,0.000000,0.000000,0.000000,0.000000,0.000000,0.000000,0.000000,0.000000,0.000000,1769524005.972918,0.000000
146.000000,15374.043926,14347.517711,3317.758836,-3279.202077,6302.834308,-10324.226060,627.994612,-17995.635330,12695.075595,11209.310437,-9116.226031,611.186100,21491.984605,12483.985720,-500.254393,3497.332751,0.006000,-0.026000,1.002000,192.000000,0.000000,0.000000,0.000000,0.000000,0.000000,0.000000,0.000000,0.000000,0.000000,1769524005.972930,0.000000
148.000000,15358.151836,14318.192222,3325.134912,-3270.686063,6285.310541,-10313.094892,634.677784,-17986.828743,12572.968015,11232.310382,-9021.700504,681.258819,21526.048663,12541.630869,-416.636517,3546.283072,0.006000,-0.026000,1.002000,192.000000,0.000000,0.000000,0.000000,0.000000,0.000000,0.000000,0.000000,0.000000,0.000000,1769524005.972941,0.000000
150.000000,15382.984624,14330.038646,3274.485859,-3331.527511,6292.351340,-10348.433000,582.061777,-18055.426247,12656.697650,11205.018902,-9105.117214,618.428066,21487.670718,12493.775784,-486.686884,3503.188908,0.007000,-0.021000,1.002000,192.000000,0.000000,32.000000,127.500000,64.000000,15.500000,40.000000,0.000000,0.000000,0.000000,1769524005.972953,0.000000
152.000000,15375.385031,14340.923946,3355.645043,-3254.145772,6301.917887,-10300.533211,660.516400,-17948.070818,12647.913414,11224.621382,-9055.876321,651.218075,21518.806698,12524.062398,-452.332253,3527.373496,0.007000,-0.021000,1.002000,192.000000,0.000000,0.000000,0.000000,0.000000,0.000000,0.000000,0.000000,0.000000,0.000000,1769524005.972964,0.000000
154.000000,15370.400592,14326.551774,3286.555801,-3326.744238,6285.042320,-10339.358191,592.880022,-18033.253316,12599.588942,11217.737045,-9042.889958,659.242351,21514.224591,12519.145014,-440.999918,3529.586319,0.007000,-0.021000,1.002000,192.000000,0.000000,0.000000,0.000000,0.000000,0.000000,0.000000,0.000000,0.000000,0.000000,1769524005.972978,0.000000
156.000000,15399.390805,14355.184359,3320.597508,-3288.679217,6308.824576,-10322.862604,629.000441,-17986.806391,12708.196069,11209.936286,-9107.017113,613.778903,21499.830067,12487.226723,-497.058093,3494.963467,0.007000,-0.021000,1.002000,192.000000,0.000000,0.000000,0.000000,0.000000,0.000000,0.000000,0.000000,0.000000,0.000000,1769524005.972991,0.000000
158.000000,15373.619243,14329.815129,3331.594566,-3275.402281,6293.044244,-10311.060883,636.980013,-17973.417696,12588.815402,11233.897356,-9011.262239,684.477470,21544.891184,12544.536596,-415.451874,3543.824380,0.007000,-0.021000,1.002000,192.000000,0.000000,0.000000,0.000000,0.000000,0.000000,0.000000,0.000000,0.000000,0.000000,1769524005.973003,0.000000
160.000000,15382.425831,14343.784969,3278.643284,-3328.577081,6301.761425,-10342.152159,585.146318,-18046.262031,12675.584874,11213.780786,-9090.208601,626.474694,21508.413137,12497.620284,-485.055206,3499.634981,0.005500,-0.018500,1.003000,192.000000,0.000000,16.000000,127.500000,64.000000,15.500000,48.000000,0.000000,0.000000,0.000000,1769524005.973015,0.000000
162.000000,15383.319900,14339.202862,3350.705308,-3248.803705,6304.778910,-10306.635238,659.175296,-17953.412885,12653.367240,11228.957621,-9053.641147,653.743822,21518.605532,12526.364628,-449.806505,3523.439589,0.005500,-0.018500,1.003000,192.000000,0.000000,0.000000,0.000000,0.000000,0.000000,0.000000,0.000000,0.000000,0.000000,1769524005.973027,0.000000
164.000000,15359.112961,14311.911382,3281.325493,-3320.485749,6275.498125,-10347.360116,592.991780,-18039.869432,12596.347940,11211.433853,-9048.857874,654.727299,21509.933056,12517.066302,-437.937729,3529.273394,0.005500,-0.018500,1.003000,192.000000,0.000000,0.000000,0.000000,0.000000,0.000000,0.000000,0.000000,0.000000,0.000000,1769524005.973039,0.000000
166.000000,15385.085688,14344.634336,3317.647078,-3289.059197,6303.527213,-10330.037514,626.273528,-17994.495391,12698.204839,11202.783728,-9116.337790,606.335772,21491.448163,12482.175229,-503.316582,3498.919725,0.005500,-0.018500,1.003000,192.000000,0.000000,0.000000,0.000000,0.000000,0.000000,0.000000,0.000000,0.000000,0.000000,1769524005.973051,0.000000
168.000000,15367.360755,14319.578030,3330.320517,-3282.420728,6286.517535,-10320.783892,635.549502,-17982.760725,12581.819306,11224.979010,-9019.621792,675.380310,21538.498585,12537.026410,-416.345944,3547.758287,0.005500,-0.018500,1.003000,192.000000,0.000000,0.000000,0.000000,0.000000,0.000000,0.000000,0.000000,0.000000,0.000000,1769524005.973063,0.000000
170.000000,15389.936017,14334.263126,3278.084490,-3340.065877,6293.379521,-10353.596253,583.112309,-18052.498168,12666.554769,11202.135527,-9099.484575,616.975202,21495.762050,12489.663063,-479.266105,3499.657333,0.005750,-0.015250,1.005500,192.000000,0.000000,24.000000,127.500000,80.000000,15.500000,64.000000,0.000000,0.000000,0.000000,1769524005.973074,0.000000
172.000000,15377.597854,14341.035705,3355.756802,-3255.665690,6300.487375,-10304.221249,661.589284,-17950.775379,12654.797751,11230.611650,-9058.424420,649.049955,21524.238172,12521.760168,-450.365299,3527.261737,0.005750,-0.015250,1.005500,192.000000,0.000000,0.000000,0.000000,0.000000,0.000000,0.000000,0.000000,0.000000,0.000000,1769524005.973086,0.000000
174.000000,15371.093496,14322.751978,3288.187479,-3322.273889,6285.824631,-10339.916985,595.249307,-18041.545813,12601.131213,11220.978048,-9046.041554,652.358014,21519.454899,12523.615363,-439.614110,3533.229653,0.005750,-0.015250,1.005500,192.000000,0.000000,0.000000,0.000000,0.000000,0.000000,0.000000,0.000000,0.000000,0.000000,1769524005.973098,0.000000
176.000000,15387.879656,14345.684868,3316.529491,-3282.465432,6309.428073,-10323.644915,627.346412,-18001.446784,12699.836516,11207.119966,-9117.634191,604.458225,21498.533666,12489.439546,-496.476948,3499.657333,0.005750,-0.015250,1.005500,192.000000,0.000000,0.000000,0.000000,0.000000,0.000000,0.000000,0.000000,0.000000,0.000000,1769524005.973109,0.000000
178.000000,15356.095476,14320.181527,3323.927918,-3269.255551,6287.456308,-10317.364075,635.393040,-17988.929807,12580.411146,11235.283164,-9024.248603,678.666017,21532.217745,12548.023468,-420.793941,3554.553217,0.005750,-0.015250,1.005500,192.000000,0.000000,0.000000,0.000000,0.000000,0.000000,0.000000,0.000000,0.000000,0.000000,1769524006.451291,0.000000
180.000000,15391.455935,14345.237833,3273.345920,-3324.084380,6299.615657,-10342.867415,583.581696,-18053.548700,12663.514932,11219.256964,-9106.212450,622.451380,21496.231436,12504.974008,-483.043549,3506.720484,0.006875,-0.014625,1.006750,192.000000,0.000000,32.000000,127.500000,72.000000,15.500000,64.000000,0.000000,0.000000,0.000000,1769524006.451349,0.000000
182.000000,15396.350967,14353.485626,3350.101811,-3245.585054,6304.644800,-10298.678017,660.896380,-17952.161187,12654.373068,11248.582452,-9059.229083,660.471697,21526.473347,12539.730971,-453.203971,3526.591185,0.006875,-0.014625,1.006750,192.000000,0.000000,0.000000,0.000000,0.000000,0.000000,0.000000,0.000000,0.000000,0.000000,1769524006.451386,0.000000
184.000000,15357.324822,14325.411835,3280.677292,-3327.615956,6278.068576,-10345.616680,591.918897,-18046.642011,12593.553971,11228.845862,-9052.478856,656.537790,21512.972893,12527.839843,-444.039755,3536.805932,0.006875,-0.014625,1.006750,192.000000,0.000000,0.000000,0.000000,0.000000,0.000000,0.000000,0.000000,0.000000,0.000000,1769524006.451423,0.000000
186.000000,15403.302360,14352.926833,3315.411903,-3297.038769,6303.683675,-10327.131787,625.759438,-18002.989054,12696.439051,11203.610743,-9125.211433,598.512661,21489.794134,12478.129563,-497.147500,3493.912935,0.006875,-0.014625,1.006750,192.000000,0.000000,0.000000,0.000000,0.000000,0.000000,0.000000,0.000000,0.000000,0.000000,1769524006.451468,0.000000
188.000000,15378.201351,14326.797644,3328.420619,-3283.761833,6287.545715,-10315.911211,636.510627,-17985.062955,12582.847486,11225.269583,-9023.801568,676.006159,21526.696864,12533.517186,-414.468397,3543.109124,0.006875,-0.014625,1.006750,192.000000,0.000000,0.000000,0.000000,0.000000,0.000000,0.000000,0.000000,0.000000,0.000000,1769524006.451504,0.000000
190.000000,15385.040985,14337.280612,3270.641359,-3341.675203,6293.915962,-10349.170607,580.005417,-18060.343630,12664.788981,11198.335731,-9101.116252,615.187063,21490.621148,12491.071223,-483.043549,3500.707865,0.007437,-0.013313,1.008375,192.000000,0.000000,32.000000,127.500000,80.000000,15.500000,72.000000,0.000000,0.000000,0.000000,1769524006.451534,0.000000
192.000000,15383.163438,14333.771388,3346.279662,-3258.504362,6296.911096,-10306.925810,657.677729,-17962.197120,12645.767647,11216.239478,-9066.582807,638.298766,21511.274160,12515.971066,-451.885218,3525.250080,0.007437,-0.013313,1.008375,192.000000,0.000000,0.000000,0.000000,0.000000,0.000000,0.000000,0.000000,0.000000,0.000000,1769524006.451545,0.000000
194.000000,15357.794208,14317.767539,3279.649112,-3324.218491,6277.196858,-10341.347497,592.969429,-18046.977287,12586.088489,11201.800251,-9058.983214,645.630139,21513.531686,12515.568735,-441.491656,3533.631984,0.007437,-0.013313,1.008375,192.000000,0.000000,0.000000,0.000000,0.000000,0.000000,0.000000,0.000000,0.000000,0.000000,1769524006.451556,0.000000
196.000000,15390.897142,14342.555623,3311.165072,-3295.652961,6298.118090,-10332.026819,622.965470,-18008.979322,12691.968702,11200.369740,-9128.050104,593.952905,21477.344212,12483.762203,-500.902593,3494.002342,0.007437,-0.013313,1.008375,192.000000,0.000000,0.000000,0.000000,0.000000,0.000000,0.000000,0.000000,0.000000,0.000000,1769524006.451566,0.000000
198.000000,15366.533740,14325.836519,3324.643174,-3282.040749,6279.521439,-10320.627430,635.750668,-17992.684900,12569.034108,11214.496042,-9033.859853,658.147115,21509.977759,12531.505529,-415.518929,3545.076078,0.007437,-0.013313,1.008375,192.000000,0.000000,0.000000,0.000000,0.000000,0.000000,0.000000,0.000000,0.000000,0.000000,1769524006.451577,0.000000
200.000000,15382.224665,14329.032818,3266.685100,-3341.429334,6280.639026,-10357.105477,579.379568,-18063.763447,12647.824007,11190.579676,-9110.347523,606.425179,21479.937015,12485.237418,-482.194183,3503.457129,0.005719,-0.014656,1.008188,192.000000,0.000000,16.000000,127.500000,64.000000,15.500000,64.000000,0.000000,0.000000,0.000000,1769524006.451588,0.000000
202.000000,15373.976871,14339.538138,3342.904549,-3257.811458,6290.563201,-10311.127938,656.671900,-17959.805484,12640.380876,11216.418292,-9070.516714,637.807028,21503.160477,12510.852517,-453.472192,3523.752513,0.005719,-0.014656,1.008188,192.000000,0.000000,0.000000,0.000000,0.000000,0.000000,0.000000,0.000000,0.000000,0.000000,1769524006.451599,0.000000
204.000000,15363.806828,14324.338952,3280.789051,-3326.051334,6272.860619,-10345.571976,593.327057,-18045.166796,12587.474297,11207.164670,-9054.065830,650.055784,21497.773707,12516.283991,-441.111677,3534.347240,0.005719,-0.014656,1.008188,192.000000,0.000000,0.000000,0.000000,0.000000,0.000000,0.000000,0.000000,0.000000,0.000000,1769524006.451609,0.000000
206.000000,15392.037081,14355.743153,3313.266136,-3291.786109,6299.325085,-10328.517595,627.435819,-17997.714042,12687.386595,11201.576734,-9123.043313,597.573888,21478.864131,12477.973101,-497.683942,3498.025656,0.005719,-0.014656,1.008188,192.000000,0.000000,0.000000,0.000000,0.000000,0.000000,0.000000,0.000000,0.000000,0.000000,1769524006.451620,0.000000
208.000000,15369.864150,14329.837481,3325.738409,-3276.341054,6282.315407,-10312.781967,641.003327,-17978.603301,12577.348957,11231.572775,-9017.610135,679.090700,21521.555963,12539.261584,-422.112694,3545.947796,0.005719,-0.014656,1.008188,192.000000,0.000000,0.000000,0.000000,0.000000,0.000000,0.000000,0.000000,0.000000,0.000000,1769524006.451631,0.000000
210.000000,15388.505505,14338.197033,3266.260417,-3339.440029,6279.767308,-10348.634165,583.402882,-18055.336840,12653.367240,11200.369740,-9104.245496,616.058781,21483.692108,12488.232552,-493.168890,3503.658295,0.004859,-0.014328,1.007094,192.000000,0.000000,16.000000,127.500000,72.000000,15.500000,56.000000,0.000000,0.000000,0.000000,1769524006.451641,0.000000
212.000000,15380.458877,14342.108588,3347.888988,-3258.817286,6290.116166,-10308.825708,660.359938,-17952.474112,12643.443065,11221.805063,-9065.308757,641.718583,21509.888352,12515.233459,-453.807468,3522.500816,0.004859,-0.014328,1.007094,192.000000,0.000000,0.000000,0.000000,0.000000,0.000000,0.000000,0.000000,0.000000,0.000000,1769524006.451652,0.000000
214.000000,15360.297604,14318.147518,3282.130156,-3330.521683,6270.066651,-10350.221139,593.416464,-18041.635220,12584.032128,11207.119966,-9051.428324,652.358014,21504.881561,12513.020636,-435.791962,3532.670859,0.004859,-0.014328,1.007094,192.000000,0.000000,0.000000,0.000000,0.000000,0.000000,0.000000,0.000000,0.000000,0.000000,1769524006.451663,0.000000
216.000000,15392.193543,14355.027897,3313.333191,-3295.585906,6295.257067,-10331.669191,626.027659,-17997.043490,12690.515839,11201.487327,-9121.657505,602.290106,21494.443297,12480.968235,-492.945372,3495.231687,0.004859,-0.014328,1.007094,192.000000,0.000000,0.000000,0.000000,0.000000,0.000000,0.000000,0.000000,0.000000,0.000000,1769524006.451674,0.000000
218.000000,15368.813618,14333.793740,3327.325383,-3278.218601,6275.565180,-10319.554546,641.562121,-17977.373955,12575.650224,11230.097560,-9021.588745,678.330741,21522.271219,12539.798026,-418.201139,3545.299595,0.004859,-0.014328,1.007094,192.000000,0.000000,0.000000,0.000000,0.000000,0.000000,0.000000,0.000000,0.000000,0.000000,1769524006.451686,0.000000
220.000000,15379.274235,14344.634336,3269.300254,-3338.635366,6281.868372,-10354.087991,585.235725,-18051.939374,12655.513007,11210.942115,-9098.679912,622.943118,21487.447201,12496.793270,-492.364227,3498.472690,0.004859,-0.014328,1.007094,192.000000,0.000000,0.000000,0.000000,0.000000,0.000000,0.000000,0.000000,0.000000,0.000000,1769524006.451697,0.000000
222.000000,15402.385938,14349.797589,3347.799581,-3257.364423,6289.222096,-10312.714912,661.924560,-17953.479940,12639.263289,11230.231670,-9068.169781,643.774944,21510.357739,12519.703808,-457.741375,3520.310345,0.004000,-0.022000,1.008000,192.000000,0.000000,16.000000,127.500000,40.000000,15.500000,64.000000,0.000000,0.000000,0.000000,1769524006.451707,0.000000
224.000000,15357.950670,14317.544021,3282.644246,-3327.861825,6268.144401,-10346.846026,594.087016,-18042.439883,12588.904809,11214.853670,-9053.618795,656.761307,21522.382977,12518.809738,-440.731697,3532.447342,0.004000,-0.022000,1.008000,192.000000,0.000000,0.000000,0.000000,0.000000,0.000000,0.000000,0.000000,0.000000,0.000000,1769524006.451718,0.000000
226.000000,15392.461764,14349.194091,3312.103845,-3295.027112,6296.844041,-10330.417494,624.932423,-18001.379728,12688.437127,11195.608818,-9126.485482,595.137548,21482.909797,12477.347252,-493.235945,3494.538783,0.004000,-0.022000,1.008000,192.000000,0.000000,0.000000,0.000000,0.000000,0.000000,0.000000,0.000000,0.000000,0.000000,1769524006.451728,0.000000
228.000000,15362.868054,14328.921059,3325.649002,-3277.391586,6275.989863,-10316.179432,639.125781,-17977.910397,12580.165277,11228.287068,-9019.845309,674.732110,21526.071015,12539.574509,-418.111732,3546.372479,0.004000,-0.022000,1.008000,192.000000,0.000000,0.000000,0.000000,0.000000,0.000000,0.000000,0.000000,0.000000,0.000000,1769524006.451738,0.000000
230.000000,15378.715441,14337.414722,3268.048557,-3338.255386,6278.873238,-10350.936395,581.525335,-18054.509825,12659.335155,11201.397920,-9101.295066,618.986859,21490.576445,12492.702900,-489.994942,3503.635943,0.004000,-0.022000,1.008000,192.000000,0.000000,0.000000,0.000000,0.000000,0.000000,0.000000,0.000000,0.000000,0.000000,1769524006.451749,0.000000
232.000000,15395.300435,14344.679039,3347.106677,-3257.476182,6287.501012,-10305.428243,658.840020,-17956.273908,12646.661716,11221.447435,-9068.214484,643.193798,21516.303303,12516.127529,-455.774421,3525.495949,0.002000,-0.020000,1.002000,192.000000,0.000000,8.000000,127.500000,48.000000,15.500000,40.000000,0.000000,0.000000,0.000000,1769524006.451760,0.000000
234.000000,15350.418133,14321.813205,3287.114595,-3325.045505,6273.844096,-10341.034572,595.383417,-18041.210537,12586.826096,11213.512565,-9054.445810,653.453249,21514.828088,12519.502642,-435.903720,3529.921595,0.002000,-0.020000,1.002000,192.000000,0.000000,0.000000,0.000000,0.000000,0.000000,0.000000,0.000000,0.000000,0.000000,1769524006.451770,0.000000
236.000000,15389.243113,14348.948222,3316.551842,-3289.193307,6299.749768,-10320.828595,626.698211,-17998.518705,12697.355473,11211.120929,-9121.702209,603.720618,21504.434526,12487.807868,-492.252468,3491.186022,0.002000,-0.020000,1.002000,192.000000,0.000000,0.000000,0.000000,0.000000,0.000000,0.000000,0.000000,0.000000,0.000000,1769524006.451781,0.000000
238.000000,15362.756296,14316.761710,3324.173787,-3274.105880,6274.469945,-10316.425302,638.924615,-17985.733507,12578.846524,11235.417275,-9026.617888,678.531906,21536.732797,12547.598785,-420.860996,3543.064421,0.002000,-0.020000,1.002000,192.000000,0.000000,0.000000,0.000000,0.000000,0.000000,0.000000,0.000000,0.000000,0.000000,1769524006.451791,0.000000
