Sample_index,EXG Channel 0,EXG Channel 1,EXG Channel 2,EXG Channel 3,EXG Channel 4,EXG Channel 5,EXG Channel 6,EXG Channel 7,EXG Channel 8,EXG Channel 9,EXG Channel 10,EXG Channel 11,EXG Channel 12,EXG Channel 13,EXG Channel 14,EXG Channel 15,Accel Channel 0,Accel Channel 1,Accel Channel 2,Not Used,Digital Channel 0 (D11),Digital Channel 1 (D12),Digital Channel 2 (D13),Digital Channel 3 (D17),Not Used,Digital Channel 4 (D18),Analog Channel 0,Analog Channel 1,Analog Channel 2,Timestamp,Marker Channel
90.000000,17273.897502,19368.434771,-12482.063470,-19.647183,-12417.958667,-4883.878515,1000.866413,386.439310,11684.620283,16423.279515,-531.882111,2394.967067,-16619.594886,18191.660129,2792.783414,2034.500484,0.016000,-0.014000,1.008000,192.000000,0.000000,0.000000,0.000000,0.000000,0.000000,0.000000,0.000000,0.000000,0.000000,1775740408.746121,101.000000
92.000000,17270.410630,19361.684544,-12485.416232,-24.966899,-12422.138443,-4883.744405,996.507823,382.550106,11652.031440,16423.346570,-520.236852,2395.436453,-16603.278113,18191.302501,2594.791662,1751.639158,0.016000,-0.014000,1.008000,192.000000,0.000000,0.000000,0.000000,0.000000,0.000000,0.000000,0.000000,0.000000,0.000000,1775740408.746184,0.000000
94.000000,17278.591368,19371.586367,-12487.316130,-26.956204,-12423.166623,-4880.704568,999.011218,384.271191,11679.546437,16418.608000,-534.139637,2393.223631,-16622.008875,18186.206303,2837.285738,2098.225307,0.012000,-0.012000,1.000000,192.000000,0.000000,48.000000,127.500000,80.000000,15.500000,32.000000,0.000000,0.000000,0.000000,1775740408.746236,0.000000
96.000000,17286.839162,19373.083934,-12467.065450,-14.595689,-12411.767234,-4877.508268,1005.850852,399.783301,11679.367623,16430.320314,-514.715971,2402.968991,-16602.562857,18191.816591,2664.864381,1845.382374,0.012000,-0.012000,1.000000,192.000000,0.000000,0.000000,0.000000,0.000000,0.000000,0.000000,0.000000,0.000000,0.000000,1775740408.746287,0.000000
98.000000,17270.790609,19368.926509,-12491.831182,-31.717125,-12429.760388,-4893.154489,995.680809,382.952438,11671.388050,16419.569125,-521.935585,2400.644410,-16607.703758,18184.529923,2713.390018,1920.685401,0.012000,-0.012000,1.000000,192.000000,0.000000,0.000000,0.000000,0.000000,0.000000,0.000000,0.000000,0.000000,0.000000,1775740408.746329,0.000000
100.000000,17280.737135,19375.453219,-12473.592159,-21.524730,-12417.444577,-4890.449928,1003.839195,394.284772,11688.867115,16426.252297,-527.367059,2403.080750,-16617.896154,18183.658205,2796.896135,2033.204083,0.012000,-0.012000,1.000000,192.000000,0.000000,0.000000,0.000000,0.000000,0.000000,0.000000,0.000000,0.000000,0.000000,1775740408.746369,0.000000
102.000000,17272.466990,19363.539739,-12481.728194,-31.180684,-12424.463025,-4890.606390,997.424245,385.344074,11661.150952,16423.972419,-511.899652,2402.678418,-16599.321854,18183.278225,2597.853851,1750.096887,0.012000,-0.012000,1.000000,192.000000,0.000000,0.000000,0.000000,0.000000,0.000000,0.000000,0.000000,0.000000,0.000000,1775740408.746407,0.000000
104.000000,17272.981080,19364.210291,-12486.623226,-32.946471,-12428.061656,-4893.176841,999.815881,381.544278,11678.495905,16409.197916,-533.782009,2392.553078,-16626.881555,18172.951719,2835.475246,2094.179642,0.010000,-0.012000,0.996000,192.000000,0.000000,40.000000,127.500000,80.000000,15.500000,16.000000,0.000000,0.000000,0.000000,1775740408.746420,0.000000
106.000000,17283.665214,19371.519312,-12470.909950,-22.776428,-12413.890650,-4881.151602,1001.335800,391.915487,11673.064431,16424.866489,-518.091085,2398.588049,-16608.530773,18179.076097,2665.087898,1844.398897,0.010000,-0.012000,0.996000,192.000000,0.000000,0.000000,0.000000,0.000000,0.000000,0.000000,0.000000,0.000000,0.000000,1775740408.746433,0.000000
108.000000,17271.572920,19363.338573,-12494.826316,-37.953262,-12427.838138,-4892.483937,990.383445,372.804746,11661.463876,16408.415605,-526.093009,2391.480195,-16613.358750,18172.124704,2710.998381,1914.941003,0.010000,-0.012000,0.996000,192.000000,0.000000,0.000000,0.000000,0.000000,0.000000,0.000000,0.000000,0.000000,0.000000,1775740408.746445,0.000000
110.000000,17280.692432,19370.737001,-12476.855514,-20.608308,-12414.874126,-4882.760928,998.832404,384.070025,11683.010958,16418.920925,-533.022050,2394.117700,-16619.706645,18175.924501,2797.901964,2033.941690,0.010000,-0.012000,0.996000,192.000000,0.000000,0.000000,0.000000,0.000000,0.000000,0.000000,0.000000,0.000000,0.000000,1775740408.746457,0.000000
112.000000,17272.779914,19361.997469,-12484.611569,-26.576224,-12420.462062,-4891.925143,991.098701,376.470432,11661.709745,16419.814994,-521.153274,2395.145881,-16601.132345,18178.740821,2601.072502,1763.507934,0.010000,-0.012000,0.996000,192.000000,0.000000,0.000000,0.000000,0.000000,0.000000,0.000000,0.000000,0.000000,0.000000,1775740408.746469,0.000000
114.000000,17260.508807,19366.043134,-12490.758299,-28.051439,-12418.986847,-4885.376082,991.970419,370.949551,11674.830219,16415.791680,-544.399088,2388.507412,-16626.211003,18174.270472,2841.420810,2103.656781,0.012000,-0.012000,0.994000,192.000000,0.000000,48.000000,127.500000,80.000000,15.500000,8.000000,0.000000,0.000000,0.000000,1775740408.746482,0.000000
116.000000,17272.869321,19360.276384,-12471.088764,-16.696753,-12406.581629,-4889.354693,998.608887,382.147775,11665.509542,16427.012256,-529.423419,2394.296514,-16602.987540,18184.261702,2675.056776,1857.944054,0.012000,-0.012000,0.994000,192.000000,0.000000,0.000000,0.000000,0.000000,0.000000,0.000000,0.000000,0.000000,0.000000,1775740408.746494,0.000000
118.000000,17253.311545,19353.704972,-12497.106194,-35.896902,-12428.732208,-4901.670504,986.538945,362.746461,11650.846797,16413.690616,-537.358288,2385.936962,-16611.056520,18173.041126,2718.687382,1923.166445,0.012000,-0.012000,0.994000,192.000000,0.000000,0.000000,0.000000,0.000000,0.000000,0.000000,0.000000,0.000000,0.000000,1775740408.746519,0.000000
120.000000,17271.952900,19363.584443,-12478.353081,-20.541253,-12412.393083,-4880.570457,996.865451,377.118632,11669.957539,16418.205669,-544.041460,2385.624037,-16618.991389,18175.142190,2803.445197,2042.971795,0.012000,-0.012000,0.994000,192.000000,0.000000,0.000000,0.000000,0.000000,0.000000,0.000000,0.000000,0.000000,0.000000,1775740408.746531,0.000000
122.000000,17263.079257,19357.258899,-12485.907970,-26.755038,-12417.489280,-4871.652111,990.718721,371.329531,11651.271480,16425.022951,-524.796608,2389.133261,-16591.990482,18182.808838,2603.732360,1761.675091,0.012000,-0.012000,0.994000,192.000000,0.000000,0.000000,0.000000,0.000000,0.000000,0.000000,0.000000,0.000000,0.000000,1775740408.746544,0.000000
124.000000,17264.621528,19360.410495,-12490.154802,-28.476122,-12419.724455,-4878.782317,992.864489,368.200286,11675.120792,16413.623561,-546.880132,2381.041930,-16622.835889,18172.214111,2841.823142,2099.141729,0.008000,-0.012000,0.996000,192.000000,0.000000,32.000000,127.500000,80.000000,15.500000,16.000000,0.000000,0.000000,0.000000,1775740408.746556,0.000000
126.000000,17277.607891,19360.902233,-12468.048926,-15.534462,-12403.675902,-4875.384852,1001.604021,384.472356,11668.996414,16428.375712,-527.300003,2391.480195,-16598.271322,18180.774829,2675.660274,1851.305586,0.008000,-0.012000,0.996000,192.000000,0.000000,0.000000,0.000000,0.000000,0.000000,0.000000,0.000000,0.000000,0.000000,1775740408.746593,0.000000
128.000000,17261.134656,19355.426056,-12494.625151,-35.785143,-12423.457196,-4889.354693,990.338742,367.105051,11661.463876,16419.122090,-533.089105,2385.713444,-16602.227581,18172.147056,2714.328791,1914.292802,0.008000,-0.012000,0.996000,192.000000,0.000000,0.000000,0.000000,0.000000,0.000000,0.000000,0.000000,0.000000,0.000000,1775740408.746605,0.000000
130.000000,17277.429077,19366.333707,-12473.815676,-17.255547,-12408.906211,-4877.172992,1003.392160,385.679351,11682.988606,16423.011294,-539.302890,2390.541421,-16612.464680,18171.096524,2800.830042,2038.590853,0.008000,-0.012000,0.996000,192.000000,0.000000,0.000000,0.000000,0.000000,0.000000,0.000000,0.000000,0.000000,0.000000,1775740408.746617,0.000000
132.000000,17270.321223,19355.314297,-12483.471630,-27.135018,-12418.830385,-4887.410091,994.049131,375.978693,11663.944920,16431.124977,-517.264070,2396.799910,-16590.939950,18176.662109,2597.630334,1756.735355,0.008000,-0.012000,0.996000,192.000000,0.000000,0.000000,0.000000,0.000000,0.000000,0.000000,0.000000,0.000000,0.000000,1775740408.746629,0.000000
134.000000,17264.867397,19357.504768,-12492.144107,-32.991175,-12425.871185,-4895.099091,993.445634,369.250818,11673.086783,16415.076424,-543.013280,2383.545325,-16621.271267,18162.356992,2834.938804,2095.520746,0.013000,-0.012000,0.997000,192.000000,0.000000,72.000000,127.500000,80.000000,15.500000,24.000000,0.000000,0.000000,0.000000,1775740408.746641,0.000000
136.000000,17281.720612,19363.182111,-12471.401688,-21.323564,-12409.710873,-4888.751196,1001.671076,385.388778,11674.539646,16426.028779,-527.076486,2392.128395,-16602.160526,18172.370574,2670.318207,1852.065546,0.013000,-0.012000,0.997000,192.000000,0.000000,0.000000,0.000000,0.000000,0.000000,0.000000,0.000000,0.000000,0.000000,1775740408.746653,0.000000
138.000000,17270.008298,19358.443541,-12494.155764,-38.377945,-12426.631144,-4898.071873,991.299867,370.681330,11661.374469,16414.629390,-532.239739,2386.674569,-16609.849526,18161.664088,2708.249117,1912.348200,0.013000,-0.012000,0.997000,192.000000,0.000000,0.000000,0.000000,0.000000,0.000000,0.000000,0.000000,0.000000,0.000000,1775740408.746666,0.000000
140.000000,17288.984929,19368.837103,-12471.178171,-21.077695,-12410.895516,-4881.352768,1003.258050,389.345037,11691.750490,16426.252297,-530.026916,2395.235288,-16608.061386,18168.414315,2796.113824,2041.630690,0.013000,-0.012000,0.997000,192.000000,0.000000,0.000000,0.000000,0.000000,0.000000,0.000000,0.000000,0.000000,0.000000,1775740408.746677,0.000000
142.000000,17276.691470,19362.332745,-12478.598950,-34.958128,-12415.924658,-4890.047597,995.814919,381.231353,11674.494943,16424.844137,-511.564375,2396.486985,-16587.430726,18167.162617,2604.805244,1752.756745,0.013000,-0.012000,0.997000,192.000000,0.000000,0.000000,0.000000,0.000000,0.000000,0.000000,0.000000,0.000000,0.000000,1775740408.746689,0.000000
144.000000,17284.715746,19368.792399,-12484.566866,-27.000907,-12417.288115,-4891.209887,998.430073,381.745444,11678.942940,16414.271762,-536.665384,2389.602648,-16613.246991,18161.485274,2839.051525,2090.603362,0.011500,-0.012000,0.998500,192.000000,0.000000,40.000000,127.500000,80.000000,15.500000,32.000000,0.000000,0.000000,0.000000,1775740408.746701,0.000000
146.000000,17291.868304,19372.458085,-12461.723383,-15.780332,-12399.920809,-4893.199193,1004.845024,395.938801,11686.542533,16434.075407,-511.653782,2405.360628,-16588.369499,18181.043050,2670.608779,1855.306549,0.011500,-0.012000,0.998500,192.000000,0.000000,0.000000,0.000000,0.000000,0.000000,0.000000,0.000000,0.000000,0.000000,1775740408.746713,0.000000
148.000000,17261.425228,19353.503806,-12493.976950,-39.495532,-12427.681676,-4907.213736,988.327085,368.848487,11664.906045,16416.328122,-521.309736,2391.256677,-16602.026415,18164.301594,2721.838978,1908.548404,0.011500,-0.012000,0.998500,192.000000,0.000000,0.000000,0.000000,0.000000,0.000000,0.000000,0.000000,0.000000,0.000000,1775740408.746724,0.000000
150.000000,17278.747830,19363.159759,-12474.083897,-21.211805,-12414.672961,-4888.862954,1000.732303,385.522888,11674.226722,16414.227058,-534.877245,2388.932096,-16618.767872,18160.099466,2812.229432,2043.396478,0.011500,-0.012000,0.998500,192.000000,0.000000,0.000000,0.000000,0.000000,0.000000,0.000000,0.000000,0.000000,0.000000,1775740408.746736,0.000000
152.000000,17273.539874,19357.013030,-12479.403613,-26.777390,-12416.863432,-4893.199193,996.038436,381.879554,11660.681565,16420.709064,-513.620736,2396.554040,-16593.823325,18168.838998,2600.692523,1757.204742,0.011500,-0.012000,0.998500,192.000000,0.000000,0.000000,0.000000,0.000000,0.000000,0.000000,0.000000,0.000000,0.000000,1775740408.746748,0.000000
154.000000,17268.287214,19355.314297,-12489.573656,-37.863855,-12423.188975,-4899.748254,989.489375,369.988426,11674.316129,16405.308712,-539.973443,2381.712482,-16622.925296,18153.237480,2846.181732,2095.565450,0.009750,-0.013000,1.000250,192.000000,0.000000,32.000000,127.500000,72.000000,15.500000,40.000000,0.000000,0.000000,0.000000,1775740408.746760,0.000000
156.000000,17285.609816,19366.244300,-12465.076144,-18.328430,-12404.279399,-4889.421748,1001.156986,390.619086,11670.181056,16417.602172,-521.980288,2389.513241,-16604.798031,18161.172350,2681.941114,1856.781764,0.009750,-0.013000,1.000250,192.000000,0.000000,0.000000,0.000000,0.000000,0.000000,0.000000,0.000000,0.000000,0.000000,1775740408.746771,0.000000
158.000000,17264.599176,19348.117035,-12493.216991,-39.093201,-12427.927545,-4905.738521,987.656532,367.887362,11661.597986,16404.459346,-527.367059,2383.880601,-16605.736805,18155.159730,2713.322963,1910.805930,0.009750,-0.013000,1.000250,192.000000,0.000000,0.000000,0.000000,0.000000,0.000000,0.000000,0.000000,0.000000,0.000000,1775740408.746783,0.000000
160.000000,17274.389240,19354.822559,-12474.016842,-24.452808,-12415.544679,-4896.909582,998.340666,383.354769,11670.426925,16410.024930,-532.910291,2385.981665,-16620.198383,18155.919690,2806.820310,2041.787153,0.009750,-0.013000,1.000250,192.000000,0.000000,0.000000,0.000000,0.000000,0.000000,0.000000,0.000000,0.000000,0.000000,1775740408.746796,0.000000
162.000000,17272.444638,19352.430922,-12480.364738,-30.957166,-12416.505804,-4898.273039,993.400931,378.705606,11651.606757,16413.355340,-515.185358,2389.915572,-16599.791241,18157.953698,2601.117206,1755.126030,0.009750,-0.013000,1.000250,192.000000,0.000000,0.000000,0.000000,0.000000,0.000000,0.000000,0.000000,0.000000,0.000000,1775740408.746808,0.000000
164.000000,17276.646766,19359.181149,-12485.907970,-32.410029,-12419.813862,-4898.429501,993.669152,373.296484,11674.964330,16412.193049,-535.391335,2384.886430,-16618.901982,18154.086847,2840.303223,2098.270011,0.008875,-0.014500,1.004125,192.000000,0.000000,32.000000,127.500000,64.000000,15.500000,64.000000,0.000000,0.000000,0.000000,1775740408.746819,0.000000
166.000000,17292.851781,19366.378411,-12462.438639,-15.892090,-12400.680769,-4889.444100,1001.872242,390.015589,11680.865190,16426.989904,-518.873396,2394.698846,-16594.829153,18166.246196,2679.884753,1858.212275,0.008875,-0.014500,1.004125,192.000000,0.000000,0.000000,0.000000,0.000000,0.000000,0.000000,0.000000,0.000000,0.000000,1775740408.746830,0.000000
168.000000,17269.941243,19356.275422,-12495.183944,-41.060155,-12425.446501,-4912.220527,985.019026,360.712452,11666.180094,16417.780986,-528.261128,2385.087596,-16603.546334,18153.259832,2713.211204,1902.245212,0.008875,-0.014500,1.004125,192.000000,0.000000,0.000000,0.000000,0.000000,0.000000,0.000000,0.000000,0.000000,0.000000,1775740408.746842,0.000000
170.000000,17288.001452,19364.433809,-12475.939092,-22.150579,-12411.499013,-4906.431425,998.810053,379.912601,11682.943902,16422.340741,-538.453524,2384.908782,-16613.314046,18150.711733,2806.976772,2046.257501,0.008875,-0.014500,1.004125,192.000000,0.000000,0.000000,0.000000,0.000000,0.000000,0.000000,0.000000,0.000000,0.000000,1775740408.746853,0.000000
172.000000,17273.785743,19355.962498,-12482.197581,-27.023259,-12408.570934,-4900.754082,994.362056,375.375196,11658.200521,16421.044340,-520.929756,2387.836860,-16593.890380,18153.684515,2596.289229,1755.953044,0.008875,-0.014500,1.004125,192.000000,0.000000,0.000000,0.000000,0.000000,0.000000,0.000000,0.000000,0.000000,0.000000,1775740408.746865,0.000000
174.000000,17257.781894,19348.675829,-12492.971121,-36.813323,-12425.535908,-4889.533507,990.450500,362.008853,11668.437620,16414.539983,-542.029803,2383.277104,-16623.752311,18151.426989,2819.940784,2099.164081,0.008438,-0.016250,1.004062,192.000000,0.000000,32.000000,127.500000,56.000000,15.500000,48.000000,0.000000,0.000000,0.000000,1775740408.746877,0.000000
176.000000,17282.033537,19354.174358,-12471.759316,-23.424628,-12410.962571,-4890.025245,999.078274,377.096281,11658.491094,16413.467099,-532.776181,2380.885468,-16606.206191,18147.493082,2687.707864,1852.981967,0.008438,-0.016250,1.004062,192.000000,0.000000,0.000000,0.000000,0.000000,0.000000,0.000000,0.000000,0.000000,0.000000,1775740408.746889,0.000000
178.000000,17258.653612,19342.484396,-12501.330674,-43.049460,-12434.543661,-4907.861937,983.677922,353.403432,11649.572748,16407.588590,-537.805323,2373.621151,-16613.314046,18146.487253,2708.025599,1902.826357,0.008438,-0.016250,1.004062,192.000000,0.000000,0.000000,0.000000,0.000000,0.000000,0.000000,0.000000,0.000000,0.000000,1775740408.746900,0.000000
180.000000,17273.338708,19355.046076,-12483.203409,-27.224425,-12417.735150,-4897.781300,994.742035,371.687159,11672.930321,16406.716872,-545.628434,2377.331540,-16623.081758,18146.710771,2806.082702,2043.262368,0.008438,-0.016250,1.004062,192.000000,0.000000,0.000000,0.000000,0.000000,0.000000,0.000000,0.000000,0.000000,0.000000,1775740408.746912,0.000000
182.000000,17276.512656,19355.113131,-12484.544514,-31.895939,-12416.036417,-4898.004818,992.395102,374.101147,11648.991603,16412.684788,-522.784951,2381.868944,-16598.897171,18150.465864,2603.531194,1751.817972,0.008438,-0.016250,1.004062,192.000000,0.000000,0.000000,0.000000,0.000000,0.000000,0.000000,0.000000,0.000000,0.000000,1775740408.746923,0.000000
184.000000,17273.852798,19360.812826,-12493.149935,-36.388640,-12425.468853,-4900.374103,993.155061,371.687159,11670.471629,16406.761576,-539.660518,2380.796061,-16624.556974,18145.503777,2837.911587,2090.379845,0.007219,-0.016125,1.005031,192.000000,0.000000,24.000000,127.500000,64.000000,15.500000,56.000000,0.000000,0.000000,0.000000,1775740408.746935,0.000000
186.000000,17293.656444,19367.764219,-12470.261749,-21.122399,-12407.833327,-4890.941666,1002.833367,389.300333,11673.131487,16420.284381,-522.606137,2391.502546,-16602.652264,18150.555271,2674.095651,1856.513543,0.007219,-0.016125,1.005031,192.000000,0.000000,0.000000,0.000000,0.000000,0.000000,0.000000,0.000000,0.000000,0.000000,1775740408.746946,0.000000
188.000000,17274.188074,19349.860471,-12497.888505,-44.614082,-12432.688467,-4909.985353,988.304733,365.652188,11656.144161,16407.052148,-529.803399,2382.181869,-16610.408319,18137.568907,2704.382265,1895.763206,0.007219,-0.016125,1.005031,192.000000,0.000000,0.000000,0.000000,0.000000,0.000000,0.000000,0.000000,0.000000,0.000000,1775740408.746958,0.000000
190.000000,17287.219141,19366.914852,-12478.062508,-30.085448,-12420.640876,-4903.615106,998.742997,381.678388,11682.653330,16413.891782,-532.664422,2387.211011,-16615.482165,18142.508643,2803.132272,2038.747315,0.007219,-0.016125,1.005031,192.000000,0.000000,0.000000,0.000000,0.000000,0.000000,0.000000,0.000000,0.000000,0.000000,1775740408.746972,0.000000
192.000000,17278.233740,19354.286117,-12483.941017,-37.908559,-12420.551469,-4913.807501,991.992771,376.179859,11661.329765,16412.304808,-516.593518,2384.417043,-16603.009892,18140.876966,2604.537023,1739.032774,0.007219,-0.016125,1.005031,192.000000,0.000000,0.000000,0.000000,0.000000,0.000000,0.000000,0.000000,0.000000,0.000000,1775740408.746984,0.000000
194.000000,17269.896539,19356.431884,-12495.183944,-41.641300,-12427.279344,-4911.125292,991.389274,369.027301,11665.666004,16399.832535,-541.493361,2375.968084,-16631.865994,18130.729274,2838.738601,2076.432356,0.005609,-0.015062,1.004516,192.000000,0.000000,16.000000,127.500000,72.000000,15.500000,48.000000,0.000000,0.000000,0.000000,1775740408.746995,0.000000
196.000000,17284.693394,19358.801169,-12473.927435,-24.609271,-12419.791510,-4892.618047,1001.022875,386.595772,11670.315167,16415.724625,-524.126056,2386.562811,-16609.514250,18142.240422,2672.106346,1854.926569,0.005609,-0.015062,1.004516,192.000000,0.000000,0.000000,0.000000,0.000000,0.000000,0.000000,0.000000,0.000000,0.000000,1775740408.747007,0.000000
198.000000,17269.293042,19350.352210,-12498.693168,-42.356556,-12430.185071,-4905.447949,989.712893,368.960246,11658.424039,16407.409776,-529.937509,2382.763014,-16614.230468,18136.116044,2691.909992,1895.651447,0.005609,-0.015062,1.004516,192.000000,0.000000,0.000000,0.000000,0.000000,0.000000,0.000000,0.000000,0.000000,0.000000,1775740408.747019,0.000000
200.000000,17282.480572,19361.751600,-12481.549380,-29.794875,-12413.756539,-4903.458643,999.078274,380.024359,11672.371527,16410.449613,-538.989966,2384.148822,-16626.166299,18133.187966,2803.825176,2037.719135,0.005609,-0.015062,1.004516,192.000000,0.000000,0.000000,0.000000,0.000000,0.000000,0.000000,0.000000,0.000000,0.000000,1775740408.747030,0.000000
202.000000,17280.804191,19357.661230,-12484.544514,-33.326451,-12416.081121,-4898.317742,994.764387,378.213868,11659.653385,16416.775157,-517.420532,2391.368436,-16596.974921,18140.228765,2596.713912,1746.788829,0.005609,-0.015062,1.004516,192.000000,0.000000,0.000000,0.000000,0.000000,0.000000,0.000000,0.000000,0.000000,0.000000,1775740408.747042,0.000000
204.000000,17271.282348,19351.425094,-12494.446337,-38.690870,-12419.612696,-4898.183632,993.311524,368.937894,11675.031385,16407.052148,-540.912216,2381.578372,-16623.282924,18134.216146,2826.288679,2083.517859,0.005609,-0.015062,1.004516,192.000000,0.000000,0.000000,0.000000,0.000000,0.000000,0.000000,0.000000,0.000000,0.000000,1775740408.747054,0.000000
206.000000,17281.966481,19358.085913,-12469.904121,-24.117532,-12405.061710,-4887.544201,1003.213346,385.165260,11664.079030,16413.221230,-528.372887,2383.478270,-16605.759156,18135.959582,2681.225858,1859.039290,0.010000,-0.016000,1.008000,192.000000,0.000000,40.000000,127.500000,64.000000,15.500000,64.000000,0.000000,0.000000,0.000000,1775740408.747065,0.000000
208.000000,17276.959691,19354.889614,-12494.401633,-39.696698,-12421.087911,-4892.886268,992.618620,371.106013,11662.067373,16414.115299,-526.115361,2386.182831,-16605.245066,18140.005248,2704.292858,1896.746683,0.010000,-0.016000,1.008000,192.000000,0.000000,0.000000,0.000000,0.000000,0.000000,0.000000,0.000000,0.000000,0.000000,1775740408.747077,0.000000
210.000000,17292.941188,19364.567919,-12474.620339,-24.564567,-12398.378539,-4881.464527,1003.146291,386.126385,11688.151859,16415.992846,-532.440905,2387.948619,-16612.442328,18140.318172,2808.854319,2041.362469,0.010000,-0.016000,1.008000,192.000000,0.000000,0.000000,0.000000,0.000000,0.000000,0.000000,0.000000,0.000000,0.000000,1775740409.227067,0.000000
212.000000,17282.949958,19354.219062,-12481.527028,-33.549968,-12412.482490,-4887.924181,994.719683,378.616199,11664.280196,16421.424320,-516.168835,2390.094386,-16590.157639,18144.453245,2605.296982,1753.673166,0.010000,-0.016000,1.008000,192.000000,0.000000,0.000000,0.000000,0.000000,0.000000,0.000000,0.000000,0.000000,0.000000,1775740409.227190,0.000000
214.000000,17293.231761,19370.558187,-12483.784554,-33.684079,-12412.817766,-4881.553934,998.519480,380.985484,11687.078975,16417.848041,-531.591538,2387.479232,-16613.090529,18137.837128,2837.218682,2081.908534,0.010000,-0.016000,1.008000,192.000000,0.000000,0.000000,0.000000,0.000000,0.000000,0.000000,0.000000,0.000000,0.000000,1775740409.227290,0.000000
216.000000,17289.700185,19361.841006,-12468.898293,-25.548044,-12414.538850,-4885.957227,1000.598192,385.165260,11686.564885,16431.236736,-514.492454,2397.179889,-16593.130421,18148.118931,2674.676797,1864.560171,0.014000,-0.014000,1.004000,192.000000,0.000000,56.000000,127.500000,72.000000,15.500000,48.000000,0.000000,0.000000,0.000000,1775740409.227396,0.000000
218.000000,17266.320260,19346.127730,-12495.027482,-45.083469,-12429.246298,-4896.037864,987.187146,361.651225,11663.341422,16405.755747,-533.558492,2377.197430,-16609.380139,18128.717617,2704.359913,1898.043084,0.014000,-0.014000,1.004000,192.000000,0.000000,0.000000,0.000000,0.000000,0.000000,0.000000,0.000000,0.000000,0.000000,1775740409.227514,0.000000
220.000000,17277.719650,19349.681658,-12479.805944,-31.113628,-12412.996580,-4885.331379,995.993733,371.307179,11687.995397,16412.550677,-538.833504,2381.332503,-16615.057482,18134.149091,2812.832929,2052.247769,0.014000,-0.014000,1.004000,192.000000,0.000000,0.000000,0.000000,0.000000,0.000000,0.000000,0.000000,0.000000,0.000000,1775740409.227621,0.000000
222.000000,17270.880016,19342.484396,-12483.829258,-32.521788,-12420.685580,-4893.333303,993.847965,368.692025,11653.640765,16409.108509,-526.428285,2378.136203,-16598.114860,18128.404692,2610.884918,1755.304844,0.014000,-0.014000,1.004000,192.000000,0.000000,0.000000,0.000000,0.000000,0.000000,0.000000,0.000000,0.000000,0.000000,1775740409.227724,0.000000
224.000000,17266.789647,19347.357076,-12491.741775,-35.449867,-12433.046095,-4891.343998,994.607925,364.176972,11675.456068,16402.313578,-542.253320,2375.901029,-16618.209078,18125.722483,2843.678337,2086.557697,0.014000,-0.014000,1.004000,192.000000,0.000000,0.000000,0.000000,0.000000,0.000000,0.000000,0.000000,0.000000,0.000000,1775740409.227748,0.000000
226.000000,17279.731307,19343.177300,-12470.954653,-24.072829,-12417.891612,-4885.353730,1001.313448,376.671598,11671.432754,16411.075462,-528.596405,2381.153689,-16608.016683,18130.572811,2697.699094,1868.158802,0.006000,-0.016000,1.002000,192.000000,0.000000,24.000000,127.500000,64.000000,15.500000,40.000000,0.000000,0.000000,0.000000,1775740409.227772,0.000000
228.000000,17263.749810,19343.825500,-12495.429813,-40.926044,-12439.706914,-4894.629704,991.299867,359.326644,11662.737925,16402.760613,-530.920986,2375.118718,-16611.615313,18125.521317,2711.892451,1897.171366,0.006000,-0.016000,1.002000,192.000000,0.000000,0.000000,0.000000,0.000000,0.000000,0.000000,0.000000,0.000000,0.000000,1775740409.227796,0.000000
230.000000,17277.183208,19352.207405,-12476.989624,-31.135980,-12407.878030,-4889.287637,1000.017047,372.536525,11689.850591,16411.678959,-541.403954,2375.319883,-16616.309180,18128.918782,2819.829025,2047.509199,0.006000,-0.016000,1.002000,192.000000,0.000000,0.000000,0.000000,0.000000,0.000000,0.000000,0.000000,0.000000,0.000000,1775740409.227827,0.000000
232.000000,17282.771144,19348.474663,-12480.275331,-32.633547,-12400.591362,-4888.684140,996.641934,374.905810,11664.950748,16415.590515,-517.331125,2383.567677,-16589.755307,18130.215184,2608.694447,1747.235864,0.006000,-0.016000,1.002000,192.000000,0.000000,0.000000,0.000000,0.000000,0.000000,0.000000,0.000000,0.000000,0.000000,1775740409.227850,0.000000
234.000000,17284.045194,19350.843948,-12490.445374,-37.349765,-12407.363940,-4891.545164,995.166718,367.507382,11680.060527,16411.746015,-536.911254,2381.377206,-16609.514250,18125.566021,2843.879502,2079.986284,0.006000,-0.016000,1.002000,192.000000,0.000000,0.000000,0.000000,0.000000,0.000000,0.000000,0.000000,0.000000,0.000000,1775740409.227873,0.000000
236.000000,17287.241493,19353.503806,-12472.563979,-26.196245,-12399.809051,-4886.270152,999.793529,378.683255,11672.930321,16416.506936,-528.752867,2385.266410,-16599.075985,18127.600029,2693.116986,1862.526162,0.004000,-0.016000,1.002000,192.000000,0.000000,16.000000,127.500000,64.000000,15.500000,40.000000,0.000000,0.000000,0.000000,1775740409.227896,0.000000
238.000000,17268.980118,19346.418303,-12497.866153,-42.311852,-12419.120958,-4896.395492,988.684712,361.427708,11666.962405,16407.633294,-531.211559,2379.723177,-16604.641569,18124.359026,2704.002285,1889.258848,0.004000,-0.016000,1.002000,192.000000,0.000000,0.000000,0.000000,0.000000,0.000000,0.000000,0.000000,0.000000,0.000000,1775740409.227920,0.000000
240.000000,17290.504848,19361.192806,-12480.007110,-25.883320,-12407.498051,-4888.237105,998.564184,375.375196,11684.061490,16412.461270,-540.666347,2382.628904,-16616.197421,18126.348332,2816.453912,2044.447010,0.004000,-0.016000,1.002000,192.000000,0.000000,0.000000,0.000000,0.000000,0.000000,0.000000,0.000000,0.000000,0.000000,1775740409.227943,0.000000
242.000000,17287.330900,19359.449370,-12483.203409,-27.358535,-12413.242449,-4889.086472,994.026779,373.408243,11669.197580,16425.894669,-519.454541,2392.284857,-16588.771831,18136.160748,2600.312543,1746.453553,0.004000,-0.016000,1.002000,192.000000,0.000000,0.000000,0.000000,0.000000,0.000000,0.000000,0.000000,0.000000,0.000000,1775740409.227966,0.000000
244.000000,17282.793496,19357.795341,-12492.926418,-31.806532,-12420.685580,-4872.926160,992.484509,367.686196,11682.943902,16414.092948,-541.158085,2385.020540,-16615.146889,18127.644733,2835.095267,2092.547964,0.004000,-0.016000,1.002000,192.000000,0.000000,0.000000,0.000000,0.000000,0.000000,0.000000,0.000000,0.000000,0.000000,1775740409.227989,0.000000
246.000000,17293.120002,19360.812826,-12468.920644,-16.115608,-12406.156946,-4860.722108,1000.844061,384.628819,11676.104269,16429.649762,-520.929756,2394.564735,-16595.790278,18142.821567,2680.443547,1872.785613,0.004000,-0.016000,1.002000,192.000000,0.000000,16.000000,127.500000,64.000000,15.500000,40.000000,0.000000,0.000000,0.000000,1775740409.228012,0.000000
248.000000,17272.869321,19353.280288,-12496.100366,-35.092239,-12426.809958,-4877.105937,988.483547,364.154621,11662.804981,16417.266895,-526.182416,2385.445224,-16603.523982,18133.836166,2695.709788,1897.841918,0.004000,-0.016000,1.002000,192.000000,0.000000,0.000000,0.000000,0.000000,0.000000,0.000000,0.000000,0.000000,0.000000,1775740409.228036,0.000000
250.000000,17294.774031,19363.517387,-12477.257845,-20.585957,-12412.750711,-4874.624893,1000.419378,380.471394,11686.587237,16421.133747,-531.211559,2389.021503,-16611.078872,18134.238498,2812.028266,2058.729775,0.004000,-0.016000,1.002000,192.000000,0.000000,0.000000,0.000000,0.000000,0.000000,0.000000,0.000000,0.000000,0.000000,1775740409.228062,0.000000
252.000000,17281.295929,19353.101474,-12482.734022,-25.235119,-12418.763330,-4878.938780,994.809090,373.609409,11663.229664,16422.854832,-514.917137,2395.235288,-16592.281055,18135.780768,2597.004485,1755.930693,0.004000,-0.016000,1.002000,192.000000,0.000000,0.000000,0.000000,0.000000,0.000000,0.000000,0.000000,0.000000,0.000000,1775740409.228085,0.000000
254.000000,17280.088935,19349.078160,-12495.206296,-32.030050,-12429.626278,-4888.259457,993.199765,365.294560,11673.600873,16406.448651,-541.850989,2383.254753,-16625.093415,18123.733178,2829.172054,2094.201993,0.004000,-0.016000,1.002000,192.000000,0.000000,0.000000,0.000000,0.000000,0.000000,0.000000,0.000000,0.000000,0.000000,1775740409.228108,0.000000
0.000000,17292.807078,19358.130617,-12469.144162,-15.378000,-12408.615638,-4870.690986,1004.465044,385.120557,11671.343347,16420.843175,-522.404971,2392.575430,-16602.026415,18133.590297,2679.393015,1871.466860,0.006000,-0.016000,1.004000,192.000000,0.000000,24.000000,127.500000,64.000000,15.500000,48.000000,0.000000,0.000000,0.000000,1775740409.228131,0.000000
2.000000,17271.014127,19345.188957,-12498.492002,-37.193303,-12431.883804,-4882.760928,989.332913,359.527810,11661.575635,16409.667302,-526.852969,2386.272238,-16604.440404,18130.326942,2689.183079,1891.806947,0.006000,-0.016000,1.004000,192.000000,0.000000,0.000000,0.000000,0.000000,0.000000,0.000000,0.000000,0.000000,0.000000,1775740409.228155,0.000000
4.000000,17286.436830,19356.990678,-12479.336557,-23.402276,-12416.394045,-4880.503402,1000.665248,373.743519,11671.902141,16407.543887,-541.560416,2383.031235,-16620.556011,18129.343465,2809.815444,2055.421717,0.006000,-0.016000,1.004000,192.000000,0.000000,0.000000,0.000000,0.000000,0.000000,0.000000,0.000000,0.000000,0.000000,1775740409.228178,0.000000
6.000000,17281.944130,19346.284192,-12481.035290,-31.493608,-12421.154966,-4887.566553,994.674980,371.888324,11658.155818,16412.841250,-519.074561,2386.316942,-16590.291749,18133.545593,2592.310618,1747.727602,0.006000,-0.016000,1.004000,192.000000,0.000000,0.000000,0.000000,0.000000,0.000000,0.000000,0.000000,0.000000,0.000000,1775740409.228202,0.000000
8.000000,17272.779914,19345.680695,-12494.379281,-38.065021,-12431.906156,-4903.838623,991.501032,361.941798,11669.130524,16400.547791,-545.561379,2374.492869,-16618.186726,18119.553401,2828.836778,2083.093176,0.006000,-0.016000,1.004000,192.000000,0.000000,0.000000,0.000000,0.000000,0.000000,0.000000,0.000000,0.000000,0.000000,1775740409.228228,0.000000
10.000000,17285.810981,19356.342477,-12472.005185,-19.691887,-12414.114167,-4885.554896,1001.492262,382.326589,11666.783591,16411.522497,-529.199902,2383.053587,-16608.016683,18126.191870,2678.588352,1869.589313,0.006000,-0.020000,1.014000,192.000000,0.000000,24.000000,127.500000,48.000000,15.500000,88.000000,0.000000,0.000000,0.000000,1775740409.228255,0.000000
12.000000,17274.478647,19352.877957,-12497.486174,-33.795838,-12434.677772,-4886.024283,991.232811,366.501554,11652.746696,16406.761576,-528.283480,2384.238229,-16608.866049,18126.661256,2687.327884,1885.950790,0.006000,-0.020000,1.014000,192.000000,0.000000,0.000000,0.000000,0.000000,0.000000,0.000000,0.000000,0.000000,0.000000,1775740409.228281,0.000000
14.000000,17292.695319,19366.758390,-12478.129563,-19.066038,-12413.622429,-4874.624893,1002.252221,382.304237,11675.053737,16410.270799,-536.084239,2387.166308,-16619.930162,18130.215184,2804.965115,2051.979548,0.006000,-0.020000,1.014000,192.000000,0.000000,0.000000,0.000000,0.000000,0.000000,0.000000,0.000000,0.000000,0.000000,1775740409.228306,0.000000
16.000000,17286.168609,19358.667059,-12481.527028,-24.162236,-12418.226888,-4880.659864,997.223079,378.280923,11660.435696,16423.190108,-514.201881,2393.223631,-16594.471525,18140.519338,2591.304790,1752.242655,0.006000,-0.020000,1.014000,192.000000,0.000000,0.000000,0.000000,0.000000,0.000000,0.000000,0.000000,0.000000,0.000000,1775740409.228332,0.000000
18.000000,17272.042307,19348.564070,-12496.547401,-36.075716,-12432.889632,-4890.427576,991.590439,368.244990,11678.071222,16408.750881,-536.710088,2385.445224,-16617.516174,18127.041236,2820.924261,2087.563525,0.006000,-0.020000,1.014000,192.000000,0.000000,0.000000,0.000000,0.000000,0.000000,0.000000,0.000000,0.000000,0.000000,1775740409.228359,0.000000
20.000000,17298.931455,19360.768123,-12468.093630,-19.311907,-12414.918830,-4880.212829,1004.308582,389.948534,11669.108173,16415.143480,-522.896710,2388.574468,-16604.440404,18131.265716,2672.039291,1871.332749,0.005000,-0.018000,1.012000,192.000000,0.000000,16.000000,127.500000,64.000000,15.500000,72.000000,0.000000,0.000000,0.000000,1775740409.228385,0.000000
22.000000,17278.457258,19353.257937,-12495.318055,-39.517884,-12431.883804,-4885.130213,990.919887,368.513211,11665.218969,16415.925791,-518.091085,2392.687189,-16596.349072,18134.730236,2677.023730,1881.726310,0.005000,-0.018000,1.012000,192.000000,0.000000,0.000000,0.000000,0.000000,0.000000,0.000000,0.000000,0.000000,0.000000,1775740409.228410,0.000000
24.000000,17283.173476,19355.850739,-12479.023633,-30.934814,-12420.082083,-4894.585001,998.251259,375.554010,11672.215065,16405.308712,-539.057021,2377.689168,-16620.399549,18121.498003,2821.751275,2044.961100,0.005000,-0.018000,1.012000,192.000000,0.000000,0.000000,0.000000,0.000000,0.000000,0.000000,0.000000,0.000000,0.000000,1775740409.228437,0.000000
26.000000,17275.730345,19340.897422,-12485.550342,-34.667556,-12427.636972,-4900.284696,992.082178,369.809612,11657.351155,16412.684788,-519.678059,2385.087596,-16592.638682,18125.521317,2604.224098,1748.666376,0.005000,-0.018000,1.012000,192.000000,0.000000,0.000000,0.000000,0.000000,0.000000,0.000000,0.000000,0.000000,0.000000,1775740409.228467,0.000000
28.000000,17273.830446,19347.401780,-12493.239342,-38.199131,-12428.486339,-4895.814347,992.864489,365.629836,11669.242283,16396.703291,-543.102687,2372.861191,-16619.840755,18113.943114,2834.737639,2081.439147,0.005000,-0.018000,1.012000,192.000000,0.000000,0.000000,0.000000,0.000000,0.000000,0.000000,0.000000,0.000000,0.000000,1775740409.228493,0.000000
30.000000,17290.706014,19350.262803,-12473.145124,-24.497512,-12418.249240,-4878.290579,1000.307620,378.705606,11676.685414,16414.025892,-527.054134,2381.176040,-16602.965188,18129.477576,2681.069396,1879.379377,0.003500,-0.017000,1.009000,192.000000,0.000000,8.000000,127.500000,64.000000,15.500000,56.000000,0.000000,0.000000,0.000000,1775740409.228520,0.000000
32.000000,17268.890711,19343.378466,-12494.915723,-41.998928,-12437.337629,-4895.680236,990.763425,358.812554,11649.326879,16404.168773,-531.703297,2376.526877,-16606.921447,18121.654465,2692.088806,1885.660217,0.003500,-0.017000,1.009000,192.000000,0.000000,0.000000,0.000000,0.000000,0.000000,0.000000,0.000000,0.000000,0.000000,1775740409.228546,0.000000
34.000000,17287.800287,19351.961535,-12479.381261,-30.823056,-12422.540775,-4891.992198,998.072445,370.658978,11670.806905,16405.196953,-542.342727,2375.498697,-16616.622104,18120.693340,2824.299374,2057.098097,0.003500,-0.017000,1.009000,192.000000,0.000000,0.000000,0.000000,0.000000,0.000000,0.000000,0.000000,0.000000,0.000000,1775740409.228572,0.000000
36.000000,17288.336729,19356.029553,-12477.637825,-27.135018,-12408.615638,-4886.337207,999.122977,377.185688,11662.112077,16409.309674,-519.678059,2382.606552,-16585.977863,18128.829375,2607.286287,1755.438954,0.003500,-0.017000,1.009000,192.000000,0.000000,0.000000,0.000000,0.000000,0.000000,0.000000,0.000000,0.000000,0.000000,1775740409.228599,0.000000
38.000000,17284.939263,19353.727323,-12489.596008,-34.488742,-12429.983906,-4889.421748,997.781872,371.731862,11672.125658,16404.235828,-534.609024,2383.142994,-16612.487032,18127.488271,2830.870787,2083.696673,0.003500,-0.017000,1.009000,192.000000,0.000000,0.000000,0.000000,0.000000,0.000000,0.000000,0.000000,0.000000,0.000000,1775740409.228625,0.000000
40.000000,17299.110269,19365.841969,-12466.037269,-18.686058,-12407.252181,-4882.291541,1005.895556,388.115691,11673.980853,16411.723663,-521.265032,2390.027331,-16598.472488,18131.399826,2697.006189,1874.059662,0.003500,-0.017000,1.009000,192.000000,0.000000,0.000000,127.500000,56.000000,15.500000,40.000000,0.000000,0.000000,0.000000,1775740409.228651,0.000000
42.000000,17276.557359,19355.023724,-12492.971121,-35.673384,-12420.640876,-4895.322608,993.624448,368.982597,11657.462914,16404.951084,-524.573091,2385.713444,-16603.300465,18125.297800,2693.005227,1881.234572,0.003500,-0.017000,1.009000,192.000000,0.000000,0.000000,0.000000,0.000000,0.000000,0.000000,0.000000,0.000000,0.000000,1775740409.228677,0.000000
44.000000,17284.313415,19358.488245,-12478.084860,-24.117532,-12405.486394,-4884.236143,1001.805186,378.169164,11681.066356,16405.733395,-534.631376,2385.936962,-16611.168279,18124.470785,2823.673525,2056.405193,0.003500,-0.017000,1.009000,192.000000,0.000000,0.000000,0.000000,0.000000,0.000000,0.000000,0.000000,0.000000,0.000000,1775740409.228703,0.000000
46.000000,17280.088935,19351.648611,-12481.795249,-27.537349,-12413.913001,-4887.141870,998.720646,376.313970,11656.591196,16408.996750,-519.275727,2388.395654,-16590.224694,18133.746759,2609.566165,1752.734393,0.003500,-0.017000,1.009000,192.000000,0.000000,0.000000,0.000000,0.000000,0.000000,0.000000,0.000000,0.000000,0.000000,1775740409.228732,0.000000
48.000000,17277.965519,19358.957631,-12493.015825,-32.365326,-12427.256993,-4890.472280,997.759521,369.630798,11669.018766,16402.246523,-538.721745,2380.907819,-16612.688197,18124.314323,2838.023345,2080.679188,0.003500,-0.017000,1.009000,192.000000,0.000000,0.000000,0.000000,0.000000,0.000000,0.000000,0.000000,0.000000,0.000000,1775740409.228758,0.000000
50.000000,17290.728365,19363.830312,-12471.424040,-16.517939,-12410.314370,-4884.660826,1006.811977,385.344074,11667.498847,16416.395177,-525.444809,2390.608476,-16598.517191,18131.891564,2700.738931,1878.261790,0.004750,-0.017500,1.005500,192.000000,0.000000,24.000000,127.500000,56.000000,15.500000,40.000000,0.000000,0.000000,0.000000,1775740409.228800,0.000000
52.000000,17273.942205,19358.555300,-12498.469651,-35.718088,-12427.234641,-4893.668579,995.122015,367.037996,11647.784608,16403.364110,-529.378716,2384.931133,-16609.558953,18125.498965,2697.676742,1882.598028,0.004750,-0.017500,1.005500,192.000000,0.000000,0.000000,0.000000,0.000000,0.000000,0.000000,0.000000,0.000000,0.000000,1775740409.228827,0.000000
54.000000,17287.532066,19354.643745,-12479.582426,-23.737553,-12413.018932,-4886.806594,1004.621506,382.415996,11671.343347,16400.547791,-537.447695,2384.573505,-16614.588095,18124.716654,2823.293546,2059.266217,0.004750,-0.017500,1.005500,192.000000,0.000000,0.000000,0.000000,0.000000,0.000000,0.000000,0.000000,0.000000,0.000000,1775740409.228853,0.000000
56.000000,17280.468915,19350.218099,-12479.224799,-26.218596,-12414.963533,-4886.359559,1000.553489,381.812499,11649.237472,16405.196953,-515.006544,2391.659008,-16590.515267,18131.623343,2605.274630,1753.404946,0.004750,-0.017500,1.005500,192.000000,0.000000,0.000000,0.000000,0.000000,0.000000,0.000000,0.000000,0.000000,0.000000,1775740409.228878,0.000000
58.000000,17266.677888,19346.485358,-12494.513392,-32.633547,-12428.061656,-4895.657885,997.670114,369.429632,11657.306451,16395.429241,-536.643033,2382.584200,-16616.152718,18124.515489,2829.127351,2080.902705,0.004750,-0.017500,1.005500,192.000000,0.000000,0.000000,0.000000,0.000000,0.000000,0.000000,0.000000,0.000000,0.000000,1775740409.228908,0.000000
60.000000,17281.318281,19355.627222,-12468.272444,-13.276936,-12404.815841,-4877.441213,1010.500015,389.143871,11652.009088,16406.873334,-530.071620,2389.535593,-16602.719319,18131.399826,2690.747701,1881.882773,0.004375,-0.017750,1.003750,192.000000,0.000000,16.000000,127.500000,56.000000,15.500000,40.000000,0.000000,0.000000,0.000000,1775740409.228934,0.000000
62.000000,17247.969478,19331.979076,-12493.932246,-32.968823,-12421.624353,-4878.089413,997.424245,366.434499,11643.962460,16403.051186,-527.747038,2385.847555,-16598.785412,18134.104387,2686.791442,1884.185002,0.004375,-0.017750,1.003750,192.000000,0.000000,0.000000,0.000000,0.000000,0.000000,0.000000,0.000000,0.000000,0.000000,1775740409.228961,0.000000
64.000000,17234.580783,19319.283285,-12481.236456,-22.821131,-12410.850812,-4874.066099,1004.554451,370.167240,11653.417248,16394.423413,-544.913178,2382.114814,-16610.855354,18132.651524,2820.790150,2062.753089,0.004375,-0.017750,1.003750,192.000000,0.000000,0.000000,0.000000,0.000000,0.000000,0.000000,0.000000,0.000000,0.000000,1775740409.228987,0.000000
66.000000,17211.580838,19297.199762,-12485.729156,-27.559701,-12410.180260,-4875.094280,998.228907,361.494763,11613.340570,16394.065785,-536.799495,2374.045834,-16596.304369,18138.597088,2597.295057,1758.367033,0.004375,-0.017750,1.003750,192.000000,0.000000,0.000000,0.000000,0.000000,0.000000,0.000000,0.000000,0.000000,0.000000,1775740409.229013,0.000000
68.000000,17183.641158,19269.952985,-12497.575581,-36.813323,-12417.355170,-4876.345977,994.652628,346.921426,11633.367733,16381.928787,-560.626454,2364.255770,-16614.141061,18132.405654,2828.434447,2085.171888,0.004375,-0.017750,1.003750,192.000000,0.000000,0.000000,0.000000,0.000000,0.000000,0.000000,0.000000,0.000000,0.000000,1775740409.229039,0.000000
70.000000,17167.436143,19253.792674,-12475.648519,-24.989250,-12400.077271,-4858.621044,1001.514614,356.353862,11607.529117,16367.243691,-556.826658,2361.260636,-16600.327683,18134.618477,2693.854593,1889.996456,0.004188,-0.015875,1.001875,192.000000,0.000000,16.000000,127.500000,72.000000,15.500000,32.000000,0.000000,0.000000,0.000000,1775740409.229064,0.000000
72.000000,17137.641267,19228.334037,-12501.800060,-44.792896,-12419.076254,-4877.195344,987.857698,329.911748,11588.530134,16350.412828,-563.532181,2350.241226,-16601.534677,18128.069416,2688.870154,1880.541668,0.004188,-0.015875,1.001875,192.000000,0.000000,0.000000,0.000000,0.000000,0.000000,0.000000,0.000000,0.000000,0.000000,1775740409.229090,0.000000
74.000000,17155.321497,19237.744121,-12482.018767,-31.650070,-12398.311484,-4864.208980,997.625410,343.322795,11605.428053,16356.760723,-577.524373,2343.625110,-16614.252819,18127.756492,2824.120560,2071.045586,0.004188,-0.015875,1.001875,192.000000,0.000000,0.000000,0.000000,0.000000,0.000000,0.000000,0.000000,0.000000,0.000000,1775740409.708905,0.000000
76.000000,17155.120332,19236.179499,-12482.845781,-30.532483,-12397.596228,-4862.711413,995.569050,346.452039,11605.137480,16369.188293,-551.909274,2354.689223,-16581.216941,18138.038294,2607.912136,1758.747012,0.004188,-0.015875,1.001875,192.000000,0.000000,0.000000,0.000000,0.000000,0.000000,0.000000,0.000000,0.000000,0.000000,1775740409.708979,0.000000
78.000000,17153.198082,19238.414674,-12498.536706,-40.166085,-12415.656437,-4877.664730,992.752730,337.198417,11600.868297,16357.923014,-573.232838,2345.927339,-16611.838831,18126.102463,2827.428618,2091.966819,0.004188,-0.015875,1.001875,192.000000,0.000000,0.000000,0.000000,0.000000,0.000000,0.000000,0.000000,0.000000,0.000000,1775740409.709027,0.000000
80.000000,17174.476942,19255.536110,-12478.196618,-21.860006,-12405.084062,-4863.024338,1002.967477,358.343167,11605.003369,16380.945311,-556.446678,2357.751412,-16597.332549,18139.379399,2688.400768,1893.259811,0.004094,-0.012938,1.000938,192.000000,0.000000,16.000000,127.500000,88.000000,15.500000,32.000000,0.000000,0.000000,0.000000,1775740409.709073,0.000000
82.000000,17151.991087,19238.414674,-12506.717444,-48.480934,-12434.007220,-4892.930972,986.427186,328.883568,11581.243465,16365.276738,-567.533143,2343.312185,-16609.804822,18122.302666,2683.058701,1883.559154,0.004094,-0.012938,1.000938,192.000000,0.000000,0.000000,0.000000,0.000000,0.000000,0.000000,0.000000,0.000000,0.000000,1775740409.709150,0.000000
84.000000,17176.779172,19259.447665,-12485.326825,-33.169989,-12415.589382,-4885.241972,1000.195861,347.033184,11606.433881,16369.300052,-576.965580,2345.033270,-16624.802843,18122.928515,2833.217720,2067.938694,0.004094,-0.012938,1.000938,192.000000,0.000000,0.000000,0.000000,0.000000,0.000000,0.000000,0.000000,0.000000,0.000000,1775740409.709208,0.000000
86.000000,17191.620730,19263.247462,-12484.678624,-34.622852,-12414.449443,-4888.840602,997.871279,353.649301,11595.794451,16365.321441,-552.378661,2357.438488,-16600.081813,18126.415387,2609.722627,1752.488524,0.004094,-0.012938,1.000938,192.000000,0.000000,0.000000,0.000000,0.000000,0.000000,0.000000,0.000000,0.000000,0.000000,1775740409.709264,0.000000
88.000000,17201.187277,19280.748878,-12492.680549,-37.863855,-12416.706969,-4887.700664,998.340666,351.883513,11614.435806,16368.070706,-563.822754,2357.952578,-16613.694026,18124.627247,2835.922281,2081.305037,0.004094,-0.012938,1.000938,192.000000,0.000000,0.000000,0.000000,0.000000,0.000000,0.000000,0.000000,0.000000,0.000000,1775740409.709310,0.000000
90.000000,17221.281495,19296.104526,-12473.525104,-25.548044,-12392.410623,-4879.430518,1004.107416,367.373272,11617.140367,16389.416622,-548.131829,2366.625055,-16597.399604,18130.751625,2701.498890,1884.073244,0.007047,-0.013469,1.001469,192.000000,0.000000,40.000000,127.500000,72.000000,15.500000,40.000000,0.000000,0.000000,0.000000,1775740409.709377,0.000000
92.000000,17208.764518,19291.053032,-12498.469651,-42.423611,-12416.572859,-4891.813385,990.070521,348.731917,11611.150099,16378.911302,-550.702280,2363.518162,-16599.411261,18128.404692,2685.718559,1871.444508,0.007047,-0.013469,1.001469,192.000000,0.000000,0.000000,0.000000,0.000000,0.000000,0.000000,0.000000,0.000000,0.000000,1775740409.709443,0.000000
94.000000,17231.138615,19308.777965,-12479.761240,-31.247739,-12403.005350,-4888.214754,1000.732303,363.931103,11633.188919,16386.354433,-556.536085,2363.898142,-16609.290732,18128.225878,2825.640479,2064.809449,0.007047,-0.013469,1.001469,192.000000,0.000000,0.000000,0.000000,0.000000,0.000000,0.000000,0.000000,0.000000,0.000000,1775740409.709510,0.000000
96.000000,17239.207594,19310.007311,-12480.208275,-33.304099,-12403.474737,-4884.213791,999.011218,365.875705,11621.230736,16400.793660,-532.351498,2374.470517,-16582.915674,18138.574736,2603.352380,1748.152286,0.007047,-0.013469,1.001469,192.000000,0.000000,0.000000,0.000000,0.000000,0.000000,0.000000,0.000000,0.000000,0.000000,1775740409.709604,0.000000
98.000000,17238.894670,19318.500974,-12492.255866,-41.529541,-12416.282286,-4886.158393,996.418416,360.421879,11633.300678,16388.701366,-554.323262,2363.562866,-16610.140098,18127.644733,2832.055429,2081.103871,0.007047,-0.013469,1.001469,192.000000,0.000000,0.000000,0.000000,0.000000,0.000000,0.000000,0.000000,0.000000,0.000000,1775740409.709623,0.000000
100.000000,17263.258071,19327.419320,-12468.339499,-25.525692,-12401.284266,-4868.902846,1004.688562,379.130289,11648.097533,16414.338817,-533.938472,2379.074976,-16589.665900,18137.144224,2696.290934,1883.246229,0.007047,-0.013469,1.001469,192.000000,0.000000,0.000000,0.000000,0.000000,0.000000,0.000000,0.000000,0.000000,0.000000,1775740409.709641,0.000000
102.000000,17237.821786,19319.842079,-12495.787441,-42.758887,-12424.038342,-4888.214754,991.277515,357.717318,11620.135500,16392.031776,-536.955957,2371.765956,-16600.171220,18133.210317,2681.382320,1866.996511,0.008000,-0.022000,1.002000,192.000000,0.000000,32.000000,127.500000,40.000000,15.500000,40.000000,0.000000,0.000000,0.000000,1775740409.709654,0.000000
104.000000,17256.329031,19332.560221,-12479.716537,-31.426553,-12411.342551,-4881.978617,1001.559317,370.971903,11644.118922,16393.909322,-547.081297,2372.615322,-16612.621142,18133.165614,2823.606470,2066.955217,0.008000,-0.022000,1.002000,192.000000,0.000000,0.000000,0.000000,0.000000,0.000000,0.000000,0.000000,0.000000,0.000000,1775740409.709665,0.000000
106.000000,17260.911138,19336.494128,-12477.168438,-29.191378,-12413.443615,-4880.905733,1002.207518,375.844583,11633.524195,16406.381596,-521.823826,2383.478270,-16582.915674,18142.978030,2602.525366,1745.000690,0.008000,-0.022000,1.002000,192.000000,0.000000,0.000000,0.000000,0.000000,0.000000,0.000000,0.000000,0.000000,0.000000,1775740409.709687,0.000000
108.000000,17252.730400,19329.900364,-12494.312226,-39.696698,-12423.077217,-4886.918352,995.703160,360.913618,11640.296774,16388.589607,-546.030765,2371.765956,-16614.923372,18127.801195,2828.389743,2081.059168,0.008000,-0.022000,1.002000,192.000000,0.000000,0.000000,0.000000,0.000000,0.000000,0.000000,0.000000,0.000000,0.000000,1775740409.709699,0.000000
110.000000,17275.149199,19340.763311,-12466.841932,-18.887224,-12400.211382,-4867.315873,1008.667172,382.997141,11646.979946,16402.090061,-533.133809,2379.544363,-16595.544409,18137.345390,2692.759358,1892.231630,0.008000,-0.022000,1.002000,192.000000,0.000000,0.000000,0.000000,0.000000,0.000000,0.000000,0.000000,0.000000,0.000000,1775740409.709710,0.000000
112.000000,17250.763446,19328.894535,-12493.351101,-41.775410,-12425.714722,-4885.599600,995.658457,362.500592,11631.713704,16396.256256,-529.468123,2375.699863,-16591.208171,18132.383303,2677.224896,1871.444508,0.016000,-0.024000,1.004000,192.000000,0.000000,64.000000,127.500000,32.000000,15.500000,48.000000,0.000000,0.000000,0.000000,1775740409.709721,0.000000
114.000000,17272.176417,19345.233660,-12470.708784,-27.090314,-12407.028664,-4876.323626,1008.644820,380.404339,11656.926472,16396.502125,-537.715916,2377.756223,-16606.943799,18132.137434,2829.172054,2069.078632,0.016000,-0.024000,1.004000,192.000000,0.000000,0.000000,0.000000,0.000000,0.000000,0.000000,0.000000,0.000000,0.000000,1775740409.709733,0.000000
116.000000,17277.160856,19339.086931,-12472.921607,-28.967861,-12411.566068,-4882.403300,1002.252221,377.319798,11643.180149,16404.280532,-513.576032,2384.484098,-16576.880703,18138.552384,2607.867433,1747.571140,0.016000,-0.024000,1.004000,192.000000,0.000000,0.000000,0.000000,0.000000,0.000000,0.000000,0.000000,0.000000,0.000000,1775740409.709745,0.000000
118.000000,17265.157970,19343.020838,-12484.320996,-35.874550,-12425.625315,-4890.114652,1001.112282,370.390757,11654.020745,16397.463250,-535.748963,2380.460784,-16605.580342,18131.578640,2826.020458,2087.205897,0.016000,-0.024000,1.004000,192.000000,0.000000,0.000000,0.000000,0.000000,0.000000,0.000000,0.000000,0.000000,0.000000,1775740409.709760,0.000000
120.000000,17276.646766,19337.164681,-12462.997432,-24.095181,-12415.321161,-4886.538373,1008.063675,382.795976,11654.311318,16401.955950,-523.768428,2380.594895,-16593.689214,18131.019846,2709.344352,1887.694226,0.016000,-0.024000,1.004000,192.000000,0.000000,0.000000,0.000000,0.000000,0.000000,0.000000,0.000000,0.000000,0.000000,1775740409.709776,0.000000
122.000000,17258.340688,19329.319218,-12489.975988,-41.730707,-12429.849795,-4895.009684,996.150195,363.349958,11635.982887,16391.987072,-525.936547,2374.604627,-16598.114860,18126.080111,2682.186983,1860.112174,0.010000,-0.022000,1.000000,192.000000,0.000000,40.000000,127.500000,40.000000,15.500000,32.000000,0.000000,0.000000,0.000000,1775740409.709790,0.000000
124.000000,17277.943167,19342.752617,-12471.781668,-27.783218,-12414.628257,-4882.716225,1007.616640,379.711435,11657.708783,16391.093003,-537.894730,2372.280046,-16614.811613,18120.045140,2828.859130,2066.463478,0.010000,-0.022000,1.000000,192.000000,0.000000,0.000000,0.000000,0.000000,0.000000,0.000000,0.000000,0.000000,0.000000,1775740409.709802,0.000000
126.000000,17280.960653,19345.479530,-12468.741830,-29.906634,-12412.102510,-4880.324588,1004.867375,382.728920,11652.098495,16410.807241,-505.708218,2387.590991,-16577.104220,18136.540727,2597.831499,1743.927806,0.010000,-0.022000,1.000000,192.000000,0.000000,0.000000,0.000000,0.000000,0.000000,0.000000,0.000000,0.000000,0.000000,1775740409.709814,0.000000
128.000000,17271.170589,19341.098588,-12485.907970,-41.954224,-12426.295868,-4887.499498,997.491300,370.100185,11661.150952,16389.886008,-533.156160,2375.141069,-16608.910752,18122.883811,2832.994203,2079.382787,0.010000,-0.022000,1.000000,192.000000,0.000000,0.000000,0.000000,0.000000,0.000000,0.000000,0.000000,0.000000,0.000000,1775740409.709826,0.000000
130.000000,17283.665214,19343.758445,-12461.075182,-23.558739,-12402.603019,-4871.518001,1008.108378,385.612295,11659.228701,16402.067709,-517.666402,2382.539497,-16585.463772,18134.685532,2701.878870,1888.811813,0.010000,-0.022000,1.000000,192.000000,0.000000,0.000000,0.000000,0.000000,0.000000,0.000000,0.000000,0.000000,0.000000,1775740409.709837,0.000000
132.000000,17268.488380,19337.410550,-12490.020691,-43.854123,-12416.461100,-4879.586980,992.417454,363.148792,11646.801132,16395.563352,-520.817998,2376.124546,-16581.507514,18133.456186,2680.197678,1863.129659,0.008000,-0.020000,0.998000,192.000000,0.000000,32.000000,127.500000,48.000000,15.500000,24.000000,0.000000,0.000000,0.000000,1775740409.709849,0.000000
134.000000,17291.264807,19353.950841,-12472.206351,-28.096143,-12397.372710,-4866.198285,1003.548623,378.057406,11670.203408,16397.999692,-534.184341,2376.415119,-16595.387947,18132.338599,2834.514121,2080.902705,0.008000,-0.020000,0.998000,192.000000,0.000000,0.000000,0.000000,0.000000,0.000000,0.000000,0.000000,0.000000,0.000000,1775740409.709860,0.000000
136.000000,17272.958728,19345.054846,-12474.150953,-29.928986,-12404.368806,-4866.377099,999.525309,375.643417,11653.149027,16405.711044,-513.866605,2382.874773,-16573.483237,18142.352181,2602.860642,1749.560445,0.008000,-0.020000,0.998000,192.000000,0.000000,0.000000,0.000000,0.000000,0.000000,0.000000,0.000000,0.000000,0.000000,1775740409.709872,0.000000
138.000000,17268.689545,19344.339591,-12488.634883,-39.294367,-12415.611734,-4870.623931,994.607925,363.953455,11660.882731,16390.757727,-535.346631,2372.212991,-16602.249933,18132.405654,2836.481075,2091.564487,0.008000,-0.020000,0.998000,192.000000,0.000000,0.000000,0.000000,0.000000,0.000000,0.000000,0.000000,0.000000,0.000000,1775740409.709883,0.000000
140.000000,17294.885790,19360.812826,-12459.510560,-17.791989,-12396.165716,-4855.245931,1007.840157,386.752234,11664.056678,16406.001616,-519.856873,2378.605590,-16584.368537,18142.396884,2705.745722,1896.344351,0.008000,-0.020000,0.998000,192.000000,0.000000,0.000000,0.000000,0.000000,0.000000,0.000000,0.000000,0.000000,0.000000,1775740409.709895,0.000000
142.000000,17270.522388,19340.785663,-12491.451203,-39.227312,-12424.977115,-4875.004873,991.322218,362.388833,11652.344364,16401.374805,-515.610041,2377.622113,-16580.948720,18141.458111,2677.448413,1862.101479,0.010000,-0.014000,0.996000,192.000000,0.000000,40.000000,127.500000,72.000000,15.500000,16.000000,0.000000,0.000000,0.000000,1775740409.709906,0.000000
144.000000,17288.180266,19354.107303,-12473.458049,-22.307041,-12407.833327,-4862.733765,1004.979134,379.867897,11669.063469,16397.798526,-534.474913,2375.655159,-16604.261590,18137.010114,2831.094304,2083.987246,0.010000,-0.014000,0.996000,192.000000,0.000000,0.000000,0.000000,0.000000,0.000000,0.000000,0.000000,0.000000,0.000000,1775740409.709917,0.000000
146.000000,17283.486400,19348.161739,-12475.156781,-23.446980,-12409.152080,-4865.080698,1002.118111,378.146813,11650.086838,16406.739224,-508.837463,2384.841726,-16575.271377,18144.252079,2592.623543,1744.866579,0.010000,-0.014000,0.996000,192.000000,0.000000,0.000000,0.000000,0.000000,0.000000,0.000000,0.000000,0.000000,0.000000,1775740409.709929,0.000000
148.000000,17275.886807,19340.740960,-12496.927380,-37.260358,-12428.173414,-4873.306140,993.400931,361.315949,11655.183036,16386.197971,-540.778105,2371.453031,-16611.391796,18128.650561,2830.200235,2089.843403,0.010000,-0.014000,0.996000,192.000000,0.000000,0.000000,0.000000,0.000000,0.000000,0.000000,0.000000,0.000000,0.000000,1775740409.709941,0.000000
150.000000,17286.861513,19348.765236,-12468.048926,-20.138922,-12405.218173,-4860.252721,1005.359114,382.036016,11660.525103,16397.485602,-527.411762,2382.807718,-16593.063366,18134.752588,2700.224841,1893.684494,0.010000,-0.014000,0.996000,192.000000,0.000000,0.000000,0.000000,0.000000,0.000000,0.000000,0.000000,0.000000,0.000000,1775740409.709952,0.000000
152.000000,17265.537949,19338.930468,-12496.748566,-42.110687,-12426.899365,-4874.155506,989.422320,359.214885,11643.895405,16385.639177,-527.367059,2375.476345,-16592.504572,18128.628210,2675.414404,1856.200618,0.008000,-0.016000,1.002000,192.000000,0.000000,32.000000,127.500000,64.000000,15.500000,40.000000,0.000000,0.000000,0.000000,1775740409.709964,0.000000
154.000000,17284.872208,19352.945012,-12476.654348,-26.106838,-12405.508745,-4867.673500,1003.056884,376.246914,11662.514408,16385.683881,-542.253320,2374.694034,-16610.140098,18127.689436,2830.826084,2084.814261,0.008000,-0.016000,1.002000,192.000000,0.000000,0.000000,0.000000,0.000000,0.000000,0.000000,0.000000,0.000000,0.000000,1775740409.709978,0.000000
156.000000,17282.637034,19346.239489,-12477.548418,-29.213730,-12404.435862,-4872.546181,998.340666,375.442252,11646.667021,16398.714948,-514.715971,2386.272238,-16577.573607,18139.021771,2596.736264,1738.406925,0.008000,-0.016000,1.002000,192.000000,0.000000,0.000000,0.000000,0.000000,0.000000,0.000000,0.000000,0.000000,0.000000,1775740409.709990,0.000000
158.000000,17275.104496,19342.573803,-12496.234476,-38.377945,-12427.547565,-4882.827983,993.378579,364.199324,11650.310355,16381.057069,-539.995794,2373.464688,-16615.146889,18121.632114,2830.066124,2084.367226,0.008000,-0.016000,1.002000,192.000000,0.000000,0.000000,0.000000,0.000000,0.000000,0.000000,0.000000,0.000000,0.000000,1775740409.710001,0.000000
160.000000,17291.667139,19353.950841,-12467.870112,-17.389657,-12406.536926,-4870.400413,1008.220137,387.914525,11656.904120,16395.831573,-521.980288,2385.981665,-16596.907866,18131.288067,2700.269544,1894.332694,0.008000,-0.016000,1.002000,192.000000,0.000000,0.000000,0.000000,0.000000,0.000000,0.000000,0.000000,0.000000,0.000000,1775740409.710012,0.000000
162.000000,17270.120057,19343.445521,-12497.888505,-35.718088,-12427.726379,-4875.675425,994.272649,367.708548,11641.324954,16392.255293,-520.013335,2383.165346,-16595.320892,18128.404692,2665.736099,1853.317243,0.010000,-0.016000,1.000000,192.000000,0.000000,40.000000,127.500000,64.000000,15.500000,32.000000,0.000000,0.000000,0.000000,1775740409.710024,0.000000
164.000000,17291.778897,19354.062599,-12480.901179,-21.547082,-12413.801243,-4860.006852,1004.263878,379.040882,11662.290890,16394.423413,-537.201826,2380.773709,-16615.817441,18129.254059,2829.037944,2085.529516,0.010000,-0.016000,1.000000,192.000000,0.000000,0.000000,0.000000,0.000000,0.000000,0.000000,0.000000,0.000000,0.000000,1775740409.710035,0.000000
166.000000,17283.553455,19355.090780,-12477.391956,-23.692849,-12413.555373,-4865.058346,1000.754654,382.840679,11642.643707,16403.699387,-512.011410,2386.093424,-16589.129459,18136.540727,2589.851927,1741.603224,0.010000,-0.016000,1.000000,192.000000,0.000000,0.000000,0.000000,0.000000,0.000000,0.000000,0.000000,0.000000,0.000000,1775740409.710047,0.000000
168.000000,17278.032574,19357.638879,-12488.701938,-33.974652,-12423.904231,-4866.555913,997.580707,374.905810,11660.614510,16393.529343,-530.764524,2381.868944,-16609.111918,18127.935306,2825.998107,2084.478984,0.010000,-0.016000,1.000000,192.000000,0.000000,0.000000,0.000000,0.000000,0.000000,0.000000,0.000000,0.000000,0.000000,1775740409.710059,0.000000
170.000000,17284.134601,19353.235585,-12466.350194,-20.675364,-12408.414472,-4866.690024,1004.755617,385.008798,11660.525103,16402.470041,-518.828692,2386.652218,-16590.805839,18131.511585,2704.739893,1890.219973,0.010000,-0.016000,1.000000,192.000000,0.000000,0.000000,0.000000,0.000000,0.000000,0.000000,0.000000,0.000000,0.000000,1775740409.710070,0.000000
172.000000,17262.967499,19342.998486,-12495.563924,-41.373079,-12428.151063,-4879.944608,990.517556,359.684272,11636.608736,16385.147439,-523.969594,2373.017654,-16596.572589,18122.660294,2671.078166,1848.757487,0.009000,-0.015000,1.001000,192.000000,0.000000,32.000000,127.500000,72.000000,15.500000,40.000000,0.000000,0.000000,0.000000,1775740409.710082,0.000000
174.000000,17282.704089,19351.670963,-12479.045985,-27.962032,-12412.415434,-4862.331434,1002.945125,374.347016,11664.593120,16385.773288,-539.816980,2372.905895,-16608.687235,18122.146204,2829.864959,2078.421662,0.009000,-0.015000,1.001000,192.000000,0.000000,0.000000,0.000000,0.000000,0.000000,0.000000,0.000000,0.000000,0.000000,1775740409.710093,0.000000
176.000000,17266.253205,19343.579631,-12481.079993,-29.839579,-12415.432920,-4872.881457,999.391198,369.787260,11637.793379,16393.283474,-519.655707,2378.337369,-16581.440458,18126.348332,2590.924810,1733.847169,0.009000,-0.015000,1.001000,192.000000,0.000000,0.000000,0.000000,0.000000,0.000000,0.000000,0.000000,0.000000,0.000000,1775740409.710104,0.000000
178.000000,17241.755693,19325.295904,-12502.448261,-45.865780,-12439.304583,-4888.952361,988.483547,351.280016,11637.256937,16371.199950,-552.155143,2364.993377,-16621.673598,18111.193849,2825.685182,2080.835650,0.009000,-0.015000,1.001000,192.000000,0.000000,0.000000,0.000000,0.000000,0.000000,0.000000,0.000000,0.000000,0.000000,1775740409.710116,0.000000
180.000000,17264.800342,19336.158852,-12469.702955,-23.782256,-12421.959629,-4874.155506,1003.883899,374.548182,11639.581518,16378.732488,-537.335937,2371.631845,-16610.721244,18113.585486,2707.556213,1890.734063,0.009000,-0.015000,1.001000,192.000000,0.000000,0.000000,0.000000,0.000000,0.000000,0.000000,0.000000,0.000000,0.000000,1775740409.710127,0.000000
182.000000,17248.997658,19330.123881,-12491.585313,-41.127210,-12439.416342,-4887.477146,993.825614,355.213923,11628.360942,16372.764572,-530.004565,2368.346139,-16607.681406,18111.372663,2665.892561,1838.989775,0.005500,-0.012500,1.001500,192.000000,0.000000,8.000000,127.500000,88.000000,15.500000,40.000000,0.000000,0.000000,0.000000,1775740409.710139,0.000000
184.000000,17269.851836,19350.016934,-12471.938130,-30.241910,-12415.634086,-4877.597675,1003.526271,370.234295,11657.753486,16378.017232,-539.235835,2369.754299,-16617.270305,18110.947980,2833.441238,2077.482888,0.005500,-0.012500,1.001500,192.000000,0.000000,0.000000,0.000000,0.000000,0.000000,0.000000,0.000000,0.000000,0.000000,1775740409.710152,0.000000
186.000000,17280.133638,19344.384294,-12468.317147,-31.627718,-12413.465966,-4870.869800,1001.648724,373.698816,11647.471684,16389.528381,-511.944355,2379.164383,-16581.038127,18119.799271,2597.518575,1733.489541,0.005500,-0.012500,1.001500,192.000000,0.000000,0.000000,0.000000,0.000000,0.000000,0.000000,0.000000,0.000000,0.000000,1775740409.710167,0.000000
188.000000,17263.235720,19346.217137,-12490.087746,-43.205922,-12430.676810,-4869.707509,993.758558,361.897094,11663.564940,16374.105677,-537.425344,2368.457898,-16607.703758,18108.533991,2829.440275,2075.113603,0.005500,-0.012500,1.001500,192.000000,0.000000,0.000000,0.000000,0.000000,0.000000,0.000000,0.000000,0.000000,0.000000,1775740409.710180,0.000000
190.000000,17282.368813,19358.488245,-12464.115019,-22.754076,-12394.623446,-4855.916483,1006.342591,382.550106,11663.430829,16398.893762,-521.175625,2384.484098,-16587.788354,18125.498965,2708.226765,1895.494985,0.005500,-0.012500,1.001500,192.000000,0.000000,0.000000,0.000000,0.000000,0.000000,0.000000,0.000000,0.000000,0.000000,1775740409.710191,0.000000
192.000000,17256.507845,19343.266707,-12494.111060,-39.942567,-12412.527193,-4869.238123,994.250297,357.337339,11640.207367,16388.164924,-522.047343,2377.420947,-16588.324796,18120.402768,2673.738023,1844.421249,0.006750,-0.013250,1.002750,192.000000,0.000000,32.000000,127.500000,72.000000,15.500000,48.000000,0.000000,0.000000,0.000000,1775740409.710203,0.000000
194.000000,17260.620565,19343.333762,-12484.253941,-29.772524,-12413.689484,-4865.192457,1001.648724,362.567647,11661.173303,16379.023061,-545.650786,2369.888409,-16604.641569,18110.836221,2838.448028,2084.143708,0.006750,-0.013250,1.002750,192.000000,0.000000,0.000000,0.000000,0.000000,0.000000,0.000000,0.000000,0.000000,0.000000,1775740409.710214,0.000000
196.000000,17259.748847,19343.467873,-12477.950749,-30.756000,-12411.588420,-4867.986425,1001.291096,370.971903,11636.474626,16386.890875,-520.639184,2374.403462,-16581.529865,18114.524259,2593.271743,1741.044431,0.006750,-0.013250,1.002750,192.000000,0.000000,0.000000,0.000000,0.000000,0.000000,0.000000,0.000000,0.000000,0.000000,1775740410.189045,0.000000
198.000000,17257.625432,19351.290983,-12492.032348,-40.858989,-12423.792472,-4874.647245,997.379541,363.282903,11644.029515,16372.518703,-539.571111,2367.988511,-16608.486069,18102.119041,2824.768761,2076.320598,0.006750,-0.013250,1.002750,192.000000,0.000000,0.000000,0.000000,0.000000,0.000000,0.000000,0.000000,0.000000,0.000000,1775740410.189106,0.000000
200.000000,17271.103534,19355.560166,-12463.444467,-22.530558,-12401.060748,-4866.555913,1007.594288,383.690045,11653.998393,16387.427317,-523.679021,2379.030273,-16596.371424,18112.981989,2706.505681,1898.154843,0.006750,-0.013250,1.002750,192.000000,0.000000,0.000000,0.000000,0.000000,0.000000,0.000000,0.000000,0.000000,0.000000,1775740410.189144,0.000000
202.000000,17255.300850,19338.349323,-12491.853534,-42.669480,-12426.362923,-4881.308065,991.702198,361.740632,11637.145178,16377.056107,-521.466198,2374.671683,-16592.035185,18106.701148,2664.171477,1841.850798,0.009375,-0.014625,1.003375,192.000000,0.000000,48.000000,127.500000,64.000000,15.500000,48.000000,0.000000,0.000000,0.000000,1775740410.189191,0.000000
204.000000,17257.491321,19346.127730,-12478.509543,-25.391582,-12411.610772,-4869.796916,1003.034532,372.804746,11658.647556,16377.614901,-538.431172,2371.788308,-16612.799956,18105.896486,2831.429581,2085.708330,0.009375,-0.014625,1.003375,192.000000,0.000000,0.000000,0.000000,0.000000,0.000000,0.000000,0.000000,0.000000,0.000000,1775740410.189237,0.000000
206.000000,17264.867397,19349.256974,-12470.597025,-20.094218,-12403.586495,-4862.264378,1004.107416,377.386853,11637.458102,16389.483677,-515.654745,2380.214915,-16581.440458,18117.787614,2596.021008,1741.826742,0.009375,-0.014625,1.003375,192.000000,0.000000,0.000000,0.000000,0.000000,0.000000,0.000000,0.000000,0.000000,0.000000,1775740410.189284,0.000000
208.000000,17256.172568,19354.084951,-12487.249075,-35.874550,-12420.529118,-4867.986425,994.272649,364.355786,11655.875940,16379.090116,-536.307756,2372.883543,-16608.463718,18110.433890,2829.015592,2079.271028,0.009375,-0.014625,1.003375,192.000000,0.000000,0.000000,0.000000,0.000000,0.000000,0.000000,0.000000,0.000000,0.000000,1775740410.189330,0.000000
210.000000,17272.623452,19355.314297,-12456.336612,-18.283727,-12399.943161,-4856.899960,1005.672038,385.500537,11661.799152,16394.132840,-520.169797,2380.259619,-16585.754345,18118.145242,2708.472634,1907.900203,0.009375,-0.014625,1.003375,192.000000,0.000000,0.000000,0.000000,0.000000,0.000000,0.000000,0.000000,0.000000,0.000000,1775740410.189351,0.000000
212.000000,17258.407743,19352.721495,-12485.058604,-38.757925,-12429.112188,-4869.595751,990.629314,364.914580,11645.862358,16396.189200,-513.531329,2382.405386,-16583.496819,18118.614628,2661.891599,1846.410554,0.009688,-0.016313,1.002687,192.000000,0.000000,40.000000,127.500000,56.000000,15.500000,40.000000,0.000000,0.000000,0.000000,1775740410.189363,0.000000
214.000000,17262.185188,19354.822559,-12470.842894,-28.453771,-12413.577725,-4861.839695,1000.084102,374.369368,11664.861341,16393.864619,-532.038573,2379.589066,-16604.775680,18113.697244,2830.803732,2085.909496,0.009688,-0.016313,1.002687,192.000000,0.000000,0.000000,0.000000,0.000000,0.000000,0.000000,0.000000,0.000000,0.000000,1775740410.189375,0.000000
216.000000,17254.943222,19340.226870,-12476.162610,-33.192341,-12416.684618,-4875.049576,994.272649,365.987464,11636.564033,16388.768421,-518.493416,2375.364587,-16585.709642,18109.405709,2605.051113,1741.245597,0.009688,-0.016313,1.002687,192.000000,0.000000,0.000000,0.000000,0.000000,0.000000,0.000000,0.000000,0.000000,0.000000,1775740410.189387,0.000000
218.000000,17229.238716,19334.057788,-12499.363720,-40.724878,-12434.208385,-4873.373195,988.483547,351.637644,11643.582480,16374.262139,-543.370908,2364.747508,-16612.643494,18100.532067,2826.199272,2082.623790,0.009688,-0.016313,1.002687,192.000000,0.000000,0.000000,0.000000,0.000000,0.000000,0.000000,0.000000,0.000000,0.000000,1775740410.189406,0.000000
220.000000,17257.536025,19345.323067,-12470.909950,-21.122399,-12410.940219,-4859.045727,1002.028704,373.676464,11641.593175,16384.119258,-532.619719,2370.424851,-16600.662959,18108.288122,2713.054742,1911.409427,0.009688,-0.016313,1.002687,192.000000,0.000000,0.000000,0.000000,0.000000,0.000000,0.000000,0.000000,0.000000,0.000000,1775740410.189418,0.000000
222.000000,17240.012257,19344.272535,-12502.001226,-42.937701,-12434.610717,-4881.241009,987.723587,357.449097,11628.763274,16380.520628,-528.439942,2369.016691,-16601.199401,18104.376567,2669.401785,1843.661290,0.007844,-0.017156,1.001344,192.000000,0.000000,24.000000,127.500000,56.000000,15.500000,32.000000,0.000000,0.000000,0.000000,1775740410.189430,0.000000
224.000000,17246.248394,19352.073294,-12487.696110,-28.029088,-12421.602001,-4874.893114,999.815881,371.709510,11650.846797,16377.860770,-543.437963,2372.950598,-16621.494785,18100.666177,2834.223549,2088.099967,0.007844,-0.017156,1.001344,192.000000,0.000000,0.000000,0.000000,0.000000,0.000000,0.000000,0.000000,0.000000,0.000000,1775740410.189442,0.000000
226.000000,17246.158987,19346.820634,-12484.209238,-22.932890,-12423.770121,-4868.634626,1001.156986,376.984522,11623.152986,16383.225189,-516.258242,2385.199354,-16594.136249,18107.729329,2594.836366,1743.167847,0.007844,-0.017156,1.001344,192.000000,0.000000,0.000000,0.000000,0.000000,0.000000,0.000000,0.000000,0.000000,0.000000,1775740410.189453,0.000000
228.000000,17234.111397,19341.880899,-12503.096462,-32.521788,-12442.232662,-4878.625855,995.300829,360.801859,11628.115073,16369.344755,-541.202788,2377.063319,-16624.199346,18094.899427,2815.291621,2074.308941,0.007844,-0.017156,1.001344,192.000000,0.000000,0.000000,0.000000,0.000000,0.000000,0.000000,0.000000,0.000000,0.000000,1775740410.189465,0.000000
230.000000,17252.015144,19354.219062,-12472.474572,-11.488797,-12417.019894,-4863.449021,1007.527233,379.957304,11636.228756,16384.633349,-526.808265,2381.265447,-16613.403453,18102.543724,2701.610649,1906.469692,0.007844,-0.017156,1.001344,192.000000,0.000000,0.000000,0.000000,0.000000,0.000000,0.000000,0.000000,0.000000,0.000000,1775740410.189477,0.000000
232.000000,17231.853870,19340.428035,-12496.167421,-34.958128,-12434.007220,-4880.950437,990.696369,356.912655,11625.142291,16381.347642,-522.896710,2377.711520,-16601.288808,18103.683663,2653.286177,1840.710859,0.006922,-0.014578,0.999672,192.000000,0.000000,24.000000,127.500000,80.000000,15.500000,24.000000,0.000000,0.000000,0.000000,1775740410.189489,0.000000
234.000000,17249.645859,19360.589309,-12470.038232,-20.653012,-12417.064597,-4867.472335,1005.113245,377.073929,11654.154856,16381.191180,-534.206692,2377.353892,-16614.744558,18097.156953,2834.782342,2090.268086,0.006922,-0.014578,0.999672,192.000000,0.000000,0.000000,0.000000,0.000000,0.000000,0.000000,0.000000,0.000000,0.000000,1775740410.189501,0.000000
236.000000,17254.384429,19357.236547,-12467.244264,-20.518901,-12415.589382,-4868.746384,1003.727437,379.689083,11641.369658,16398.491430,-503.651858,2391.591953,-16580.412278,18111.864401,2595.350456,1742.854922,0.006922,-0.014578,0.999672,192.000000,0.000000,0.000000,0.000000,0.000000,0.000000,0.000000,0.000000,0.000000,0.000000,1775740410.189513,0.000000
238.000000,17239.587574,19352.587384,-12488.523124,-33.885245,-12430.475644,-4874.423727,996.686637,364.020510,11644.878882,16382.308767,-533.491437,2377.778575,-16614.543392,18097.693395,2822.332421,2070.375034,0.006922,-0.014578,0.999672,192.000000,0.000000,0.000000,0.000000,0.000000,0.000000,0.000000,0.000000,0.000000,0.000000,1775740410.189525,0.000000
240.000000,17252.708048,19363.427980,-12459.421153,-15.154483,-12409.554411,-4862.756117,1009.270669,384.807633,11643.537777,16392.858791,-520.594480,2387.054549,-16593.935084,18106.701148,2710.528995,1904.569793,0.006922,-0.014578,0.999672,192.000000,0.000000,0.000000,0.000000,0.000000,0.000000,0.000000,0.000000,0.000000,0.000000,1775740410.189541,0.000000
242.000000,17244.437903,19350.106341,-12484.209238,-33.907596,-12425.737074,-4870.914503,997.468948,366.948589,11630.506710,16387.181447,-513.106646,2382.181869,-16590.649377,18105.538858,2661.399861,1839.995604,0.006922,-0.014578,0.999672,192.000000,0.000000,0.000000,0.000000,0.000000,0.000000,0.000000,0.000000,0.000000,0.000000,1775740410.189552,0.000000
244.000000,17251.433999,19361.371620,-12469.770011,-19.066038,-12415.924658,-4859.738631,1008.935393,383.645342,11651.964385,16388.455497,-525.444809,2380.751357,-16611.458851,18102.700186,2840.951424,2096.794796,0.006000,-0.018000,1.000000,192.000000,0.000000,24.000000,127.500000,56.000000,15.500000,32.000000,0.000000,0.000000,0.000000,1775740410.189564,0.000000
246.000000,17245.689600,19356.118960,-12465.769048,-17.099085,-12414.784719,-4864.432498,1007.974268,386.461662,11635.893480,16397.530305,-499.673247,2393.894183,-16579.294691,18112.244381,2594.679903,1752.041489,0.006000,-0.018000,1.000000,192.000000,0.000000,0.000000,0.000000,0.000000,0.000000,0.000000,0.000000,0.000000,0.000000,1775740410.189575,0.000000
248.000000,17232.435016,19351.939184,-12484.946845,-28.833750,-12434.945993,-4873.663768,1001.156986,369.809612,11645.750600,16381.504104,-522.382620,2385.735796,-16608.351959,18102.119041,2818.130293,2075.203010,0.006000,-0.018000,1.000000,192.000000,0.000000,0.000000,0.000000,0.000000,0.000000,0.000000,0.000000,0.000000,0.000000,1775740410.189588,0.000000
250.000000,17242.158025,19358.264727,-12455.308432,-8.985401,-12417.511632,-4869.819268,1015.149178,388.182746,11644.878882,16386.980282,-513.866605,2391.457843,-16597.310197,18105.494154,2712.607707,1910.872985,0.006000,-0.018000,1.000000,192.000000,0.000000,0.000000,0.000000,0.000000,0.000000,0.000000,0.000000,0.000000,0.000000,1775740410.189601,0.000000
252.000000,17222.823766,19339.802186,-12484.499810,-31.180684,-12438.052885,-4890.964018,999.346495,365.451022,11622.795358,16379.671261,-511.609079,2386.383997,-16595.879685,18097.983968,2657.912988,1834.273557,0.006000,-0.018000,1.000000,192.000000,0.000000,0.000000,0.000000,0.000000,0.000000,0.000000,0.000000,0.000000,0.000000,1775740410.189613,0.000000
254.000000,17236.972420,19356.431884,-12464.673813,-20.608308,-12424.954763,-4878.379986,1011.505844,382.192478,11647.114056,16376.273796,-530.004565,2382.695959,-16613.783433,18089.177381,2840.414982,2088.994037,0.012000,-0.016000,0.996000,192.000000,0.000000,48.000000,127.500000,64.000000,15.500000,16.000000,0.000000,0.000000,0.000000,1775740410.189625,0.000000
0.000000,17243.253260,19355.694277,-12460.650499,-21.792951,-12422.116092,-4872.747346,1009.449483,387.623952,11626.841024,16388.164924,-497.929811,2391.413139,-16584.122668,18098.006320,2598.256182,1738.004594,0.012000,-0.016000,0.996000,192.000000,0.000000,0.000000,0.000000,0.000000,0.000000,0.000000,0.000000,0.000000,0.000000,1775740410.189636,0.000000
2.000000,17222.980228,19350.016934,-12484.969197,-35.427515,-12432.129673,-4880.302236,999.078274,368.893190,11633.255974,16374.619767,-522.673192,2380.170212,-16612.688197,18087.858628,2820.097246,2065.569409,0.012000,-0.016000,0.996000,192.000000,0.000000,0.000000,0.000000,0.000000,0.000000,0.000000,0.000000,0.000000,0.000000,1775740410.189648,0.000000
4.000000,17237.933545,19360.365791,-12461.768086,-13.321640,-12411.923696,-4863.806649,1009.829463,388.965057,11636.228756,16384.566293,-513.844253,2386.383997,-16602.853430,18094.765317,2714.373495,1910.202433,0.012000,-0.016000,0.996000,192.000000,0.000000,0.000000,0.000000,0.000000,0.000000,0.000000,0.000000,0.000000,0.000000,1775740410.189659,0.000000
6.000000,17212.765481,19341.970306,-12492.904066,-31.761829,-12436.018877,-4879.251704,994.697332,365.495725,11619.554355,16378.441915,-513.441922,2384.752319,-16594.471525,18096.017015,2649.732250,1836.016993,0.012000,-0.016000,0.996000,192.000000,0.000000,0.000000,0.000000,0.000000,0.000000,0.000000,0.000000,0.000000,0.000000,1775740410.189671,0.000000
8.000000,17225.528327,19352.967364,-12478.107211,-16.316773,-12421.825519,-4864.454849,1006.096721,376.224563,11637.905137,16375.580892,-536.061887,2380.974875,-16616.689159,18092.373680,2831.809560,2099.924040,0.012000,-0.016000,1.002000,192.000000,0.000000,48.000000,127.500000,64.000000,15.500000,40.000000,0.000000,0.000000,0.000000,1775740410.189682,0.000000
10.000000,17215.067710,19337.030570,-12475.089726,-17.099085,-12415.947010,-4865.728899,1002.274573,374.190554,11621.342495,16385.169790,-511.966707,2388.239192,-16587.453078,18100.666177,2591.505956,1756.534190,0.012000,-0.016000,1.002000,192.000000,0.000000,0.000000,0.000000,0.000000,0.000000,0.000000,0.000000,0.000000,0.000000,1775740410.189694,0.000000
12.000000,17199.577951,19339.489262,-12492.881714,-33.192341,-12433.537833,-4869.662806,993.915021,359.974844,11618.973210,16364.226206,-539.995794,2371.833011,-16616.219773,18084.170590,2813.905813,2076.342949,0.012000,-0.016000,1.002000,192.000000,0.000000,0.000000,0.000000,0.000000,0.000000,0.000000,0.000000,0.000000,0.000000,1775740410.189706,0.000000
14.000000,17220.141556,19355.247242,-12459.644670,-14.707448,-12403.184164,-4857.659919,1007.035495,384.315894,11633.568899,16383.627520,-517.867567,2385.177003,-16592.191648,18095.927608,2714.619364,1913.465788,0.012000,-0.016000,1.002000,192.000000,0.000000,0.000000,0.000000,0.000000,0.000000,0.000000,0.000000,0.000000,0.000000,1775740410.189718,0.000000
16.000000,17195.755803,19342.059713,-12488.009034,-37.617986,-12425.714722,-4874.155506,992.283343,363.126440,11612.290038,16372.272834,-516.571166,2379.857287,-16588.436554,18088.842105,2654.895503,1835.502903,0.012000,-0.016000,1.002000,192.000000,0.000000,0.000000,0.000000,0.000000,0.000000,0.000000,0.000000,0.000000,0.000000,1775740410.189729,0.000000
18.000000,17210.440899,19355.984849,-12473.189828,-25.726858,-12416.550507,-4870.311006,1004.107416,379.465566,11638.687448,16374.060973,-529.713992,2379.946694,-16604.194534,18084.014128,2838.313918,2098.158252,0.008000,-0.008000,1.006000,192.000000,0.000000,32.000000,127.500000,96.000000,15.500000,56.000000,0.000000,0.000000,0.000000,1775740410.189741,0.000000
20.000000,17211.782004,19343.333762,-12469.881769,-25.480989,-12411.968400,-4876.904771,1002.408684,380.002007,11623.309448,16377.994880,-508.010448,2385.221706,-16582.267473,18086.584578,2597.876203,1751.035661,0.008000,-0.008000,1.006000,192.000000,0.000000,0.000000,0.000000,0.000000,0.000000,0.000000,0.000000,0.000000,0.000000,1775740410.189752,0.000000
22.000000,17197.476887,19346.619469,-12489.618360,-35.382811,-12428.620449,-4878.491745,995.077311,364.422842,11624.024704,16359.554691,-532.932643,2371.877715,-16610.855354,18072.324165,2819.471397,2072.543153,0.008000,-0.008000,1.006000,192.000000,0.000000,0.000000,0.000000,0.000000,0.000000,0.000000,0.000000,0.000000,0.000000,1775740410.189763,0.000000
24.000000,17213.726606,19352.117998,-12460.628147,-13.746323,-12405.106414,-4860.587998,1007.929564,383.779452,11631.110207,16376.787886,-517.375829,2383.344160,-16594.203305,18086.897503,2718.463864,1922.272375,0.008000,-0.008000,1.006000,192.000000,0.000000,0.000000,0.000000,0.000000,0.000000,0.000000,0.000000,0.000000,0.000000,1775740410.189775,0.000000
26.000000,17188.625597,19346.351248,-12487.494944,-35.919253,-12423.613658,-4865.952416,993.088006,363.998158,11612.535907,16374.887988,-517.420532,2380.036101,-16591.476392,18087.411593,2658.337672,1831.300775,0.008000,-0.008000,1.006000,192.000000,0.000000,0.000000,0.000000,0.000000,0.000000,0.000000,0.000000,0.000000,0.000000,1775740410.189788,0.000000
28.000000,17197.901571,19347.781759,-12478.040156,-28.677288,-12421.870222,-4865.125402,1001.402855,374.950513,11628.293887,16369.970604,-535.078411,2373.375281,-16611.525907,18079.007337,2842.963081,2103.321505,0.008000,-0.010000,1.006000,192.000000,0.000000,32.000000,127.500000,88.000000,15.500000,56.000000,0.000000,0.000000,0.000000,1775740410.189799,0.000000
30.000000,17198.840344,19351.223928,-12471.446392,-23.446980,-12415.857603,-4864.678367,1005.917907,384.271191,11608.892573,16378.061936,-508.993925,2382.852421,-16586.044918,18084.729384,2598.949087,1752.644986,0.008000,-0.010000,1.006000,192.000000,0.000000,0.000000,0.000000,0.000000,0.000000,0.000000,0.000000,0.000000,0.000000,1775740410.189811,0.000000
32.000000,17189.787887,19351.134521,-12490.847706,-36.299233,-12428.687504,-4874.289617,999.480605,369.429632,11616.626277,16366.282566,-528.708163,2377.957389,-16612.844659,18075.319299,2817.817368,2071.649083,0.008000,-0.010000,1.006000,192.000000,0.000000,0.000000,0.000000,0.000000,0.000000,0.000000,0.000000,0.000000,0.000000,1775740410.189822,0.000000
34.000000,17205.232943,19354.666097,-12464.740868,-18.976631,-12409.241487,-4862.398489,1008.242489,386.305199,11624.695256,16376.631424,-519.320431,2382.763014,-16598.226619,18077.621529,2717.256870,1920.864215,0.008000,-0.010000,1.006000,192.000000,0.000000,0.000000,0.000000,0.000000,0.000000,0.000000,0.000000,0.000000,0.000000,1775740410.189834,0.000000
36.000000,17185.921036,19340.897422,-12490.512430,-36.634509,-12431.861452,-4872.210905,993.669152,364.355786,11609.674884,16372.697517,-515.319468,2382.472441,-16589.129459,18081.108401,2649.866360,1829.780856,0.008000,-0.010000,1.006000,192.000000,0.000000,0.000000,0.000000,0.000000,0.000000,0.000000,0.000000,0.000000,0.000000,1775740410.189845,0.000000
38.000000,17188.960873,19349.681658,-12475.626168,-24.586919,-12412.706007,-4862.957282,1003.280402,375.464603,11632.496015,16366.729601,-534.765486,2376.348064,-16610.229505,18075.989851,2842.672508,2100.594592,0.008000,-0.012000,1.000000,192.000000,0.000000,32.000000,127.500000,80.000000,15.500000,32.000000,0.000000,0.000000,0.000000,1775740410.189857,0.000000
40.000000,17180.333099,19346.999448,-12473.927435,-24.855140,-12406.224001,-4865.706547,999.905288,375.866935,11616.223945,16375.893816,-510.156215,2383.165346,-16578.467676,18083.455334,2596.848023,1753.896684,0.008000,-0.012000,1.000000,192.000000,0.000000,0.000000,0.000000,0.000000,0.000000,0.000000,0.000000,0.000000,0.000000,1775740410.189868,0.000000
42.000000,17170.543035,19339.913945,-12493.395805,-40.836637,-12429.559222,-4880.726919,993.825614,361.204190,11615.262820,16357.878310,-535.368983,2370.380148,-16608.441366,18068.077334,2815.828063,2070.151516,0.008000,-0.012000,1.000000,192.000000,0.000000,0.000000,0.000000,0.000000,0.000000,0.000000,0.000000,0.000000,0.000000,1775740410.189880,0.000000
44.000000,17190.234922,19352.140349,-12461.991604,-18.596651,-12404.949952,-4866.354748,1009.270669,385.098205,11622.415378,16368.875369,-522.606137,2377.085671,-16594.806802,18070.603081,2721.503701,1923.814645,0.008000,-0.012000,1.000000,192.000000,0.000000,0.000000,0.000000,0.000000,0.000000,0.000000,0.000000,0.000000,0.000000,1775740410.189897,0.000000
46.000000,17170.833608,19346.708876,-12490.355967,-37.662689,-12427.301696,-4878.536448,994.250297,367.395624,11609.026683,16367.400154,-513.799550,2379.946694,-16585.843752,18072.614738,2653.397936,1826.785723,0.008000,-0.012000,1.000000,192.000000,0.000000,0.000000,0.000000,0.000000,0.000000,0.000000,0.000000,0.000000,0.000000,1775740410.189909,0.000000
48.000000,17194.012367,19362.131579,-12476.855514,-22.687021,-12419.322123,-4869.863971,1005.157948,382.751272,11632.004277,16367.623671,-530.809227,2383.522973,-16611.771776,18070.960709,2840.347927,2101.443958,0.004000,-0.014000,1.000000,192.000000,0.000000,16.000000,127.500000,72.000000,15.500000,32.000000,0.000000,0.000000,0.000000,1775740410.189922,0.000000
50.000000,17190.905475,19356.498940,-12473.189828,-19.043686,-12413.197745,-4866.444155,1004.912079,383.377121,11619.621410,16383.381651,-505.864681,2398.677456,-16582.178066,18084.975253,2593.919944,1761.093946,0.004000,-0.014000,1.000000,192.000000,0.000000,0.000000,0.000000,0.000000,0.000000,0.000000,0.000000,0.000000,0.000000,1775740410.189934,0.000000
52.000000,17164.888044,19347.111207,-12494.871020,-35.807495,-12431.302658,-4877.485916,995.680809,363.126440,11609.719588,16360.337002,-534.072582,2379.879639,-16615.504517,18067.786761,2815.805711,2074.331292,0.004000,-0.014000,1.000000,192.000000,0.000000,0.000000,0.000000,0.000000,0.000000,0.000000,0.000000,0.000000,0.000000,1775740410.189946,0.000000
54.000000,17183.171771,19358.398838,-12464.316185,-15.825035,-12408.436824,-4865.550085,1011.595251,386.595772,11616.559221,16373.099848,-521.645012,2385.735796,-16604.775680,18075.945148,2716.206338,1927.435628,0.004000,-0.014000,1.000000,192.000000,0.000000,0.000000,0.000000,0.000000,0.000000,0.000000,0.000000,0.000000,0.000000,1775740410.189958,0.000000
56.000000,17162.071724,19346.552413,-12489.618360,-39.160256,-12434.476606,-4888.080643,996.887803,367.149754,11596.688521,16365.544959,-517.644050,2381.779537,-16596.527886,18067.943223,2646.021860,1829.065601,0.004000,-0.014000,1.000000,192.000000,0.000000,0.000000,0.000000,0.000000,0.000000,0.000000,0.000000,0.000000,0.000000,1775740410.189972,0.000000
58.000000,17164.016326,19346.328896,-12478.375432,-30.130152,-12423.814824,-4882.693873,1002.945125,373.162374,11615.776910,16355.509026,-531.859759,2378.739700,-16620.377197,18057.348497,2845.600587,2101.019275,0.003000,-0.012000,0.999000,192.000000,0.000000,8.000000,127.500000,88.000000,15.500000,24.000000,0.000000,0.000000,0.000000,1775740410.189986,0.000000
60.000000,17166.519721,19343.780797,-12472.787496,-27.157370,-12420.529118,-4874.379024,1001.268745,373.788223,11594.319236,16362.885101,-513.553681,2383.098290,-16594.829153,18065.998622,2604.067636,1752.600283,0.003000,-0.012000,0.999000,192.000000,0.000000,0.000000,0.000000,0.000000,0.000000,0.000000,0.000000,0.000000,0.000000,1775740410.670022,0.000000
62.000000,17155.656774,19339.824538,-12494.938075,-39.473181,-12434.923641,-4880.257533,995.010256,358.276112,11600.734186,16347.440046,-535.972480,2371.207162,-16622.634724,18054.979212,2814.106979,2061.635502,0.003000,-0.012000,0.999000,192.000000,0.000000,0.000000,0.000000,0.000000,0.000000,0.000000,0.000000,0.000000,0.000000,1775740410.670081,0.000000
64.000000,17168.330213,19341.947954,-12470.373508,-19.535425,-12419.322123,-4874.893114,1007.013143,376.179859,11607.618524,16358.839435,-526.204768,2377.867982,-16608.866049,18062.042363,2718.128588,1920.417180,0.003000,-0.012000,0.999000,192.000000,0.000000,0.000000,0.000000,0.000000,0.000000,0.000000,0.000000,0.000000,0.000000,1775740410.670123,0.000000
66.000000,17144.615012,19334.705989,-12493.418156,-36.142771,-12431.436769,-4882.693873,995.166718,361.092432,11596.330893,16349.854034,-522.829655,2372.458860,-16603.658092,18059.762485,2643.138485,1824.237624,0.003000,-0.012000,0.999000,192.000000,0.000000,0.000000,0.000000,0.000000,0.000000,0.000000,0.000000,0.000000,0.000000,1775740410.670168,0.000000
68.000000,17164.597471,19350.933355,-12476.877865,-26.531521,-12415.499975,-4875.161335,1004.867375,376.135156,11608.713759,16354.078514,-534.296099,2375.476345,-16619.147851,18061.505921,2842.784267,2102.807415,0.003500,-0.012000,0.995500,192.000000,0.000000,16.000000,127.500000,80.000000,15.500000,0.000000,0.000000,0.000000,0.000000,1775740410.670210,0.000000
70.000000,17168.956061,19356.945974,-12467.847761,-26.129189,-12415.343513,-4878.983483,1004.465044,383.019493,11597.917866,16361.074610,-506.021143,2386.920439,-16588.123630,18069.597253,2599.284363,1754.991919,0.003500,-0.012000,0.995500,192.000000,0.000000,0.000000,0.000000,0.000000,0.000000,0.000000,0.000000,0.000000,0.000000,1775740410.670254,0.000000
72.000000,17149.174768,19339.757483,-12490.199505,-41.775410,-12433.783702,-4883.878515,995.032608,363.662882,11600.085986,16345.450741,-526.718858,2376.459822,-16611.414148,18053.816921,2813.101150,2062.909551,0.003500,-0.012000,0.995500,192.000000,0.000000,0.000000,0.000000,0.000000,0.000000,0.000000,0.000000,0.000000,0.000000,1775740410.670267,0.000000
74.000000,17174.722812,19359.069390,-12461.253996,-19.468369,-12410.515536,-4869.685157,1009.516538,390.194403,11606.791509,16358.191235,-518.783989,2384.439395,-16600.662959,18057.750828,2718.217995,1927.167407,0.003500,-0.012000,0.995500,192.000000,0.000000,0.000000,0.000000,0.000000,0.000000,0.000000,0.000000,0.000000,0.000000,1775740410.670279,0.000000
76.000000,17149.934727,19346.127730,-12486.824392,-37.841503,-12430.386237,-4889.287637,996.418416,370.636627,11591.167640,16359.979374,-509.887995,2387.054549,-16598.874819,18060.343630,2646.111267,1816.146292,0.003500,-0.012000,0.995500,192.000000,0.000000,0.000000,0.000000,0.000000,0.000000,0.000000,0.000000,0.000000,0.000000,1775740410.670291,0.000000
78.000000,17149.375933,19349.234623,-12477.459011,-29.504303,-12428.128711,-4889.041768,1004.040361,375.911638,11606.366826,16350.993973,-530.898634,2380.259619,-16619.863107,18052.297002,2842.069011,2101.712179,0.003750,-0.013000,0.995750,192.000000,0.000000,16.000000,127.500000,72.000000,15.500000,16.000000,0.000000,0.000000,0.000000,1775740410.670303,0.000000
80.000000,17144.346791,19341.411512,-12471.401688,-26.732686,-12426.921717,-4887.387739,1003.995657,378.035054,11585.959683,16360.180540,-513.419570,2385.512279,-16596.036148,18061.192997,2599.843156,1749.001652,0.003750,-0.013000,0.995750,192.000000,0.000000,0.000000,0.000000,0.000000,0.000000,0.000000,0.000000,0.000000,0.000000,1775740410.670315,0.000000
82.000000,17140.301125,19349.927527,-12491.652369,-39.629643,-12439.639859,-4897.356617,996.865451,365.406318,11586.026738,16352.089209,-535.681908,2379.320846,-16618.253782,18055.180377,2810.508348,2057.053394,0.003750,-0.013000,0.995750,192.000000,0.000000,0.000000,0.000000,0.000000,0.000000,0.000000,0.000000,0.000000,0.000000,1775740410.670327,0.000000
84.000000,17159.456570,19357.057733,-12460.784609,-22.776428,-12414.807071,-4889.332341,1009.203614,386.841641,11598.253143,16364.136799,-520.482721,2386.853383,-16603.881610,18061.349459,2723.716524,1918.584337,0.003750,-0.013000,0.995750,192.000000,0.000000,0.000000,0.000000,0.000000,0.000000,0.000000,0.000000,0.000000,0.000000,1775740410.670340,0.000000
86.000000,17149.286526,19352.609736,-12490.177153,-38.445000,-12436.488263,-4891.545164,994.809090,367.708548,11579.432974,16361.611052,-514.067771,2387.501584,-16594.248008,18058.510787,2644.144314,1812.122978,0.003750,-0.013000,0.995750,192.000000,0.000000,0.000000,0.000000,0.000000,0.000000,0.000000,0.000000,0.000000,0.000000,1775740410.670352,0.000000
88.000000,17155.165035,19364.009126,-12477.302549,-20.876529,-12421.512594,-4874.826059,1006.074370,380.985484,11606.344474,16362.706287,-534.139637,2387.747453,-16618.879630,18058.957822,2837.755124,2100.907517,0.004875,-0.012500,0.997875,192.000000,0.000000,24.000000,127.500000,80.000000,15.500000,32.000000,0.000000,0.000000,0.000000,1775740410.670364,0.000000
90.000000,17162.183483,19367.540701,-12467.110153,-13.567509,-12411.767234,-4859.917445,1007.482530,388.585077,11599.706006,16383.918093,-501.975477,2402.879584,-16574.645528,18080.773125,2588.421415,1757.070632,0.004875,-0.012500,0.997875,192.000000,0.000000,0.000000,0.000000,0.000000,0.000000,0.000000,0.000000,0.000000,0.000000,1775740410.670384,0.000000
92.000000,17132.075683,19349.435788,-12493.932246,-38.556759,-12438.946955,-4885.130213,992.886840,359.483106,11593.358111,16363.063915,-530.384544,2383.970008,-16607.368482,18062.936433,2809.301354,2061.233170,0.004875,-0.012500,0.997875,192.000000,0.000000,0.000000,0.000000,0.000000,0.000000,0.000000,0.000000,0.000000,0.000000,1775740410.670396,0.000000
94.000000,17155.366201,19367.563053,-12461.678679,-14.439227,-12399.473774,-4865.214809,1009.717704,384.494708,11603.885782,16375.290319,-520.035686,2390.004979,-16591.923427,18071.653613,2734.177140,1931.257776,0.004875,-0.012500,0.997875,192.000000,0.000000,0.000000,0.000000,0.000000,0.000000,0.000000,0.000000,0.000000,0.000000,1775740410.670409,0.000000
96.000000,17136.993067,19356.789512,-12486.533819,-33.348803,-12417.489280,-4874.580190,997.111320,368.200286,11587.479602,16373.010441,-514.313640,2390.474366,-16585.866104,18072.301814,2648.972291,1824.148217,0.004875,-0.012500,0.997875,192.000000,0.000000,0.000000,0.000000,0.000000,0.000000,0.000000,0.000000,0.000000,0.000000,1775740410.670421,0.000000
98.000000,17154.829759,19363.495036,-12475.603816,-23.782256,-12408.414472,-4866.846486,1004.666210,377.230391,11614.927544,16370.730563,-530.295137,2385.869907,-16602.160526,18066.177436,2846.226435,2110.719932,0.006438,-0.012250,1.001937,192.000000,0.000000,32.000000,127.500000,80.000000,15.500000,56.000000,0.000000,0.000000,0.000000,1775740410.670433,0.000000
100.000000,17145.196157,19353.883785,-12471.535798,-23.379925,-12403.944123,-4870.713338,1003.123939,376.582191,11594.788622,16378.665433,-508.457483,2388.976799,-16573.840865,18074.604043,2604.291153,1765.161963,0.006438,-0.012250,1.001937,192.000000,0.000000,0.000000,0.000000,0.000000,0.000000,0.000000,0.000000,0.000000,0.000000,1775740410.670453,0.000000
102.000000,17118.686988,19344.205480,-12493.060528,-36.187474,-12422.987810,-4878.692911,997.021913,360.891266,11594.118070,16358.034773,-535.234873,2375.118718,-16603.032244,18059.002526,2810.575403,2064.362414,0.006438,-0.012250,1.001937,192.000000,0.000000,0.000000,0.000000,0.000000,0.000000,0.000000,0.000000,0.000000,0.000000,1775740410.670465,0.000000
104.000000,17130.891041,19349.368733,-12466.685470,-19.066038,-12403.877068,-4869.461640,1007.370771,377.297446,11596.934390,16365.969642,-524.863663,2382.338331,-16594.002139,18063.048191,2730.354992,1935.906939,0.006438,-0.012250,1.001937,192.000000,0.000000,0.000000,0.000000,0.000000,0.000000,0.000000,0.000000,0.000000,0.000000,1775740410.670477,0.000000
106.000000,17117.144718,19342.305582,-12491.764127,-34.667556,-12420.506766,-4879.765794,995.323181,359.483106,11578.024814,16359.845264,-520.594480,2377.376244,-16588.660072,18057.348497,2641.395049,1823.075333,0.006438,-0.012250,1.001937,192.000000,0.000000,0.000000,0.000000,0.000000,0.000000,0.000000,0.000000,0.000000,0.000000,1775740410.670489,0.000000
108.000000,17127.806500,19352.989716,-12480.834124,-25.346878,-12414.360036,-4876.256570,1003.235698,368.557914,11607.193840,16362.773342,-538.475876,2376.392767,-16609.871877,18057.035572,2842.426639,2115.056171,0.006219,-0.012125,1.005969,192.000000,0.000000,24.000000,127.500000,80.000000,15.500000,72.000000,0.000000,0.000000,0.000000,1775740410.670502,0.000000
110.000000,17128.432349,19347.513538,-12474.218008,-21.547082,-12405.911077,-4871.987387,1004.129768,371.642455,11584.752689,16379.000709,-514.425399,2383.925305,-16578.266511,18063.763447,2598.524403,1764.781983,0.006219,-0.012125,1.005969,192.000000,0.000000,0.000000,0.000000,0.000000,0.000000,0.000000,0.000000,0.000000,0.000000,1775740410.670514,0.000000
112.000000,17115.334227,19346.015971,-12496.882677,-39.584939,-12424.932411,-4876.144812,992.082178,353.403432,11589.401852,16359.912319,-539.146428,2374.850497,-16604.507459,18050.397104,2808.653153,2063.915380,0.006219,-0.012125,1.005969,192.000000,0.000000,0.000000,0.000000,0.000000,0.000000,0.000000,0.000000,0.000000,0.000000,1775740410.670526,0.000000
114.000000,17132.768587,19358.577652,-12466.327842,-21.234157,-12406.246353,-4865.617140,1006.588460,379.107938,11600.175393,16370.618805,-527.344707,2381.153689,-16594.896209,18058.041401,2721.436646,1945.182913,0.006219,-0.012125,1.005969,192.000000,0.000000,0.000000,0.000000,0.000000,0.000000,0.000000,0.000000,0.000000,0.000000,1775740410.670538,0.000000
116.000000,17107.846392,19339.176338,-12491.071223,-41.574245,-12428.441635,-4885.621951,993.333875,357.851429,11577.421317,16361.812217,-518.895748,2378.627941,-16591.074060,18051.514691,2638.556378,1822.136560,0.006219,-0.012125,1.005969,192.000000,0.000000,0.000000,0.000000,0.000000,0.000000,0.000000,0.000000,0.000000,0.000000,1775740410.670559,0.000000
118.000000,17116.027131,19348.832291,-12482.510505,-28.990213,-12425.513557,-4877.932951,1002.654553,366.747423,11591.011177,16356.492502,-542.074507,2375.453994,-16620.332494,18040.763502,2842.337232,2113.111569,0.004109,-0.010063,1.006984,192.000000,0.000000,8.000000,127.500000,96.000000,15.500000,64.000000,0.000000,0.000000,0.000000,1775740410.670572,0.000000
120.000000,17116.183593,19342.327934,-12479.045985,-26.755038,-12422.965458,-4878.089413,1000.732303,369.563743,11570.604035,16367.154284,-520.370963,2383.478270,-16590.045880,18051.090008,2597.719741,1758.322329,0.004109,-0.010063,1.006984,192.000000,0.000000,0.000000,0.000000,0.000000,0.000000,0.000000,0.000000,0.000000,0.000000,1775740410.670584,0.000000
122.000000,17107.354654,19345.434826,-12499.743700,-36.656861,-12438.634031,-4885.130213,995.971381,357.382042,11581.936369,16354.480845,-542.119210,2374.336407,-16617.896154,18040.182357,2798.639572,2055.935807,0.004109,-0.010063,1.006984,192.000000,0.000000,0.000000,0.000000,0.000000,0.000000,0.000000,0.000000,0.000000,0.000000,1775740410.670598,0.000000
124.000000,17130.354599,19357.750637,-12470.842894,-20.854178,-12412.415434,-4877.441213,1008.376599,380.203173,11586.227904,16367.936595,-529.646937,2384.215878,-16605.960322,18048.988944,2720.363762,1937.583320,0.004109,-0.010063,1.006984,192.000000,0.000000,0.000000,0.000000,0.000000,0.000000,0.000000,0.000000,0.000000,0.000000,1775740410.670610,0.000000
126.000000,17104.895962,19346.708876,-12491.540610,-38.243835,-12429.738036,-4892.394530,997.960686,365.138097,11570.916959,16358.414752,-519.007506,2378.627941,-16594.695043,18043.110435,2628.587500,1815.341629,0.004109,-0.010063,1.006984,192.000000,0.000000,0.000000,0.000000,0.000000,0.000000,0.000000,0.000000,0.000000,0.000000,1775740410.670622,0.000000
128.000000,17112.987293,19352.095646,-12482.868133,-29.258433,-12427.681676,-4886.448966,1002.900422,372.536525,11589.938294,16350.144607,-537.604158,2372.212991,-16619.997218,18033.074502,2839.856188,2110.094084,0.004109,-0.010063,1.006984,192.000000,0.000000,0.000000,0.000000,0.000000,0.000000,0.000000,0.000000,0.000000,0.000000,1775740410.670634,0.000000
130.000000,17111.646189,19349.815768,-12473.681566,-20.563605,-12414.315333,-4879.698739,1003.794492,375.956342,11573.710927,16366.349622,-511.340858,2385.489927,-16589.531790,18051.313526,2597.496223,1758.992882,0.004000,-0.008000,1.004000,192.000000,0.000000,16.000000,127.500000,96.000000,15.500000,48.000000,0.000000,0.000000,0.000000,1775740410.670646,0.000000
132.000000,17094.703566,19338.930468,-12497.352063,-32.141809,-12432.464949,-4887.007759,995.233774,357.180876,11572.012195,16347.283584,-537.358288,2373.598799,-16615.705683,18040.830557,2803.601659,2060.383804,0.004000,-0.008000,1.004000,192.000000,0.000000,0.000000,0.000000,0.000000,0.000000,0.000000,0.000000,0.000000,0.000000,1775740410.670658,0.000000
134.000000,17111.869706,19344.294887,-12471.848723,-19.669535,-12412.147213,-4877.061233,1004.934431,374.861106,11580.304692,16355.732543,-532.038573,2374.738738,-16606.250895,18045.010334,2725.169387,1946.144038,0.004000,-0.008000,1.004000,192.000000,0.000000,0.000000,0.000000,0.000000,0.000000,0.000000,0.000000,0.000000,0.000000,1775740410.670671,0.000000
136.000000,17097.989273,19331.956724,-12494.066357,-42.960053,-12432.420246,-4891.522812,991.858660,358.343167,11567.966529,16349.541110,-522.829655,2368.659063,-16598.517191,18041.545813,2636.544721,1815.699257,0.004000,-0.008000,1.004000,192.000000,0.000000,0.000000,0.000000,0.000000,0.000000,0.000000,0.000000,0.000000,0.000000,1775740410.670683,0.000000
138.000000,17107.399357,19349.525195,-12480.543552,-33.415858,-12422.876051,-4882.380948,1001.671076,371.798917,11582.115183,16347.887081,-538.677041,2365.686281,-16617.873802,18035.555546,2842.158418,2115.503206,0.004000,-0.008000,1.004000,192.000000,0.000000,0.000000,0.000000,0.000000,0.000000,0.000000,0.000000,0.000000,0.000000,1775740410.670695,0.000000
140.000000,17116.965904,19360.052867,-12471.356985,-28.833750,-12413.734187,-4880.950437,1002.766311,379.398510,11575.700232,16367.824837,-508.233965,2379.633770,-16582.625101,18047.804302,2597.228002,1765.743108,0.006000,-0.014000,1.002000,192.000000,0.000000,24.000000,127.500000,72.000000,15.500000,40.000000,0.000000,0.000000,0.000000,1775740410.670707,0.000000
142.000000,17102.705491,19356.789512,-12492.591142,-41.171913,-12424.731246,-4884.191440,995.412588,367.082699,11580.237637,16361.678107,-526.584748,2377.465651,-16607.077909,18043.825691,2805.725074,2056.941635,0.006000,-0.014000,1.002000,192.000000,0.000000,0.000000,0.000000,0.000000,0.000000,0.000000,0.000000,0.000000,0.000000,1775740410.670719,0.000000
144.000000,17127.158299,19370.982870,-12462.840970,-16.249718,-12400.211382,-4862.599655,1012.086989,393.077778,11591.234695,16381.749974,-517.599346,2391.077863,-16596.729052,18053.258127,2725.124684,1944.802933,0.006000,-0.014000,1.002000,192.000000,0.000000,0.000000,0.000000,0.000000,0.000000,0.000000,0.000000,0.000000,0.000000,1775740410.670731,0.000000
146.000000,17089.003872,19335.935335,-12497.843802,-39.562588,-12436.421208,-4891.589867,993.043303,357.404394,11566.647776,16374.373898,-515.431227,2386.451052,-16590.045880,18050.128883,2631.560282,1813.039400,0.006000,-0.014000,1.002000,192.000000,0.000000,0.000000,0.000000,0.000000,0.000000,0.000000,0.000000,0.000000,0.000000,1775740410.670743,0.000000
148.000000,17080.778430,19328.045169,-12490.892409,-27.246776,-12430.229775,-4887.186573,1003.146291,357.091469,11572.168657,16348.356467,-552.736289,2364.233418,-16627.641514,18030.325238,2838.939767,2115.167930,0.006000,-0.014000,1.002000,192.000000,0.000000,0.000000,0.000000,0.000000,0.000000,0.000000,0.000000,0.000000,0.000000,1775740410.670755,0.000000
150.000000,17090.255569,19329.296867,-12481.214104,-25.056306,-12421.467891,-4891.053425,1002.207518,364.154621,11548.945194,16350.681049,-531.412724,2365.820392,-16604.216886,18033.387427,2599.083197,1763.932617,0.004000,-0.012000,1.002000,192.000000,0.000000,16.000000,127.500000,80.000000,15.500000,40.000000,0.000000,0.000000,0.000000,1775740410.670767,0.000000
152.000000,17087.707470,19337.745826,-12498.670816,-39.719050,-12433.604888,-4889.935838,994.831442,355.996234,11562.870331,16344.400209,-540.912216,2363.764031,-16616.599752,18030.816976,2799.623048,2052.404231,0.004000,-0.012000,1.002000,192.000000,0.000000,0.000000,0.000000,0.000000,0.000000,0.000000,0.000000,0.000000,0.000000,1775740410.670779,0.000000
154.000000,17105.477107,19352.162701,-12468.697127,-21.167102,-12412.616600,-4877.262399,1008.063675,378.482089,11577.443669,16364.159151,-526.316527,2374.314055,-16603.456927,18041.299944,2726.398733,1943.305366,0.004000,-0.012000,1.002000,192.000000,0.000000,0.000000,0.000000,0.000000,0.000000,0.000000,0.000000,0.000000,0.000000,1775740410.670793,0.000000
156.000000,17089.160334,19341.500919,-12491.808831,-42.803591,-12433.627240,-4889.108823,992.372750,360.779507,11556.388325,16361.007555,-517.465236,2373.308226,-16590.135287,18040.584688,2632.119075,1812.815882,0.004000,-0.012000,1.002000,192.000000,0.000000,0.000000,0.000000,0.000000,0.000000,0.000000,0.000000,0.000000,0.000000,1775740410.670806,0.000000
158.000000,17098.905694,19348.631126,-12482.734022,-29.504303,-12419.925621,-4878.357634,1004.107416,374.458775,11582.070480,16360.337002,-535.726611,2374.157593,-16615.705683,18039.757674,2841.577273,2109.468235,0.004000,-0.012000,1.002000,192.000000,0.000000,0.000000,0.000000,0.000000,0.000000,0.000000,0.000000,0.000000,0.000000,1775740410.670818,0.000000
160.000000,17109.008683,19349.145216,-12472.653386,-25.592747,-12412.236620,-4878.223524,1005.381466,380.739615,11566.759535,16375.893816,-510.692657,2386.540459,-16582.960377,18052.408761,2597.853851,1766.748937,0.002000,-0.016000,1.010000,192.000000,0.000000,8.000000,127.500000,64.000000,15.500000,72.000000,0.000000,0.000000,0.000000,1775740410.670830,0.000000
162.000000,17101.856125,19344.540756,-12495.094537,-38.802628,-12435.683600,-4886.493669,997.647762,362.254722,11566.446610,16356.939537,-532.910291,2372.570619,-16611.347093,18037.343685,2794.683313,2050.504333,0.002000,-0.016000,1.010000,192.000000,0.000000,0.000000,0.000000,0.000000,0.000000,0.000000,0.000000,0.000000,0.000000,1775740410.670842,0.000000
164.000000,17091.127287,19339.153986,-12472.429868,-23.178759,-12415.567030,-4883.364425,1004.845024,369.541391,11573.219189,16365.723773,-528.395239,2377.577409,-16603.948665,18042.506938,2723.738876,1945.339375,0.002000,-0.016000,1.010000,192.000000,0.000000,0.000000,0.000000,0.000000,0.000000,0.000000,0.000000,0.000000,0.000000,1775740410.670855,0.000000
166.000000,17074.944624,19332.224945,-12498.179078,-36.433343,-12437.382333,-4893.154489,991.948067,347.144943,11540.898566,16354.145569,-530.250434,2367.720290,-16600.372386,18037.298982,2636.052982,1809.127844,0.002000,-0.016000,1.010000,192.000000,0.000000,0.000000,0.000000,0.000000,0.000000,0.000000,0.000000,0.000000,0.000000,1775740410.670867,0.000000
168.000000,17098.659825,19349.234623,-12487.807868,-28.610233,-12427.055827,-4889.868783,1000.285268,360.757156,11564.457305,16357.140703,-548.802382,2368.100270,-16621.003046,18036.874299,2839.006822,2112.664534,0.002000,-0.016000,1.010000,192.000000,0.000000,0.000000,0.000000,0.000000,0.000000,0.000000,0.000000,0.000000,0.000000,1775740410.670879,0.000000
170.000000,17103.934837,19356.968326,-12474.508581,-24.922195,-12418.428054,-4883.185611,1003.883899,375.375196,11561.842151,16376.698479,-518.694582,2379.812584,-16590.984653,18050.397104,2600.848985,1758.456440,0.008000,-0.016000,1.004000,192.000000,0.000000,32.000000,127.500000,64.000000,15.500000,48.000000,0.000000,0.000000,0.000000,1775740410.670891,0.000000
172.000000,17099.844468,19347.178262,-12500.011921,-42.110687,-12438.254051,-4882.380948,994.965553,363.796993,11565.776058,16359.778209,-535.659556,2374.068186,-16610.363616,18041.009371,2798.438406,2045.564597,0.008000,-0.016000,1.004000,192.000000,0.000000,0.000000,0.000000,0.000000,0.000000,0.000000,0.000000,0.000000,0.000000,1775740410.670903,0.000000
174.000000,17109.835697,19357.884748,-12469.613548,-23.290518,-12415.410568,-4871.518001,1007.929564,387.422787,11573.867389,16370.775267,-523.075524,2385.624037,-16604.283941,18047.513729,2728.253928,1945.741707,0.008000,-0.016000,1.004000,192.000000,0.000000,0.000000,0.000000,0.000000,0.000000,0.000000,0.000000,0.000000,0.000000,1775740410.670915,0.000000
176.000000,17090.590845,19350.106341,-12486.489116,-36.992137,-12428.642801,-4882.403300,998.340666,373.117670,11557.483561,16369.635328,-510.022105,2384.864078,-16591.342281,18049.480683,2626.151160,1808.054961,0.008000,-0.016000,1.004000,192.000000,0.000000,0.000000,0.000000,0.000000,0.000000,0.000000,0.000000,0.000000,0.000000,1775740410.670927,0.000000
178.000000,17101.654959,19357.527120,-12479.671833,-29.146675,-12416.192879,-4877.552972,1003.995657,379.286752,11585.378538,16365.924938,-527.009431,2382.964180,-16607.301427,18045.524424,2847.992223,2110.250546,0.008000,-0.016000,1.004000,192.000000,0.000000,0.000000,0.000000,0.000000,0.000000,0.000000,0.000000,0.000000,0.000000,1775740410.670939,0.000000
180.000000,17099.196267,19351.402742,-12474.486229,-21.480026,-12414.583554,-4871.674463,1004.085064,381.946609,11566.491314,16375.111505,-511.005582,2388.887392,-16583.362708,18053.302831,2601.653648,1763.999672,0.006000,-0.012000,0.998000,192.000000,0.000000,24.000000,127.500000,80.000000,15.500000,24.000000,0.000000,0.000000,0.000000,1775740411.150856,0.000000
182.000000,17088.936816,19351.715666,-12498.156726,-31.404201,-12429.961554,-4878.335283,997.156024,364.959283,11562.870331,16363.645060,-534.743134,2380.281971,-16608.463718,18048.050171,2795.398569,2053.343004,0.006000,-0.012000,0.998000,192.000000,0.000000,0.000000,0.000000,0.000000,0.000000,0.000000,0.000000,0.000000,0.000000,1775740411.150920,0.000000
184.000000,17101.409090,19359.494073,-12473.100421,-12.740494,-12412.616600,-4871.987387,1011.081160,385.478185,11572.973320,16377.927825,-524.461332,2389.870869,-16599.411261,18056.297965,2726.957527,1953.743631,0.006000,-0.012000,0.998000,192.000000,0.000000,0.000000,0.000000,0.000000,0.000000,0.000000,0.000000,0.000000,0.000000,1775740411.150980,0.000000
186.000000,17085.315834,19346.015971,-12494.558095,-31.784181,-12432.710818,-4880.101070,999.122977,365.786298,11551.314479,16365.768476,-517.912271,2385.109947,-16597.600770,18050.754732,2622.306659,1807.585574,0.006000,-0.012000,0.998000,192.000000,0.000000,0.000000,0.000000,0.000000,0.000000,0.000000,0.000000,0.000000,0.000000,1775740411.151042,0.000000
188.000000,17091.484915,19355.023724,-12481.862304,-25.771561,-12419.120958,-4875.250742,1003.861547,370.256647,11580.036471,16362.371011,-531.882111,2378.203258,-16608.709587,18042.976325,2842.784267,2109.267069,0.006000,-0.012000,0.998000,192.000000,0.000000,0.000000,0.000000,0.000000,0.000000,0.000000,0.000000,0.000000,0.000000,1775740411.151100,0.000000
190.000000,17093.831848,19349.793416,-12472.563979,-21.167102,-12415.432920,-4876.524791,1005.381466,374.838755,11567.497142,16375.335023,-507.317544,2384.104119,-16580.322871,18052.520520,2595.417511,1764.849039,0.012000,-0.022000,1.000000,192.000000,0.000000,48.000000,127.500000,40.000000,15.500000,32.000000,0.000000,0.000000,0.000000,1775740411.151125,0.000000
192.000000,17070.027241,19343.870204,-12496.972084,-38.847332,-12431.257955,-4886.068986,996.127843,355.884475,11564.524360,16352.916223,-535.033707,2367.429717,-16612.822308,18036.114339,2790.123557,2048.067993,0.012000,-0.022000,1.000000,192.000000,0.000000,0.000000,0.000000,0.000000,0.000000,0.000000,0.000000,0.000000,0.000000,1775740411.151150,0.000000
194.000000,17093.541276,19356.744809,-12472.720441,-22.172930,-12407.274533,-4877.552972,1007.862509,376.828060,11567.877122,16366.528436,-526.003602,2376.482174,-16603.389872,18044.920927,2731.852559,1953.408355,0.012000,-0.022000,1.000000,192.000000,0.000000,0.000000,0.000000,0.000000,0.000000,0.000000,0.000000,0.000000,0.000000,1775740411.151174,0.000000
196.000000,17073.670575,19346.373599,-12499.184906,-41.484838,-12430.006257,-4887.365387,993.803262,359.348996,11546.285337,16364.427372,-520.303907,2375.230476,-16596.818459,18045.166796,2626.151160,1806.959725,0.012000,-0.022000,1.000000,192.000000,0.000000,0.000000,0.000000,0.000000,0.000000,0.000000,0.000000,0.000000,0.000000,1775740411.151198,0.000000
198.000000,17078.699717,19351.380390,-12490.043043,-32.834713,-12421.289077,-4875.608370,1001.916945,367.261513,11574.202666,16362.683935,-540.867512,2369.888409,-16618.320837,18040.495281,2842.963081,2115.771427,0.012000,-0.022000,1.000000,192.000000,0.000000,0.000000,0.000000,0.000000,0.000000,0.000000,0.000000,0.000000,0.000000,1775740411.151221,0.000000
200.000000,17084.511171,19352.810902,-12476.631996,-24.117532,-12409.777929,-4870.243951,1005.582631,378.012702,11549.660450,16367.891892,-518.515768,2376.728043,-16591.007005,18050.508863,2602.994752,1768.268856,0.006000,-0.018000,0.998000,192.000000,0.000000,24.000000,127.500000,56.000000,15.500000,24.000000,0.000000,0.000000,0.000000,1775740411.151245,0.000000
202.000000,17068.082639,19348.608774,-12496.748566,-41.395431,-12432.353190,-4882.939742,993.669152,356.867952,11562.847979,16358.504159,-532.016222,2373.688206,-16610.207154,18043.110435,2793.208098,2048.962062,0.006000,-0.018000,0.998000,192.000000,0.000000,0.000000,0.000000,0.000000,0.000000,0.000000,0.000000,0.000000,0.000000,1775740411.151269,0.000000
204.000000,17091.082584,19357.035381,-12463.466819,-18.753114,-12400.300789,-4865.974768,1009.516538,377.923295,11570.805200,16370.372936,-522.963765,2381.064282,-16598.137212,18049.413627,2739.899187,1953.497762,0.006000,-0.018000,0.998000,192.000000,0.000000,0.000000,0.000000,0.000000,0.000000,0.000000,0.000000,0.000000,0.000000,1775740411.151292,0.000000
206.000000,17068.641432,19341.165643,-12487.740813,-35.829846,-12423.345437,-4875.943646,998.318314,359.840734,11550.956851,16366.662546,-514.984192,2378.851459,-16585.888456,18052.498168,2630.397991,1802.355266,0.006000,-0.018000,0.998000,192.000000,0.000000,0.000000,0.000000,0.000000,0.000000,0.000000,0.000000,0.000000,0.000000,1775740411.151316,0.000000
208.000000,17079.459677,19356.275422,-12482.979892,-31.113628,-12422.138443,-4874.736652,1002.743960,369.295522,11564.904340,16356.894834,-542.298024,2367.697938,-16619.371369,18040.450578,2849.758011,2116.017296,0.006000,-0.018000,0.998000,192.000000,0.000000,0.000000,0.000000,0.000000,0.000000,0.000000,0.000000,0.000000,0.000000,1775740411.151339,0.000000
210.000000,17096.648168,19365.529044,-12469.948825,-19.602480,-12407.073367,-4863.136096,1009.583594,388.294505,11562.132724,16377.883122,-510.245622,2385.378168,-16584.189723,18055.828578,2604.604078,1769.028815,0.006000,-0.017000,1.000000,192.000000,0.000000,24.000000,127.500000,64.000000,15.500000,40.000000,0.000000,0.000000,0.000000,1775740411.151363,0.000000
212.000000,17073.469409,19352.609736,-12498.201430,-36.768620,-12426.921717,-4875.831887,998.050093,367.082699,11568.301805,16368.338927,-527.411762,2380.751357,-16606.139136,18050.687677,2792.246973,2049.006766,0.006000,-0.017000,1.000000,192.000000,0.000000,0.000000,0.000000,0.000000,0.000000,0.000000,0.000000,0.000000,0.000000,1775740411.151387,0.000000
214.000000,17090.032052,19356.275422,-12468.160685,-16.987326,-12402.759481,-4874.110803,1012.779893,385.746406,11570.358166,16368.718906,-523.008469,2382.807718,-16601.333511,18044.362133,2742.760210,1965.701814,0.006000,-0.017000,1.000000,192.000000,0.000000,0.000000,0.000000,0.000000,0.000000,0.000000,0.000000,0.000000,0.000000,1775740411.151410,0.000000
216.000000,17076.062212,19350.687486,-12489.841877,-30.510131,-12419.813862,-4881.397472,1000.531137,370.189592,11553.594357,16366.327270,-512.369038,2383.142994,-16592.415165,18049.659497,2635.427133,1810.066618,0.006000,-0.017000,1.000000,192.000000,0.000000,0.000000,0.000000,0.000000,0.000000,0.000000,0.000000,0.000000,0.000000,1775740411.151434,0.000000
218.000000,17082.566569,19355.671925,-12478.420136,-24.989250,-12411.566068,-4872.032091,1006.029666,374.078795,11567.675956,16363.645060,-529.155198,2381.086633,-16614.677502,18046.194976,2853.580159,2121.113494,0.006000,-0.017000,1.000000,192.000000,0.000000,0.000000,0.000000,0.000000,0.000000,0.000000,0.000000,0.000000,0.000000,1775740411.151460,0.000000
220.000000,17090.054404,19355.962498,-12460.382278,-16.249718,-12404.279399,-4869.081660,1011.550547,386.036978,11562.535055,16374.977395,-498.578012,2392.776596,-16580.054650,18058.734305,2613.477720,1769.878181,0.008000,-0.013500,1.003000,192.000000,0.000000,40.000000,127.500000,88.000000,15.500000,56.000000,0.000000,0.000000,0.000000,1775740411.151483,0.000000
222.000000,17071.480104,19344.004314,-12488.746642,-33.929948,-12423.054865,-4882.313893,1001.268745,365.518077,11558.914072,16356.671316,-523.321393,2380.617247,-16604.216886,18044.384485,2798.684275,2046.995109,0.008000,-0.013500,1.003000,192.000000,0.000000,0.000000,0.000000,0.000000,0.000000,0.000000,0.000000,0.000000,0.000000,1775740411.151508,0.000000
224.000000,17080.800781,19350.776893,-12463.399764,-15.690925,-12401.083100,-4860.431535,1013.942184,385.791109,11570.805200,16372.809276,-520.750942,2385.556982,-16596.885514,18053.034610,2742.491989,1965.970035,0.008000,-0.013500,1.003000,192.000000,0.000000,0.000000,0.000000,0.000000,0.000000,0.000000,0.000000,0.000000,0.000000,1775740411.151531,0.000000
226.000000,17072.731802,19346.865338,-12485.907970,-36.589806,-12415.947010,-4879.005835,999.190032,369.675502,11553.884930,16367.444857,-510.804416,2379.454956,-16585.419069,18050.508863,2630.934433,1809.284307,0.008000,-0.013500,1.003000,192.000000,0.000000,0.000000,0.000000,0.000000,0.000000,0.000000,0.000000,0.000000,0.000000,1775740411.151554,0.000000
228.000000,17086.947511,19366.423114,-12477.995453,-27.649108,-12407.788623,-4871.808573,1006.387294,381.141946,11573.085078,16365.656717,-527.523521,2375.006959,-16606.742633,18043.736284,2851.613206,2126.254395,0.008000,-0.013500,1.003000,192.000000,0.000000,0.000000,0.000000,0.000000,0.000000,0.000000,0.000000,0.000000,0.000000,1775740411.151578,0.000000
230.000000,17094.524752,19362.332745,-12468.048926,-20.854178,-12399.987864,-4862.622006,1008.823634,389.993237,11565.530189,16382.666395,-498.667419,2388.954447,-16575.561950,18056.186206,2604.313505,1781.501088,0.009000,-0.014750,1.004500,192.000000,0.000000,40.000000,127.500000,64.000000,15.500000,56.000000,0.000000,0.000000,0.000000,1775740411.151601,0.000000
232.000000,17086.969863,19358.354134,-12489.506601,-36.410992,-12420.327952,-4879.050538,1000.419378,374.704644,11567.743011,16368.204816,-518.828692,2379.834936,-16598.830116,18043.311601,2796.940839,2049.923187,0.009000,-0.014750,1.004500,192.000000,0.000000,0.000000,0.000000,0.000000,0.000000,0.000000,0.000000,0.000000,0.000000,1775740411.151624,0.000000
234.000000,17105.700625,19377.420172,-12457.498903,-11.734666,-12394.645798,-4859.448059,1016.557338,400.163281,11582.048128,16382.554636,-508.815111,2391.614305,-16590.068232,18053.571052,2746.492952,1969.143983,0.009000,-0.014750,1.004500,192.000000,0.000000,0.000000,0.000000,0.000000,0.000000,0.000000,0.000000,0.000000,0.000000,1775740411.151648,0.000000
236.000000,17070.943662,19358.935280,-12483.002243,-33.617024,-12416.125824,-4874.893114,1001.916945,379.532621,11561.350413,16383.046375,-497.035741,2391.100215,-16578.691194,18059.606023,2629.705087,1809.083141,0.009000,-0.014750,1.004500,192.000000,0.000000,0.000000,0.000000,0.000000,0.000000,0.000000,0.000000,0.000000,0.000000,1775740411.151672,0.000000
238.000000,17077.090392,19366.356059,-12473.480400,-29.705468,-12415.790548,-4874.669597,1009.918870,385.925220,11576.415488,16371.445819,-518.605175,2380.617247,-16603.456927,18046.619659,2851.277930,2123.482778,0.009000,-0.014750,1.004500,192.000000,0.000000,0.000000,0.000000,0.000000,0.000000,0.000000,0.000000,0.000000,0.000000,1775740411.151695,0.000000
