Sample_index,EXG Channel 0,EXG Channel 1,EXG Channel 2,EXG Channel 3,EXG Channel 4,EXG Channel 5,EXG Channel 6,EXG Channel 7,EXG Channel 8,EXG Channel 9,EXG Channel 10,EXG Channel 11,EXG Channel 12,EXG Channel 13,EXG Channel 14,EXG Channel 15,Accel Channel 0,Accel Channel 1,Accel Channel 2,Not Used,Digital Channel 0 (D11),Digital Channel 1 (D12),Digital Channel 2 (D13),Digital Channel 3 (D17),Not Used,Digital Channel 4 (D18),Analog Channel 0,Analog Channel 1,Analog Channel 2,Timestamp,Marker Channel
210.000000,15596.108508,15303.501821,2077.996979,-3925.391009,7609.003199,-8696.817898,912.509967,-16861.172540,13959.513779,11815.355637,-8711.748864,-500.053227,22052.611059,13330.535690,-443.883293,3228.217748,0.004000,-0.024000,1.006000,192.000000,0.000000,0.000000,0.000000,0.000000,0.000000,0.000000,0.000000,0.000000,0.000000,1769522834.088797,101.000000
212.000000,15564.704307,15268.498989,2078.309903,-3921.948841,7581.085870,-8686.424337,911.481787,-16864.994689,13764.472457,11826.330343,-8592.144679,-423.006764,22088.150333,13392.338263,-352.643472,3288.321589,0.004000,-0.024000,1.006000,192.000000,0.000000,0.000000,0.000000,0.000000,0.000000,0.000000,0.000000,0.000000,0.000000,1769522834.088859,0.000000
214.000000,15564.503141,15265.347393,2012.148739,-3994.256734,7578.291902,-8734.391181,844.515961,-16953.664059,13904.752005,11799.932933,-8707.680846,-500.477910,22041.904574,13330.312172,-443.592720,3244.847446,0.004000,-0.024000,1.006000,192.000000,0.000000,0.000000,0.000000,0.000000,0.000000,0.000000,0.000000,0.000000,0.000000,1769522834.088896,0.000000
216.000000,15570.336946,15285.441611,2109.177662,-3890.634047,7600.107205,-8676.991901,944.517665,-16824.113348,13847.866815,11826.375047,-8645.610052,-458.881314,22068.681964,13369.383022,-394.307124,3272.228333,0.008000,-0.028000,1.006000,192.000000,0.000000,32.000000,127.500000,16.000000,15.500000,56.000000,0.000000,0.000000,0.000000,1769522834.088933,0.000000
218.000000,15537.256364,15245.186120,2023.883405,-3988.177060,7562.958606,-8730.569032,852.629644,-16944.008105,13789.104079,11801.274038,-8646.325308,-459.417756,22049.750036,13357.916577,-393.234240,3264.427574,0.008000,-0.028000,1.006000,192.000000,0.000000,0.000000,0.000000,0.000000,0.000000,0.000000,0.000000,0.000000,0.000000,1769522834.088969,0.000000
220.000000,15575.075516,15285.151039,2077.192316,-3930.151931,7603.884650,-8706.831480,909.112502,-16874.047145,13941.654735,11805.029131,-8724.534061,-513.419570,22029.879335,13319.672742,-447.146648,3233.336298,0.008000,-0.028000,1.006000,192.000000,0.000000,0.000000,0.000000,0.000000,0.000000,0.000000,0.000000,0.000000,0.000000,1769522834.089006,0.000000
222.000000,15558.646984,15262.396963,2079.427490,-3922.373524,7580.348263,-8693.398081,913.873424,-16865.285261,13750.144988,11822.552898,-8598.358464,-428.371182,22070.157179,13385.252760,-361.383004,3291.517888,0.008000,-0.028000,1.006000,192.000000,0.000000,0.000000,0.000000,0.000000,0.000000,0.000000,0.000000,0.000000,0.000000,1769522834.089042,0.000000
224.000000,15557.887025,15261.905225,2017.557862,-3992.982685,7581.376443,-8736.782817,848.472220,-16950.624222,13898.493516,11801.564610,-8705.266858,-497.818053,22026.548925,13328.702847,-441.782229,3234.029202,0.008000,-0.028000,1.006000,192.000000,0.000000,0.000000,0.000000,0.000000,0.000000,0.000000,0.000000,0.000000,0.000000,1769522834.089080,0.000000
226.000000,15586.363147,15285.218094,2111.614002,-3881.335721,7599.257839,-8653.075534,951.022023,-16814.926781,13850.929004,11833.527605,-8639.373915,-450.097078,22067.609080,13374.143943,-391.647266,3268.137964,0.008000,-0.026000,1.004000,192.000000,0.000000,32.000000,127.500000,24.000000,15.500000,48.000000,0.000000,0.000000,0.000000,1769522834.089116,0.000000
228.000000,15546.152359,15249.343544,2020.642402,-3979.795156,7561.550446,-8746.438771,856.697661,-16937.213175,13790.311073,11806.347884,-8632.288412,-447.526627,22050.778216,13366.521998,-397.749293,3269.389661,0.008000,-0.026000,1.004000,192.000000,0.000000,0.000000,0.000000,0.000000,0.000000,0.000000,0.000000,0.000000,0.000000,1769522834.089153,0.000000
230.000000,15575.142571,15288.324986,2073.616037,-3924.519291,7594.921600,-8705.892707,911.682953,-16866.939290,13944.448703,11809.968866,-8711.927678,-505.238832,22032.136861,13326.422969,-459.395404,3231.369344,0.008000,-0.026000,1.004000,192.000000,0.000000,0.000000,0.000000,0.000000,0.000000,0.000000,0.000000,0.000000,0.000000,1769522834.089190,0.000000
232.000000,15555.473036,15255.490274,2072.833726,-3925.033382,7569.597074,-8694.918000,912.107636,-16866.402849,13746.479302,11821.435311,-8595.385682,-423.163226,22067.653783,13384.001062,-369.966074,3290.333246,0.008000,-0.026000,1.004000,192.000000,0.000000,0.000000,0.000000,0.000000,0.000000,0.000000,0.000000,0.000000,0.000000,1769522834.089227,0.000000
234.000000,15563.094981,15267.984899,2013.288678,-3994.793176,7570.446440,-8751.289100,850.349766,-16946.980887,13894.492554,11802.346921,-8703.590477,-492.766558,22023.374978,13319.650390,-453.315729,3235.996155,0.008000,-0.026000,1.004000,192.000000,0.000000,0.000000,0.000000,0.000000,0.000000,0.000000,0.000000,0.000000,0.000000,1769522834.089264,0.000000
236.000000,15575.209627,15277.260873,2106.987191,-3891.841041,7592.932295,-8690.022968,948.004538,-16820.581772,13840.066056,11826.196233,-8642.681973,-452.756936,22057.684905,13359.235330,-395.491766,3268.786164,0.008000,-0.020000,1.008000,192.000000,0.000000,32.000000,127.500000,48.000000,15.500000,64.000000,0.000000,0.000000,0.000000,1769522834.089300,0.000000
238.000000,15557.216472,15248.225957,2020.687106,-3981.471536,7559.650547,-8722.187128,857.658786,-16934.754483,13786.287759,11805.744386,-8637.988107,-447.057241,22046.598440,13356.441361,-394.910621,3263.421746,0.008000,-0.020000,1.008000,192.000000,0.000000,0.000000,0.000000,0.000000,0.000000,0.000000,0.000000,0.000000,0.000000,1769522834.089337,0.000000
240.000000,15577.131877,15288.257931,2078.108737,-3929.593137,7596.530926,-8687.944256,913.404037,-16868.615671,13942.057066,11809.521831,-8717.672076,-502.333105,22034.148518,13325.864175,-457.383747,3232.643394,0.008000,-0.020000,1.008000,192.000000,0.000000,0.000000,0.000000,0.000000,0.000000,0.000000,0.000000,0.000000,0.000000,1769522834.089354,0.000000
242.000000,15544.207757,15248.695344,2084.166060,-3930.822483,7573.709795,-8701.064730,913.515796,-16870.672032,13744.020610,11814.394512,-8596.547973,-428.952328,22077.600310,13380.245969,-354.275150,3284.030054,0.008000,-0.020000,1.008000,192.000000,0.000000,0.000000,0.000000,0.000000,0.000000,0.000000,0.000000,0.000000,0.000000,1769522834.089365,0.000000
244.000000,15542.441969,15248.337716,2023.168149,-4006.505490,7574.961492,-8767.695280,844.895940,-16966.069277,13885.462449,11782.789145,-8716.398027,-513.240756,22033.343856,13310.374416,-444.822066,3233.112780,0.008000,-0.020000,1.008000,192.000000,0.000000,0.000000,0.000000,0.000000,0.000000,0.000000,0.000000,0.000000,0.000000,1769522834.089375,0.000000
246.000000,15561.262138,15264.900358,2120.688810,-3898.524213,7599.391949,-8692.392253,944.852942,-16834.797482,13839.507263,11810.058273,-8654.059011,-470.638331,22067.922004,13347.791236,-381.656037,3260.136039,0.008000,-0.020000,1.006000,192.000000,0.000000,32.000000,127.500000,48.000000,15.500000,56.000000,0.000000,0.000000,0.000000,1769522834.089386,0.000000
248.000000,15548.611051,15241.699248,2035.372202,-3989.316999,7575.386176,-8735.061733,857.479973,-16945.282155,13786.220704,11791.193401,-8646.548825,-462.636407,22060.456522,13348.327678,-387.333380,3264.539333,0.008000,-0.020000,1.006000,192.000000,0.000000,0.000000,0.000000,0.000000,0.000000,0.000000,0.000000,0.000000,0.000000,1769522834.089396,0.000000
250.000000,15576.930711,15282.155905,2083.763729,-3933.907024,7606.969190,-8700.148308,910.610069,-16875.365898,13946.259194,11799.016511,-8720.376637,-512.056114,22049.168891,13319.918611,-445.760840,3226.183739,0.008000,-0.020000,1.006000,192.000000,0.000000,0.000000,0.000000,0.000000,0.000000,0.000000,0.000000,0.000000,0.000000,1769522834.089407,0.000000
252.000000,15545.057123,15246.415466,2082.087348,-3929.459027,7575.721452,-8705.423320,911.526491,-16872.348413,13753.855378,11811.488785,-8596.235048,-434.987299,22086.809228,13374.859199,-351.212961,3283.895944,0.008000,-0.020000,1.006000,192.000000,0.000000,0.000000,0.000000,0.000000,0.000000,0.000000,0.000000,0.000000,0.000000,1769522834.089418,0.000000
254.000000,15553.439027,15258.954794,2017.289641,-3999.934077,7572.815725,-8761.101515,846.214693,-16955.027515,13893.978464,11782.096241,-8707.926715,-507.652820,22038.954143,13310.754396,-442.899816,3233.515112,0.008000,-0.020000,1.006000,192.000000,0.000000,0.000000,0.000000,0.000000,0.000000,0.000000,0.000000,0.000000,0.000000,1769522834.089428,0.000000
0.000000,15570.314595,15283.005271,2109.937621,-3890.455233,7592.976998,-8681.976340,947.378689,-16822.571078,13853.521806,11822.843471,-8638.345735,-461.898799,22076.236853,13358.296556,-396.832871,3265.254589,0.010000,-0.018000,1.010000,192.000000,0.000000,40.000000,127.500000,56.000000,15.500000,72.000000,0.000000,0.000000,0.000000,1769522834.089439,0.000000
2.000000,15536.116426,15241.475730,2020.195367,-3987.908839,7554.397888,-8727.708009,854.306025,-16941.437655,13785.974835,11795.999026,-8637.384610,-452.913398,22055.047399,13351.166350,-395.201194,3264.025243,0.010000,-0.018000,1.010000,192.000000,0.000000,0.000000,0.000000,0.000000,0.000000,0.000000,0.000000,0.000000,0.000000,1769522834.089450,0.000000
4.000000,15579.478810,15286.738013,2072.051414,-3931.805960,7593.982827,-8712.374713,908.978392,-16872.616633,13938.592546,11799.418843,-8718.677904,-506.468178,22032.919172,13310.575582,-453.159267,3228.553024,0.010000,-0.018000,1.010000,192.000000,0.000000,0.000000,0.000000,0.000000,0.000000,0.000000,0.000000,0.000000,0.000000,1769522834.089460,0.000000
6.000000,15551.270908,15254.350335,2076.611170,-3925.905100,7571.228751,-8687.698387,912.331153,-16869.979128,13749.742657,11818.954267,-8594.424557,-423.342040,22077.287385,13380.760059,-365.428670,3284.834717,0.010000,-0.018000,1.010000,192.000000,0.000000,0.000000,0.000000,0.000000,0.000000,0.000000,0.000000,0.000000,0.000000,1769522834.089471,0.000000
8.000000,15540.966754,15256.563158,2011.768760,-4004.583240,7563.003309,-8761.280329,842.169028,-16965.354021,13885.350691,11788.153564,-8714.520480,-509.955050,22028.202954,13311.201431,-437.334232,3235.482065,0.010000,-0.018000,1.010000,192.000000,0.000000,0.000000,0.000000,0.000000,0.000000,0.000000,0.000000,0.000000,0.000000,1769522834.089482,0.000000
10.000000,15565.754839,15270.577701,2112.955107,-3895.685541,7592.708778,-8689.911209,944.048279,-16832.204680,13840.893071,11817.702570,-8650.840360,-468.626674,22067.966708,13353.289766,-388.428615,3264.874609,0.013000,-0.019000,1.010000,192.000000,0.000000,64.000000,127.500000,48.000000,15.500000,72.000000,0.000000,0.000000,0.000000,1769522834.089492,0.000000
12.000000,15534.641210,15238.145320,2028.599623,-3992.647409,7559.136457,-8743.376582,853.143734,-16950.423056,13779.112849,11796.624875,-8647.822875,-464.670415,22057.126112,13348.953527,-388.674484,3262.818249,0.013000,-0.019000,1.010000,192.000000,0.000000,0.000000,0.000000,0.000000,0.000000,0.000000,0.000000,0.000000,0.000000,1769522834.089502,0.000000
14.000000,15573.130914,15278.087888,2081.930886,-3933.169417,7597.804975,-8695.946180,908.441950,-16880.864427,13936.402075,11797.206020,-8727.551547,-514.783027,22042.910402,13315.045931,-446.364337,3223.769751,0.013000,-0.019000,1.010000,192.000000,0.000000,0.000000,0.000000,0.000000,0.000000,0.000000,0.000000,0.000000,0.000000,1769522834.089513,0.000000
16.000000,15541.950231,15246.504873,2079.718063,-3929.034344,7571.899303,-8705.780948,909.023095,-16880.484448,13739.349096,11810.348846,-8607.947362,-431.433371,22078.002641,13377.452001,-352.956397,3283.046577,0.013000,-0.019000,1.010000,192.000000,0.000000,0.000000,0.000000,0.000000,0.000000,0.000000,0.000000,0.000000,0.000000,1769522834.089523,0.000000
18.000000,15540.698533,15252.562195,2016.149702,-3997.967124,7567.026623,-8753.054887,842.727821,-16964.258786,13879.807458,11785.538409,-8721.605983,-506.624640,22033.187393,13314.442434,-436.216645,3232.218710,0.013000,-0.019000,1.010000,192.000000,0.000000,0.000000,0.000000,0.000000,0.000000,0.000000,0.000000,0.000000,0.000000,1769522834.089534,0.000000
20.000000,15562.692650,15268.253120,2111.502243,-3889.270590,7582.695196,-8668.051203,943.824761,-16834.126930,13833.740513,11816.316762,-8657.009441,-463.172849,22069.508978,13359.503550,-393.748330,3268.987330,0.011500,-0.016500,1.008000,192.000000,0.000000,40.000000,127.500000,72.000000,15.500000,56.000000,0.000000,0.000000,0.000000,1769522834.089544,0.000000
22.000000,15523.219469,15235.418407,2022.005859,-3988.735853,7548.362917,-8750.417382,851.780278,-16951.786512,13776.162419,11790.969883,-8651.533264,-462.323482,22055.315620,13347.299498,-394.776511,3266.126307,0.011500,-0.016500,1.008000,192.000000,0.000000,0.000000,0.000000,0.000000,0.000000,0.000000,0.000000,0.000000,0.000000,1769522834.089555,0.000000
24.000000,15576.774249,15289.777850,2077.304074,-3928.676716,7586.718510,-8723.908213,911.213566,-16871.364936,13930.210642,11798.658883,-8728.490320,-514.939489,22027.197126,13308.407463,-453.539247,3225.915519,0.011500,-0.016500,1.008000,192.000000,0.000000,0.000000,0.000000,0.000000,0.000000,0.000000,0.000000,0.000000,0.000000,1769522834.089565,0.000000
26.000000,15547.001725,15249.656469,2069.480964,-3928.520254,7551.916844,-8731.418399,908.464302,-16877.064631,13743.551224,11818.350770,-8599.632513,-427.365354,22071.766504,13378.502533,-365.205153,3282.063101,0.011500,-0.016500,1.008000,192.000000,0.000000,0.000000,0.000000,0.000000,0.000000,0.000000,0.000000,0.000000,0.000000,1769522834.089576,0.000000
28.000000,15544.341867,15254.372687,2005.420864,-3993.943810,7552.989728,-8743.510693,844.940644,-16960.079010,13877.684042,11789.472316,-8719.773140,-507.853986,22016.758861,13312.162556,-446.073764,3238.946586,0.011500,-0.016500,1.008000,192.000000,0.000000,0.000000,0.000000,0.000000,0.000000,0.000000,0.000000,0.000000,0.000000,1769522834.089586,0.000000
30.000000,15561.731525,15266.755553,2101.622772,-3892.802166,7582.136402,-8686.223171,943.109506,-16833.545784,13837.205033,11821.457663,-8652.807314,-456.780250,22062.468179,13360.576434,-399.023342,3266.886266,0.010750,-0.016250,1.005000,192.000000,0.000000,40.000000,127.500000,64.000000,15.500000,40.000000,0.000000,0.000000,0.000000,1769522834.089597,0.000000
32.000000,15535.691742,15243.800312,2017.043771,-3986.388920,7553.414411,-8741.431980,852.093202,-16948.389047,13779.962215,11794.412052,-8650.125104,-461.719985,22044.653838,13346.517187,-391.714322,3267.154487,0.010750,-0.016250,1.005000,192.000000,0.000000,0.000000,0.000000,0.000000,0.000000,0.000000,0.000000,0.000000,0.000000,1769522834.089608,0.000000
34.000000,15584.038566,15297.019815,2079.069862,-3923.692277,7598.967266,-8696.035587,911.548842,-16869.733258,13944.962793,11811.667599,-8722.500053,-508.926870,22042.530423,13323.360780,-454.098040,3223.076847,0.010750,-0.016250,1.005000,192.000000,0.000000,0.000000,0.000000,0.000000,0.000000,0.000000,0.000000,0.000000,0.000000,1769522834.089618,0.000000
36.000000,15550.354487,15255.266756,2081.126223,-3919.959536,7573.419222,-8693.241619,912.308802,-16871.431991,13760.337384,11830.688933,-8594.692778,-420.123389,22090.161990,13394.685196,-362.813516,3285.169993,0.010750,-0.016250,1.005000,192.000000,0.000000,0.000000,0.000000,0.000000,0.000000,0.000000,0.000000,0.000000,0.000000,1769522834.089629,0.000000
38.000000,15561.016269,15259.938271,2021.491769,-3993.094443,7567.048975,-8754.753620,847.913426,-16959.229643,13899.007606,11803.240991,-8711.480643,-495.962858,22041.837518,13326.378265,-435.568444,3233.872740,0.010750,-0.016250,1.005000,192.000000,0.000000,0.000000,0.000000,0.000000,0.000000,0.000000,0.000000,0.000000,0.000000,1769522834.089640,0.000000
40.000000,15564.637251,15280.680690,2117.067828,-3886.744843,7587.277304,-8692.034625,950.619692,-16827.890793,13851.711315,11826.620916,-8650.370973,-457.964892,22076.035687,13364.420934,-393.368351,3262.773545,0.009375,-0.017125,1.005500,192.000000,0.000000,32.000000,127.500000,56.000000,15.500000,56.000000,0.000000,0.000000,0.000000,1769522834.089650,0.000000
42.000000,15525.164071,15236.312477,2024.106923,-3986.746548,7544.630175,-8763.716670,856.272978,-16952.926451,13777.414117,11796.602523,-8648.158151,-455.841476,22049.906498,13351.926309,-393.100130,3263.511153,0.009375,-0.017125,1.005500,192.000000,0.000000,0.000000,0.000000,0.000000,0.000000,0.000000,0.000000,0.000000,0.000000,1769522834.089660,0.000000
44.000000,15569.800504,15284.994577,2075.337121,-3925.681582,7587.366711,-8702.048207,911.884119,-16878.852770,13931.998781,11803.911543,-8730.144349,-509.530367,22035.243754,13318.197527,-449.739450,3226.317850,0.009375,-0.017125,1.005500,192.000000,0.000000,0.000000,0.000000,0.000000,0.000000,0.000000,0.000000,0.000000,0.000000,1769522834.089671,0.000000
46.000000,15542.866652,15254.707963,2076.678226,-3919.221928,7562.444516,-8698.024893,913.828720,-16873.868331,13741.718381,11821.189442,-8605.734540,-423.677316,22073.062905,13387.622045,-369.764909,3287.114595,0.009375,-0.017125,1.005500,192.000000,0.000000,0.000000,0.000000,0.000000,0.000000,0.000000,0.000000,0.000000,0.000000,1769522834.089681,0.000000
48.000000,15552.053219,15260.765286,2011.411132,-3991.127490,7559.404678,-8752.339632,847.622853,-16957.553262,13882.713185,11797.116613,-8715.436902,-497.147500,22018.926980,13323.472538,-442.296319,3235.638527,0.009375,-0.017125,1.005500,192.000000,0.000000,0.000000,0.000000,0.000000,0.000000,0.000000,0.000000,0.000000,0.000000,1769522834.089692,0.000000
50.000000,15578.472981,15277.551446,2106.271935,-3886.409567,7587.478469,-8692.213439,947.736317,-16825.990895,13847.106856,11827.425579,-8645.900625,-451.281721,22061.015315,13368.533655,-394.955325,3264.137002,0.009687,-0.016563,1.004750,192.000000,0.000000,40.000000,127.500000,64.000000,15.500000,48.000000,0.000000,0.000000,0.000000,1769522834.089702,0.000000
52.000000,15533.657734,15240.671067,2016.820254,-3987.864135,7548.944062,-8758.575768,855.289502,-16945.416265,13781.839762,11798.994160,-8642.860787,-458.121354,22045.279687,13353.021545,-393.413054,3266.126307,0.009687,-0.016563,1.004750,192.000000,0.000000,0.000000,0.000000,0.000000,0.000000,0.000000,0.000000,0.000000,0.000000,1769522834.089713,0.000000
54.000000,15586.161981,15291.521286,2073.616037,-3928.810826,7593.893420,-8718.297925,911.258270,-16869.889721,13944.336944,11808.918334,-8720.264878,-503.182471,22034.416739,13320.008018,-457.674319,3224.864987,0.009687,-0.016563,1.004750,192.000000,0.000000,0.000000,0.000000,0.000000,0.000000,0.000000,0.000000,0.000000,0.000000,1769522834.089724,0.000000
56.000000,15553.215510,15259.960623,2075.739452,-3921.300640,7558.085925,-8684.658549,912.129988,-16866.358145,13753.229529,11823.558727,-8593.731653,-416.547110,22078.293214,13388.896094,-371.240124,3290.154432,0.009687,-0.016563,1.004750,192.000000,0.000000,0.000000,0.000000,0.000000,0.000000,0.000000,0.000000,0.000000,0.000000,1769522834.089734,0.000000
58.000000,15562.715001,15259.714754,2016.082646,-3997.542441,7567.741879,-8746.394068,845.231217,-16954.848701,13893.397319,11799.016511,-8705.579782,-493.884145,22033.902649,13329.373399,-458.501334,3235.303251,0.009687,-0.016563,1.004750,192.000000,0.000000,0.000000,0.000000,0.000000,0.000000,0.000000,0.000000,0.000000,0.000000,1769522834.089745,0.000000
60.000000,15568.638214,15277.283225,2113.849177,-3890.611695,7590.987693,-8678.265950,947.781020,-16825.677970,13848.336202,11828.498462,-8643.866616,-453.494543,22072.727629,13363.862141,-391.826080,3259.085507,0.007844,-0.019281,1.003375,192.000000,0.000000,24.000000,127.500000,40.000000,15.500000,40.000000,0.000000,0.000000,0.000000,1769522834.089755,0.000000
62.000000,15530.506138,15240.536957,2026.833835,-3987.439452,7556.990690,-8752.205521,857.614083,-16947.182053,13782.487963,11803.173936,-8642.950194,-455.170924,22055.025048,13354.764981,-395.983505,3263.533504,0.007844,-0.019281,1.003375,192.000000,0.000000,0.000000,0.000000,0.000000,0.000000,0.000000,0.000000,0.000000,0.000000,1769522834.089766,0.000000
64.000000,15574.606129,15280.300710,2080.902705,-3934.689335,7593.580496,-8735.844044,910.453607,-16879.858599,13935.284488,11802.749253,-8726.590422,-511.922003,22034.997885,13312.810756,-457.182581,3224.730876,0.007844,-0.019281,1.003375,192.000000,0.000000,0.000000,0.000000,0.000000,0.000000,0.000000,0.000000,0.000000,0.000000,1769522834.089777,0.000000
66.000000,15546.219414,15253.568024,2086.311827,-3928.542605,7574.268588,-8703.434015,914.566328,-16872.951910,13746.121674,11822.463491,-8599.856031,-429.399363,22081.467161,13381.385908,-367.015644,3286.466394,0.007844,-0.019281,1.003375,192.000000,0.000000,0.000000,0.000000,0.000000,0.000000,0.000000,0.000000,0.000000,0.000000,1769522834.089787,0.000000
68.000000,15552.835530,15256.026716,2023.369315,-3999.799967,7569.261798,-8750.529140,847.108763,-16962.045963,13887.809382,11799.754119,-8710.407759,-503.629506,22034.774367,13320.611515,-451.549941,3236.867873,0.007844,-0.019281,1.003375,192.000000,0.000000,0.000000,0.000000,0.000000,0.000000,0.000000,0.000000,0.000000,0.000000,1769522834.089798,0.000000
70.000000,15570.292243,15273.975167,2119.660630,-3890.924620,7593.356978,-8668.989977,946.752840,-16832.517604,13844.692867,11831.404189,-8648.784000,-459.708328,22074.985155,13366.745516,-404.901851,3264.360519,0.006922,-0.019641,1.003688,192.000000,0.000000,24.000000,127.500000,48.000000,15.500000,48.000000,0.000000,0.000000,0.000000,1769522834.089808,0.000000
72.000000,15535.714094,15245.141416,2032.287661,-3985.472499,7562.891550,-8731.418399,856.205923,-16946.869129,13783.784364,11806.861974,-8645.408886,-458.456631,22059.115417,13358.676536,-393.435406,3265.858086,0.006922,-0.019641,1.003688,192.000000,0.000000,0.000000,0.000000,0.000000,0.000000,0.000000,0.000000,0.000000,0.000000,1769522834.089819,0.000000
74.000000,15581.490467,15297.310388,2079.919229,-3927.469722,7600.420129,-8700.461233,910.811235,-16870.873197,13951.087171,11820.943573,-8717.046227,-500.701428,22048.543042,13330.938021,-452.689880,3224.775580,0.006922,-0.019641,1.003688,192.000000,0.000000,0.000000,0.000000,0.000000,0.000000,0.000000,0.000000,0.000000,0.000000,1769522834.569832,0.000000
76.000000,15552.857882,15265.928539,2077.840516,-3920.943012,7573.575684,-8691.051148,913.180520,-16865.039392,13755.531759,11834.734599,-8593.955170,-417.575290,22083.858798,13392.494725,-368.356749,3292.255496,0.006922,-0.019641,1.003688,192.000000,0.000000,0.000000,0.000000,0.000000,0.000000,0.000000,0.000000,0.000000,0.000000,1769522834.569900,0.000000
78.000000,15566.380688,15272.790524,2014.808597,-3991.775691,7569.440612,-8748.875111,848.293406,-16948.791379,13897.130060,11812.829889,-8702.539945,-489.816128,22037.277763,13330.178062,-451.281721,3237.806647,0.006922,-0.019641,1.003688,192.000000,0.000000,0.000000,0.000000,0.000000,0.000000,0.000000,0.000000,0.000000,0.000000,1769522834.569945,0.000000
80.000000,15585.893760,15293.711757,2110.764636,-3882.252143,7594.765138,-8692.414605,950.485581,-16817.720749,13855.377001,11846.648079,-8637.339906,-446.900779,22077.153275,13376.133248,-401.727903,3263.444097,0.006922,-0.019641,1.003688,192.000000,0.000000,0.000000,0.000000,0.000000,0.000000,0.000000,0.000000,0.000000,0.000000,1769522834.569987,0.000000
82.000000,15537.546937,15253.322155,2019.547167,-3982.455013,7553.816742,-8759.313376,857.032938,-16939.358942,13785.147820,11812.382855,-8640.536206,-450.119430,22053.974516,13360.442324,-396.587002,3272.451850,0.004000,-0.018000,1.012000,192.000000,0.000000,16.000000,127.500000,56.000000,15.500000,80.000000,0.000000,0.000000,0.000000,1769522834.570040,0.000000
84.000000,15587.190162,15300.327873,2072.319635,-3927.916757,7594.429862,-8698.918962,910.990049,-16870.515570,13946.080380,11826.889137,-8718.968477,-494.599401,22044.631486,13333.307306,-462.189372,3230.072943,0.004000,-0.018000,1.012000,192.000000,0.000000,0.000000,0.000000,0.000000,0.000000,0.000000,0.000000,0.000000,0.000000,1769522834.570074,0.000000
86.000000,15556.568272,15265.660318,2075.292417,-3923.960498,7564.411469,-8694.895648,913.851072,-16868.123933,13749.183863,11838.780265,-8599.051368,-415.898909,22080.930719,13394.707548,-371.351882,3290.132080,0.004000,-0.018000,1.012000,192.000000,0.000000,0.000000,0.000000,0.000000,0.000000,0.000000,0.000000,0.000000,0.000000,1769522834.570087,0.000000
88.000000,15562.357374,15275.606844,2015.546205,-3996.424853,7568.032452,-8743.577748,849.634510,-16952.635879,13892.860877,11805.632628,-8710.541869,-490.844308,22037.121300,13334.357838,-456.087346,3237.203149,0.004000,-0.018000,1.012000,192.000000,0.000000,0.000000,0.000000,0.000000,0.000000,0.000000,0.000000,0.000000,0.000000,1769522834.570099,0.000000
90.000000,15594.700348,15296.617484,2118.252470,-3889.851736,7599.391949,-8668.587645,950.552636,-16821.721711,13854.639394,11844.032925,-8643.978374,-448.107773,22078.024993,13379.486010,-412.724961,3261.544199,0.004000,-0.018000,1.012000,192.000000,0.000000,0.000000,0.000000,0.000000,0.000000,0.000000,0.000000,0.000000,0.000000,1769522834.570110,0.000000
92.000000,15548.432237,15253.232748,2030.343059,-3988.110004,7557.795353,-8745.835274,857.792897,-16944.343381,13793.619131,11819.781282,-8639.373915,-447.057241,22065.150388,13366.320833,-398.621011,3265.947493,0.004000,-0.018000,1.012000,192.000000,0.000000,0.000000,127.500000,40.000000,15.500000,56.000000,0.000000,0.000000,0.000000,1769522834.570121,0.000000
94.000000,15586.005519,15299.545562,2085.216592,-3933.236472,7602.230621,-8724.265841,912.755837,-16872.884854,13951.131874,11819.468357,-8720.041361,-505.663515,22047.581917,13322.824338,-460.781212,3229.648260,0.004000,-0.018000,1.012000,192.000000,0.000000,0.000000,0.000000,0.000000,0.000000,0.000000,0.000000,0.000000,0.000000,1769522834.570133,0.000000
96.000000,15549.929804,15259.625347,2081.394444,-3927.693239,7570.066460,-8709.893669,912.174691,-16871.990785,13752.603680,11826.151529,-8594.201040,-420.235148,22084.529350,13385.543333,-365.272208,3288.500403,0.004000,-0.018000,1.012000,192.000000,0.000000,0.000000,0.000000,0.000000,0.000000,0.000000,0.000000,0.000000,0.000000,1769522834.570144,0.000000
98.000000,15568.325289,15276.143286,2017.557862,-3997.721255,7575.542638,-8747.109323,845.991176,-16951.294774,13893.799650,11800.536430,-8705.020989,-492.766558,22036.517803,13325.618306,-452.846343,3237.940757,0.004000,-0.018000,1.012000,192.000000,0.000000,0.000000,0.000000,0.000000,0.000000,0.000000,0.000000,0.000000,0.000000,1769522834.570156,0.000000
100.000000,15585.983167,15298.360920,2113.133921,-3886.320160,7597.782624,-8672.946235,949.435049,-16816.737272,13857.612176,11840.255480,-8634.054200,-443.995052,22080.193112,13375.105068,-406.600583,3260.538371,0.004000,-0.018000,1.012000,192.000000,0.000000,0.000000,0.000000,0.000000,0.000000,0.000000,0.000000,0.000000,0.000000,1769522834.570167,0.000000
102.000000,15553.126103,15253.746838,2020.083609,-3984.511374,7556.498951,-8744.985908,854.686004,-16938.062541,13786.734794,11810.304142,-8634.702401,-445.537322,22055.829710,13364.331527,-398.598659,3271.736595,0.002000,-0.024000,1.006000,192.000000,0.000000,8.000000,127.500000,32.000000,15.500000,56.000000,0.000000,0.000000,0.000000,1769522834.570179,0.000000
104.000000,15585.983167,15305.625237,2070.307978,-3930.129579,7593.602847,-8706.697369,908.509005,-16866.983994,13940.917127,11815.422692,-8717.180338,-499.159157,22039.669399,13325.998286,-467.732604,3231.056420,0.002000,-0.024000,1.006000,192.000000,0.000000,0.000000,0.000000,0.000000,0.000000,0.000000,0.000000,0.000000,0.000000,1769522834.570190,0.000000
106.000000,15555.853016,15267.359050,2075.426528,-3926.106265,7568.725356,-8715.258088,913.471092,-16860.881968,13752.938956,11833.549957,-8590.423595,-416.591813,22084.395240,13391.086565,-375.665769,3292.993104,0.002000,-0.024000,1.006000,192.000000,0.000000,0.000000,0.000000,0.000000,0.000000,0.000000,0.000000,0.000000,0.000000,1769522834.570201,0.000000
108.000000,15560.144551,15266.554387,2005.309106,-4002.772749,7563.271530,-8760.095687,844.314795,-16954.334611,13889.329301,11802.704549,-8704.037512,-493.235945,22034.796719,13323.047855,-457.517857,3228.642431,0.002000,-0.024000,1.006000,192.000000,0.000000,0.000000,0.000000,0.000000,0.000000,0.000000,0.000000,0.000000,0.000000,1769522834.570212,0.000000
110.000000,15574.762592,15286.760364,2105.847252,-3890.768157,7595.703911,-8684.926770,948.451572,-16820.961752,13842.301231,11830.778340,-8645.274776,-452.578122,22069.218405,13364.912673,-408.321668,3258.884342,0.002000,-0.024000,1.006000,192.000000,0.000000,0.000000,0.000000,0.000000,0.000000,0.000000,0.000000,0.000000,0.000000,1769522834.570223,0.000000
112.000000,15540.564423,15248.762399,2022.832873,-3987.662970,7556.767172,-8760.006280,856.787068,-16939.068370,13776.698861,11807.107843,-8636.244671,-444.285625,22060.612984,13358.676536,-403.717208,3258.549065,0.002000,-0.024000,1.010000,192.000000,0.000000,8.000000,127.500000,32.000000,15.500000,72.000000,0.000000,0.000000,0.000000,1769522834.570234,0.000000
114.000000,15583.792696,15286.268626,2071.157345,-3935.114018,7587.009083,-8715.481605,906.899680,-16878.338680,13931.797616,11806.392587,-8726.143387,-506.848157,22037.277763,13318.242230,-478.059110,3224.462655,0.002000,-0.024000,1.010000,192.000000,0.000000,0.000000,0.000000,0.000000,0.000000,0.000000,0.000000,0.000000,0.000000,1769522834.570247,0.000000
116.000000,15546.711152,15257.837207,2082.020293,-3930.174283,7569.239446,-8708.887840,912.577023,-16870.202645,13738.767950,11818.395474,-8603.342903,-428.214720,22083.076487,13381.520019,-378.347978,3281.794880,0.002000,-0.024000,1.010000,192.000000,0.000000,0.000000,0.000000,0.000000,0.000000,0.000000,0.000000,0.000000,0.000000,1769522834.570259,0.000000
118.000000,15547.448760,15257.859559,2011.120559,-4005.969048,7556.744821,-8766.287120,842.392545,-16964.012917,13882.042632,11798.278904,-8712.777044,-502.534271,22040.317600,13318.555155,-455.416793,3222.383943,0.002000,-0.024000,1.010000,192.000000,0.000000,0.000000,0.000000,0.000000,0.000000,0.000000,0.000000,0.000000,0.000000,1769522834.570270,0.000000
120.000000,15558.311708,15266.755553,2106.115473,-3901.631105,7583.142231,-8702.048207,942.930692,-16836.295049,13826.252678,11808.895982,-8661.189218,-469.096061,22063.205786,13348.417085,-410.623897,3262.550028,0.002000,-0.024000,1.010000,192.000000,0.000000,0.000000,0.000000,0.000000,0.000000,0.000000,0.000000,0.000000,0.000000,1769522834.570281,0.000000
122.000000,15528.472129,15238.927631,2022.430542,-3994.748473,7551.514512,-8768.879922,854.082507,-16949.171358,13759.488017,11786.052500,-8651.265043,-463.485773,22048.543042,13341.890376,-405.460644,3259.040804,0.002000,-0.020000,1.008000,192.000000,0.000000,8.000000,127.500000,48.000000,15.500000,64.000000,0.000000,0.000000,0.000000,1769522834.570292,0.000000
124.000000,15586.810182,15287.833248,2073.191353,-3937.595062,7592.284094,-8739.889710,909.760703,-16875.008270,13928.154281,11800.648189,-8723.729399,-506.132901,22036.718969,13315.604724,-468.336102,3215.432550,0.002000,-0.020000,1.008000,192.000000,0.000000,0.000000,0.000000,0.000000,0.000000,0.000000,0.000000,0.000000,0.000000,1769522834.570302,0.000000
126.000000,15543.850129,15258.798332,2072.610208,-3928.922585,7562.042184,-8714.073445,914.298107,-16868.638023,13734.498767,11815.243878,-8598.403168,-426.963023,22077.175626,13376.937911,-377.565667,3284.208868,0.002000,-0.020000,1.008000,192.000000,0.000000,0.000000,0.000000,0.000000,0.000000,0.000000,0.000000,0.000000,0.000000,1769522834.570313,0.000000
128.000000,15557.909376,15262.508722,2007.209004,-3998.861194,7561.014004,-8752.987832,847.376984,-16951.875919,13874.800667,11790.522848,-8707.010294,-497.862756,22024.783137,13322.086730,-462.904628,3237.650184,0.002000,-0.020000,1.008000,192.000000,0.000000,0.000000,0.000000,0.000000,0.000000,0.000000,0.000000,0.000000,0.000000,1769522834.570324,0.000000
130.000000,15584.306787,15290.202533,2109.535290,-3887.527154,7589.624237,-8696.303808,952.407831,-16813.451566,13838.546138,11824.385741,-8639.351563,-448.621863,22076.616833,13365.896149,-415.071895,3261.343033,0.002000,-0.020000,1.008000,192.000000,0.000000,0.000000,0.000000,0.000000,0.000000,0.000000,0.000000,0.000000,0.000000,1769522834.570335,0.000000
132.000000,15547.873443,15248.360067,2020.821216,-3982.522068,7546.641832,-8770.332786,859.223409,-16932.295791,13771.245035,11801.251686,-8634.054200,-444.687956,22054.086274,13355.077905,-417.932918,3263.421746,0.004000,-0.022000,0.998000,192.000000,0.000000,16.000000,127.500000,40.000000,15.500000,24.000000,0.000000,0.000000,0.000000,1769522834.570346,0.000000
134.000000,15590.028833,15298.226809,2074.979493,-3926.821521,7590.652417,-8723.885861,913.962831,-16863.340660,13940.738313,11812.874593,-8712.866451,-492.006599,22041.457539,13326.400617,-473.432299,3216.907765,0.004000,-0.022000,0.998000,192.000000,0.000000,0.000000,0.000000,0.000000,0.000000,0.000000,0.000000,0.000000,0.000000,1769522834.570359,0.000000
136.000000,15564.033754,15263.782771,2074.621865,-3921.658268,7557.013042,-8719.259050,916.555633,-16860.904319,13746.121674,11823.044637,-8593.038749,-410.690953,22079.164932,13387.487935,-379.622028,3278.397414,0.004000,-0.022000,0.998000,192.000000,0.000000,0.000000,0.000000,0.000000,0.000000,0.000000,0.000000,0.000000,0.000000,1769522834.570372,0.000000
138.000000,15561.351545,15271.561178,2013.266327,-3994.569659,7560.075231,-8767.762335,850.416821,-16946.533852,13880.142734,11791.998064,-8703.746939,-488.452672,22031.421606,13320.924440,-458.255465,3231.369344,0.004000,-0.022000,0.998000,192.000000,0.000000,0.000000,0.000000,0.000000,0.000000,0.000000,0.000000,0.000000,0.000000,1769522834.570382,0.000000
140.000000,15575.656661,15285.910998,2110.474063,-3887.236582,7585.042129,-8689.307712,952.318424,-16816.156127,13839.350800,11827.067951,-8642.458456,-443.637424,22070.268937,13367.036088,-415.563633,3257.029147,0.004000,-0.022000,0.998000,192.000000,0.000000,0.000000,0.000000,0.000000,0.000000,0.000000,0.000000,0.000000,0.000000,1769522834.570395,0.000000
142.000000,15536.742274,15240.358143,2020.597699,-3985.606609,7543.557291,-8755.066544,856.429441,-16941.392951,13767.646404,11798.077738,-8639.552729,-444.509142,22051.202899,13357.357783,-416.167130,3263.645263,0.004000,-0.022000,1.006000,192.000000,0.000000,16.000000,127.500000,40.000000,15.500000,56.000000,0.000000,0.000000,0.000000,1769522834.570405,0.000000
144.000000,15577.064821,15290.738975,2074.331292,-3931.247167,7586.897324,-8708.172585,909.023095,-16872.594282,13928.958944,11804.671503,-8724.846986,-502.355457,22037.657742,13321.058550,-477.433262,3230.207053,0.004000,-0.022000,1.006000,192.000000,0.000000,0.000000,0.000000,0.000000,0.000000,0.000000,0.000000,0.000000,0.000000,1769522834.570417,0.000000
146.000000,15545.682972,15256.764323,2078.332255,-3929.168454,7565.819629,-8728.400913,911.928822,-16869.800314,13736.733942,11816.428520,-8602.404130,-427.410057,22080.014298,13379.240141,-376.224563,3289.573287,0.004000,-0.022000,1.006000,192.000000,0.000000,0.000000,0.000000,0.000000,0.000000,0.000000,0.000000,0.000000,0.000000,1769522834.570430,0.000000
148.000000,15559.719868,15260.944100,2014.652135,-3999.867022,7563.875027,-8772.143277,847.958129,-16952.457065,13876.521751,11790.433441,-8707.323218,-491.559564,22037.054245,13319.650390,-462.032910,3231.570510,0.004000,-0.022000,1.006000,192.000000,0.000000,0.000000,0.000000,0.000000,0.000000,0.000000,0.000000,0.000000,0.000000,1769522834.570441,0.000000
150.000000,15568.101772,15283.742879,2107.814206,-3891.930448,7584.148059,-8672.096869,947.803372,-16820.291200,13836.623888,11823.357561,-8646.593529,-451.281721,22068.011411,13363.459809,-415.407171,3264.561685,0.004000,-0.022000,1.006000,192.000000,0.000000,0.000000,0.000000,0.000000,0.000000,0.000000,0.000000,0.000000,0.000000,1769522834.570452,0.000000
152.000000,15534.216527,15246.214300,2021.402362,-3985.383092,7548.251158,-8754.932434,858.329339,-16934.374503,13768.406364,11799.843526,-8636.937575,-449.203008,22054.578013,13352.730972,-411.339153,3266.260417,0.006000,-0.021000,1.007000,192.000000,0.000000,32.000000,127.500000,48.000000,15.500000,64.000000,0.000000,0.000000,0.000000,1769522834.570463,0.000000
154.000000,15582.898627,15298.271513,2071.626731,-3926.508597,7598.967266,-8729.719666,914.454569,-16862.603052,13932.311706,11808.024264,-8714.051093,-495.538175,22038.395350,13319.181003,-470.258352,3218.360629,0.006000,-0.021000,1.007000,192.000000,0.000000,0.000000,0.000000,0.000000,0.000000,0.000000,0.000000,0.000000,0.000000,1769522834.570474,0.000000
156.000000,15551.941461,15258.775980,2070.755013,-3921.345344,7560.879893,-8734.592347,917.181482,-16861.373706,13743.841796,11822.083512,-8588.993083,-411.808540,22076.929757,13384.984539,-380.292580,3280.543182,0.006000,-0.021000,1.007000,192.000000,0.000000,0.000000,0.000000,0.000000,0.000000,0.000000,0.000000,0.000000,0.000000,1769522834.570484,0.000000
158.000000,15550.488597,15262.821646,2003.744483,-3993.943810,7552.408582,-8765.571864,847.287577,-16952.702934,13866.932853,11787.773584,-8708.261992,-489.771425,22030.013446,13316.677608,-463.530477,3232.710449,0.006000,-0.021000,1.007000,192.000000,0.000000,0.000000,0.000000,0.000000,0.000000,0.000000,0.000000,0.000000,0.000000,1769522834.570495,0.000000
160.000000,15564.279624,15285.553370,2104.707313,-3885.828422,7582.762251,-8697.935486,951.402003,-16820.537069,13828.845481,11823.424616,-8644.179540,-446.520799,22062.401123,13361.582263,-418.514063,3259.823115,0.006000,-0.021000,1.007000,192.000000,0.000000,0.000000,0.000000,0.000000,0.000000,0.000000,0.000000,0.000000,0.000000,1769522834.570506,0.000000
162.000000,15533.478920,15239.911108,2019.033077,-3982.253847,7544.876044,-8752.809018,860.788031,-16940.074198,13756.671698,11794.546162,-8641.832607,-451.572293,22047.626620,13350.004059,-407.315839,3264.427574,0.006000,-0.021500,1.005500,192.000000,0.000000,24.000000,127.500000,40.000000,15.500000,48.000000,0.000000,0.000000,0.000000,1769522834.570517,0.000000
164.000000,15567.610033,15285.508667,2074.867734,-3930.889539,7593.446385,-8729.339687,914.521624,-16869.733258,13923.438063,11797.876572,-8720.577803,-498.265087,22035.981361,13312.967219,-470.481869,3220.975783,0.006000,-0.021500,1.005500,192.000000,0.000000,0.000000,0.000000,0.000000,0.000000,0.000000,0.000000,0.000000,0.000000,1769522834.570528,0.000000
166.000000,15538.776283,15251.422256,2074.957141,-3929.302565,7560.723431,-8733.117131,915.438046,-16868.682726,13731.794206,11812.338151,-8598.492575,-418.402304,22074.627528,13368.801876,-378.012702,3281.750176,0.006000,-0.021500,1.005500,192.000000,0.000000,0.000000,0.000000,0.000000,0.000000,0.000000,0.000000,0.000000,0.000000,1769522834.570539,0.000000
168.000000,15537.926917,15254.015059,2010.964097,-4002.951563,7561.081059,-8778.669987,847.488743,-16956.659193,13865.725859,11782.051537,-8712.195899,-494.644105,22031.175736,13303.244210,-457.786078,3235.035030,0.006000,-0.021500,1.005500,192.000000,0.000000,0.000000,0.000000,0.000000,0.000000,0.000000,0.000000,0.000000,0.000000,1769522834.570550,0.000000
170.000000,15557.507045,15273.528132,2108.954145,-3892.690407,7589.266609,-8693.129861,949.680918,-16824.806252,13827.817300,11811.064102,-8650.818008,-450.946444,22070.157179,13348.148864,-411.406208,3265.276940,0.006000,-0.021500,1.005500,192.000000,0.000000,0.000000,0.000000,0.000000,0.000000,0.000000,0.000000,0.000000,0.000000,1769522834.570562,0.000000
172.000000,15523.711207,15239.464073,2021.245899,-3990.635752,7554.420239,-8772.299739,856.250627,-16945.595079,13764.606567,11790.567552,-8641.765552,-446.140819,22060.702391,13343.209129,-409.081627,3266.573342,0.006000,-0.020750,1.006750,192.000000,0.000000,24.000000,127.500000,48.000000,15.500000,64.000000,0.000000,0.000000,0.000000,1769522834.570573,0.000000
174.000000,15576.058993,15286.961530,2071.447917,-3937.036268,7587.590228,-8719.281402,907.011438,-16880.037413,13926.120272,11792.467450,-8728.177396,-507.362247,22039.512937,13300.293779,-463.530477,3225.066152,0.006000,-0.020750,1.006750,192.000000,0.000000,0.000000,0.000000,0.000000,0.000000,0.000000,0.000000,0.000000,0.000000,1769522834.570584,0.000000
176.000000,15534.641210,15254.707963,2078.287551,-3926.687411,7569.038280,-8702.875221,914.096941,-16868.615671,13737.158625,11813.455738,-8598.984313,-424.169055,22080.595443,13377.094373,-374.168202,3283.918295,0.006000,-0.020750,1.006750,192.000000,0.000000,0.000000,0.000000,0.000000,0.000000,0.000000,0.000000,0.000000,0.000000,1769522834.570594,0.000000
178.000000,15546.465283,15263.112219,2012.595774,-3996.581316,7570.044109,-8775.898370,846.773487,-16954.491073,13877.102897,11786.432479,-8708.083178,-489.458500,22035.869603,13311.335541,-452.712232,3230.676440,0.006000,-0.020750,1.006750,192.000000,0.000000,0.000000,0.000000,0.000000,0.000000,0.000000,0.000000,0.000000,0.000000,1769522834.570607,0.000000
180.000000,15570.828685,15289.621388,2111.546947,-3883.101509,7593.804013,-8695.029759,951.066727,-16817.385473,13838.322620,11824.296334,-8642.704325,-444.911473,22069.039591,13358.430667,-416.055371,3259.443135,0.006000,-0.020750,1.006750,192.000000,0.000000,0.000000,0.000000,0.000000,0.000000,0.000000,0.000000,0.000000,0.000000,1769522834.570618,0.000000
182.000000,15535.110597,15253.903300,2025.716248,-3975.704786,7563.673861,-8732.603041,862.173839,-16933.547489,13774.530742,11805.498517,-8629.427389,-436.976604,22063.652821,13359.324737,-403.448987,3262.728842,0.007000,-0.022375,1.006375,192.000000,0.000000,32.000000,127.500000,32.000000,15.500000,56.000000,0.000000,0.000000,0.000000,1769522834.570628,0.000000
184.000000,15579.076478,15301.534867,2074.174830,-3921.390047,7595.636856,-8698.851907,913.068761,-16868.101581,13937.117331,11812.651075,-8713.425245,-491.291343,22051.806396,13325.372437,-473.074671,3224.574414,0.007000,-0.022375,1.006375,192.000000,0.000000,0.000000,0.000000,0.000000,0.000000,0.000000,0.000000,0.000000,0.000000,1769522834.570639,0.000000
186.000000,15541.302030,15258.910091,2075.515935,-3923.647573,7567.563065,-8704.104567,911.504139,-16871.767267,13742.478340,11824.206927,-8596.235048,-415.876557,22088.440906,13387.331472,-381.968961,3299.810386,0.007000,-0.022375,1.006375,192.000000,0.000000,0.000000,0.000000,0.000000,0.000000,0.000000,0.000000,0.000000,0.000000,1769522834.570650,0.000000
188.000000,15530.282620,15261.771114,2009.265364,-4001.543403,7568.568894,-8767.158838,841.520827,-16963.007088,13875.493571,11789.360558,-8713.402893,-497.907459,22041.614001,13317.638733,-446.520799,3241.338222,0.007000,-0.022375,1.006375,192.000000,0.000000,0.000000,0.000000,0.000000,0.000000,0.000000,0.000000,0.000000,0.000000,1769522834.570661,0.000000
190.000000,15557.082362,15278.713736,2107.143653,-3893.450367,7593.044054,-8701.131785,945.232921,-16831.534127,13831.326524,11814.327456,-8654.908378,-457.204933,22072.325298,13351.769847,-402.689028,3264.516981,0.007000,-0.022375,1.006375,192.000000,0.000000,0.000000,0.000000,0.000000,0.000000,0.000000,0.000000,0.000000,0.000000,1769522834.570671,0.000000
192.000000,15517.028036,15233.876137,2015.099170,-3991.105138,7548.832303,-8746.304661,853.747231,-16955.139274,13756.336422,11789.941703,-8651.265043,-452.823991,22055.427379,13346.204263,-399.470377,3272.295388,0.006500,-0.022187,1.004188,192.000000,0.000000,24.000000,127.500000,40.000000,15.500000,40.000000,0.000000,0.000000,0.000000,1769522834.570682,0.000000
194.000000,15557.104714,15277.864370,2064.787098,-3942.534797,7587.724338,-8723.863509,903.658677,-16891.056823,13913.402130,11789.941703,-8740.716724,-514.246585,22029.901687,13306.239343,-463.910456,3233.157484,0.006500,-0.022187,1.004188,192.000000,0.000000,0.000000,0.000000,0.000000,0.000000,0.000000,0.000000,0.000000,0.000000,1769522835.050995,0.000000
196.000000,15527.309838,15248.047143,2073.034891,-3933.974079,7565.685518,-8724.019971,911.101807,-16881.333814,13721.870032,11807.085491,-8614.228203,-430.941633,22074.694583,13365.315004,-372.245952,3286.600505,0.006500,-0.022187,1.004188,192.000000,0.000000,0.000000,0.000000,0.000000,0.000000,0.000000,0.000000,0.000000,0.000000,1769522835.051056,0.000000
198.000000,15539.648001,15256.451399,2009.310068,-4004.024446,7569.462963,-8784.034405,844.739478,-16966.203388,13865.703507,11781.470392,-8721.516576,-501.751960,22038.328295,13303.847707,-454.612130,3230.385867,0.006500,-0.022187,1.004188,192.000000,0.000000,0.000000,0.000000,0.000000,0.000000,0.000000,0.000000,0.000000,0.000000,1769522835.051099,0.000000
200.000000,15567.721792,15288.749670,2111.032857,-3889.605867,7596.843850,-8685.060881,950.038546,-16826.303819,13835.260431,11815.243878,-8656.651814,-454.768593,22079.120228,13348.171216,-411.227394,3257.006795,0.006500,-0.022187,1.004188,192.000000,0.000000,0.000000,0.000000,0.000000,0.000000,0.000000,0.000000,0.000000,0.000000,1769522835.051146,0.000000
202.000000,15538.888042,15266.979071,2021.089437,-3979.973969,7556.811876,-8750.506789,860.340996,-16941.460006,13780.364547,11815.355637,-8637.161092,-441.066973,22072.660574,13358.318908,-411.585022,3261.588903,0.006250,-0.020094,1.004094,192.000000,0.000000,24.000000,127.500000,56.000000,15.500000,48.000000,0.000000,0.000000,0.000000,1769522835.051191,0.000000
204.000000,15567.699440,15299.277341,2070.307978,-3927.603832,7597.492051,-8722.455349,912.442912,-16875.187084,13922.454586,11817.523756,-8724.288192,-498.086273,22044.229155,13319.605687,-470.303055,3217.600670,0.006250,-0.020094,1.004094,192.000000,0.000000,0.000000,0.000000,0.000000,0.000000,0.000000,0.000000,0.000000,0.000000,1769522835.051228,0.000000
206.000000,15537.189309,15268.409582,2069.324502,-3917.836120,7561.192818,-8715.973343,917.740276,-16866.782828,13722.518232,11839.227300,-8599.811327,-411.517967,22078.315565,13382.168219,-380.538449,3283.024226,0.006250,-0.020094,1.004094,192.000000,0.000000,0.000000,0.000000,0.000000,0.000000,0.000000,0.000000,0.000000,0.000000,1769522835.051242,0.000000
208.000000,15531.042580,15264.363916,2001.241088,-3992.736816,7555.560178,-8753.457219,847.622853,-16958.603794,13845.229309,11811.064102,-8715.973343,-484.250544,22019.888105,13323.718408,-462.167020,3241.092353,0.006250,-0.020094,1.004094,192.000000,0.000000,0.000000,0.000000,0.000000,0.000000,0.000000,0.000000,0.000000,0.000000,1769522835.051252,0.000000
210.000000,15544.207757,15288.950835,2100.862813,-3883.794413,7583.656321,-8679.651759,951.983148,-16820.201793,13797.754204,11847.743314,-8657.590587,-442.966872,22052.342838,13369.092449,-411.070932,3264.941664,0.006250,-0.020094,1.004094,192.000000,0.000000,0.000000,0.000000,0.000000,0.000000,0.000000,0.000000,0.000000,0.000000,1769522835.051270,0.000000
212.000000,15506.410957,15250.304669,2012.998106,-3982.857344,7542.707925,-8762.062640,860.609217,-16940.320067,13720.104244,11833.706419,-8649.409848,-435.970776,22036.763672,13363.795085,-406.980563,3266.662749,0.004125,-0.019047,1.005047,192.000000,0.000000,8.000000,127.500000,56.000000,15.500000,56.000000,0.000000,0.000000,0.000000,1769522835.051285,0.000000
214.000000,15541.659658,15295.365786,2060.719080,-3930.174283,7579.498897,-8735.866396,911.012401,-16875.522360,13873.705432,11846.178692,-8737.363963,-490.464329,22010.746242,13327.495852,-476.986227,3220.752266,0.004125,-0.019047,1.005047,192.000000,0.000000,0.000000,0.000000,0.000000,0.000000,0.000000,0.000000,0.000000,0.000000,1769522835.051296,0.000000
216.000000,15497.425556,15253.344506,2060.003824,-3922.373524,7544.853693,-8724.399951,915.281584,-16873.890683,13666.236540,11860.975547,-8619.905546,-411.920299,22046.889013,13390.550124,-377.945647,3280.923162,0.004125,-0.019047,1.005047,192.000000,0.000000,0.000000,0.000000,0.000000,0.000000,0.000000,0.000000,0.000000,0.000000,1769522835.051307,0.000000
218.000000,15499.772489,15258.887739,1995.451986,-3994.256734,7545.725411,-8788.951789,848.740440,-16961.084838,13794.401442,11837.014477,-8733.608870,-485.569297,21993.825971,13327.518204,-470.079538,3230.162350,0.004125,-0.019047,1.005047,192.000000,0.000000,0.000000,0.000000,0.000000,0.000000,0.000000,0.000000,0.000000,0.000000,1769522835.051319,0.000000
220.000000,15508.646132,15276.724431,2094.805490,-3884.688483,7567.026623,-8686.759613,952.430183,-16829.745988,13757.811637,11881.941483,-8672.990939,-440.441124,22025.274876,13376.379118,-423.476150,3252.044708,0.004125,-0.019047,1.005047,192.000000,0.000000,0.000000,0.000000,0.000000,0.000000,0.000000,0.000000,0.000000,0.000000,1769522835.051329,0.000000
222.000000,15479.387698,15242.123931,2012.059332,-3974.631903,7533.744876,-8747.422248,865.616008,-16941.884690,13674.149057,11864.752992,-8665.927788,-432.372145,22011.707367,13375.999138,-414.401342,3259.510190,0.004125,-0.019047,1.005047,192.000000,0.000000,0.000000,0.000000,0.000000,0.000000,0.000000,0.000000,0.000000,0.000000,1769522835.051340,0.000000
224.000000,15519.754949,15288.414393,2061.009653,-3921.233585,7571.586379,-8708.731378,914.163996,-16879.880950,13835.551004,11884.914265,-8751.378507,-479.288456,21994.965910,13347.880643,-485.882221,3219.142940,0.006000,-0.026000,1.002000,192.000000,0.000000,24.000000,127.500000,24.000000,15.500000,40.000000,0.000000,0.000000,0.000000,1769522835.051351,0.000000
226.000000,15472.011622,15249.052971,2062.149592,-3912.985791,7535.801236,-8712.777044,917.717924,-16873.577759,13628.350333,11898.526478,-8633.920089,-401.549089,22025.096062,13406.866897,-388.518022,3281.638417,0.006000,-0.026000,1.002000,192.000000,0.000000,0.000000,0.000000,0.000000,0.000000,0.000000,0.000000,0.000000,0.000000,1769522835.051361,0.000000
228.000000,15479.767678,15260.362954,1995.317876,-3986.478327,7537.254100,-8766.778859,848.449868,-16961.353059,13758.661003,11880.063937,-8742.348402,-471.934732,21973.932919,13347.768885,-475.175735,3234.319774,0.006000,-0.026000,1.002000,192.000000,0.000000,0.000000,0.000000,0.000000,0.000000,0.000000,0.000000,0.000000,0.000000,1769522835.051372,0.000000
230.000000,15507.729710,15291.700100,2095.543098,-3874.429032,7566.110202,-8679.048262,953.257198,-16821.766415,13720.350113,11922.174623,-8679.607055,-422.827950,22009.069861,13396.115708,-421.151569,3263.220580,0.006000,-0.026000,1.002000,192.000000,0.000000,0.000000,0.000000,0.000000,0.000000,0.000000,0.000000,0.000000,0.000000,1769522835.051383,0.000000
232.000000,15476.571378,15256.853730,2004.795015,-3968.239304,7527.553442,-8743.667155,861.391528,-16937.861376,13650.925595,11908.025969,-8665.950139,-414.602508,21996.307015,13397.166240,-412.143816,3262.326510,0.006000,-0.026000,1.002000,192.000000,0.000000,0.000000,0.000000,0.000000,0.000000,0.000000,0.000000,0.000000,0.000000,1769522835.051393,0.000000
234.000000,15519.486728,15302.361882,2044.424658,-3918.841948,7561.483391,-8721.851852,907.637287,-16877.735183,13805.689073,11918.441882,-8755.044193,-471.778270,21967.495616,13361.403449,-483.445881,3233.202187,0.008000,-0.024000,1.004000,192.000000,0.000000,32.000000,127.500000,32.000000,15.500000,48.000000,0.000000,0.000000,0.000000,1769522835.051404,0.000000
236.000000,15477.688966,15269.281300,2048.090344,-3907.509614,7536.449437,-8709.916021,915.281584,-16867.363974,13606.803251,11935.585670,-8633.048371,-388.898002,22009.069861,13425.485900,-390.082644,3292.210793,0.008000,-0.024000,1.004000,192.000000,0.000000,0.000000,0.000000,0.000000,0.000000,0.000000,0.000000,0.000000,0.000000,1769522835.051415,0.000000
238.000000,15479.320643,15276.657376,1980.632780,-3978.565810,7529.788617,-8756.653518,847.578150,-16954.468722,13739.080875,11917.145481,-8740.672021,-452.421660,21961.706515,13367.058440,-474.840459,3239.840655,0.008000,-0.024000,1.004000,192.000000,0.000000,0.000000,0.000000,0.000000,0.000000,0.000000,0.000000,0.000000,0.000000,1769522835.051426,0.000000
240.000000,15502.409995,15303.814745,2079.382787,-3864.817782,7557.504780,-8687.631331,952.050203,-16819.128909,13702.021683,11950.002545,-8681.596360,-411.182691,21992.708384,13411.784281,-434.696726,3265.343996,0.008000,-0.024000,1.004000,192.000000,0.000000,0.000000,0.000000,0.000000,0.000000,0.000000,0.000000,0.000000,0.000000,1769522835.051436,0.000000
242.000000,15469.016489,15265.615614,1995.899021,-3959.455068,7520.847919,-8740.694373,861.100955,-16937.660210,13631.881908,11940.190129,-8668.900570,-400.431502,21986.673413,13416.008760,-431.902758,3267.109784,0.008000,-0.024000,1.004000,192.000000,0.000000,0.000000,0.000000,0.000000,0.000000,0.000000,0.000000,0.000000,0.000000,1769522835.051449,0.000000
244.000000,15517.609181,15318.678655,2051.688975,-3907.956649,7573.598036,-8699.455404,913.538148,-16871.789619,13792.613303,11945.554548,-8755.938262,-460.065956,21973.776457,13382.682309,-486.597477,3223.792103,0.012000,-0.024000,0.996000,192.000000,0.000000,48.000000,127.500000,32.000000,15.500000,16.000000,0.000000,0.000000,0.000000,1769522835.051459,0.000000
246.000000,15487.791954,15284.301672,2056.673414,-3900.647628,7548.787600,-8701.042378,918.567290,-16867.967471,13606.780899,11962.474819,-8631.327287,-377.386853,22016.602399,13448.955232,-386.551069,3284.722958,0.012000,-0.024000,0.996000,192.000000,0.000000,0.000000,0.000000,0.000000,0.000000,0.000000,0.000000,0.000000,0.000000,1769522835.051469,0.000000
248.000000,15496.956169,15286.223923,1992.054521,-3976.352987,7546.999460,-8760.006280,849.366289,-16960.414286,13744.601756,11940.883033,-8743.890672,-453.226322,21970.401343,13386.884437,-475.846288,3231.950490,0.012000,-0.024000,0.996000,192.000000,0.000000,0.000000,0.000000,0.000000,0.000000,0.000000,0.000000,0.000000,0.000000,1769522835.051480,0.000000
250.000000,15496.263265,15300.640798,2089.396368,-3866.024776,7566.490181,-8674.510857,951.826686,-16828.963677,13703.563953,11967.638071,-8690.224134,-415.876557,22005.001844,13423.362484,-428.661755,3256.850333,0.012000,-0.024000,0.996000,192.000000,0.000000,0.000000,0.000000,0.000000,0.000000,0.000000,0.000000,0.000000,0.000000,1769522835.051490,0.000000
252.000000,15463.897939,15261.681707,2002.269268,-3965.512391,7527.128759,-8741.856663,859.916313,-16948.724323,13621.756568,11932.277612,-8682.713948,-416.860034,21990.450858,13411.583115,-416.301240,3272.854182,0.012000,-0.024000,0.996000,192.000000,0.000000,0.000000,0.000000,0.000000,0.000000,0.000000,0.000000,0.000000,0.000000,1769522835.051500,0.000000
254.000000,15513.429405,15313.180126,2054.192371,-3912.091722,7569.686481,-8687.363110,913.068761,-16878.629253,13790.869867,11940.570109,-8761.906178,-469.699558,21973.061201,13377.362594,-487.513898,3227.524844,0.006000,-0.020000,0.994000,192.000000,0.000000,24.000000,127.500000,48.000000,15.500000,8.000000,0.000000,0.000000,0.000000,1769522835.051510,0.000000
0.000000,15475.587902,15271.896454,2056.584007,-3905.609716,7537.455265,-8704.551602,918.857863,-16872.773096,13598.711920,11951.835388,-8635.887043,-389.680313,22018.234076,13437.980525,-379.756138,3287.941609,0.006000,-0.020000,0.994000,192.000000,0.000000,0.000000,0.000000,0.000000,0.000000,0.000000,0.000000,0.000000,0.000000,1769522835.051521,0.000000
2.000000,15491.994082,15282.357071,1987.494765,-3978.945789,7535.063629,-8766.488286,850.640339,-16957.709725,13733.247070,11921.660533,-8745.008259,-460.736508,21971.027192,13370.299443,-473.566410,3236.219673,0.006000,-0.020000,0.994000,192.000000,0.000000,0.000000,0.000000,0.000000,0.000000,0.000000,0.000000,0.000000,0.000000,1769522835.051531,0.000000
4.000000,15512.356521,15309.156812,2084.478984,-3866.360052,7562.288053,-8672.409793,955.313558,-16819.508889,13706.044997,11962.832446,-8680.992863,-414.311935,22009.762765,13416.232278,-433.713249,3265.723975,0.006000,-0.020000,0.994000,192.000000,0.000000,0.000000,0.000000,0.000000,0.000000,0.000000,0.000000,0.000000,0.000000,1769522835.051542,0.000000
6.000000,15461.998041,15270.555350,2000.503480,-3960.662062,7527.486387,-8750.059754,866.040691,-16935.737960,13631.747798,11939.027839,-8668.230017,-405.661810,21999.324500,13411.672522,-420.168092,3270.283731,0.006000,-0.020000,0.994000,192.000000,0.000000,0.000000,0.000000,0.000000,0.000000,0.000000,0.000000,0.000000,0.000000,1769522835.051552,0.000000
8.000000,15507.550896,15313.694216,2050.750202,-3910.705913,7570.602902,-8703.523422,917.159130,-16870.403811,13794.513201,11944.526368,-8753.457219,-463.977511,21979.409096,13371.014699,-484.094081,3228.150693,0.010000,-0.018000,1.000000,192.000000,0.000000,40.000000,127.500000,56.000000,15.500000,32.000000,0.000000,0.000000,0.000000,1769522835.051563,0.000000
10.000000,15478.359518,15275.584492,2053.655929,-3904.425073,7543.691402,-8714.721646,922.232976,-16865.106447,13602.690530,11955.411667,-8628.399209,-381.499574,22021.810355,13435.767703,-392.474281,3288.858031,0.010000,-0.018000,1.000000,192.000000,0.000000,0.000000,0.000000,0.000000,0.000000,0.000000,0.000000,0.000000,0.000000,1769522835.051573,0.000000
12.000000,15490.183591,15288.436745,1990.154623,-3977.112946,7545.613652,-8755.960614,854.350728,-16951.562995,13739.617317,11928.813091,-8739.062695,-451.415831,21975.698707,13370.746478,-465.653892,3237.739591,0.010000,-0.018000,1.000000,192.000000,0.000000,0.000000,0.000000,0.000000,0.000000,0.000000,0.000000,0.000000,0.000000,1769522835.051584,0.000000
14.000000,15511.998893,15320.042112,2089.508127,-3865.644797,7570.558199,-8671.649834,957.347567,-16814.502098,13708.906020,11968.062755,-8678.891799,-412.210871,22011.103870,13418.802729,-430.472246,3264.159353,0.010000,-0.018000,1.000000,192.000000,0.000000,0.000000,0.000000,0.000000,0.000000,0.000000,0.000000,0.000000,0.000000,1769522835.051595,0.000000
16.000000,15492.128192,15288.593207,2012.148739,-3956.258769,7547.155922,-8737.654535,872.545048,-16922.058692,13647.349316,11955.232853,-8662.127991,-393.234240,22007.862867,13423.228374,-420.592775,3264.986368,0.010000,-0.018000,1.000000,192.000000,0.000000,0.000000,0.000000,0.000000,0.000000,0.000000,0.000000,0.000000,0.000000,1769522835.051605,0.000000
18.000000,15518.972638,15326.501766,2056.606359,-3913.254012,7579.454193,-8722.209480,917.628517,-16868.660375,13811.321713,11963.324185,-8745.321184,-444.509142,21997.022271,13389.477240,-475.443956,3213.711466,0.016000,-0.018000,1.000000,192.000000,0.000000,64.000000,127.500000,56.000000,15.500000,32.000000,0.000000,0.000000,0.000000,1769522835.051617,0.000000
20.000000,15477.353689,15283.944045,2058.618016,-3904.335666,7540.204530,-8710.228945,921.271851,-16867.319270,13604.858649,11961.290176,-8632.869557,-375.531659,22021.698597,13437.555842,-381.477223,3286.578153,0.016000,-0.018000,1.000000,192.000000,0.000000,0.000000,0.000000,0.000000,0.000000,0.000000,0.000000,0.000000,0.000000,1769522835.051628,0.000000
22.000000,15486.853181,15292.281245,1993.596791,-3977.895257,7542.417352,-8743.689506,852.607292,-16957.128579,13738.835006,11935.026876,-8744.851797,-452.041680,21974.983451,13379.486010,-474.304017,3242.411106,0.016000,-0.018000,1.000000,192.000000,0.000000,0.000000,0.000000,0.000000,0.000000,0.000000,0.000000,0.000000,0.000000,1769522835.051639,0.000000
24.000000,15509.942533,15316.443481,2093.106758,-3867.276474,7569.485315,-8668.811163,955.961759,-16821.051159,13706.112052,11971.929606,-8685.999654,-410.847415,22016.490640,13424.681237,-424.571386,3265.276940,0.016000,-0.018000,1.000000,192.000000,0.000000,0.000000,0.000000,0.000000,0.000000,0.000000,0.000000,0.000000,0.000000,1769522835.051649,0.000000
26.000000,15482.829867,15293.488239,2009.533585,-3954.515333,7533.029620,-8728.311506,871.405109,-16928.943030,13636.978106,11950.494283,-8668.945273,-396.698761,22007.393480,13422.781339,-411.875595,3268.920275,0.016000,-0.018000,1.000000,192.000000,0.000000,0.000000,0.000000,0.000000,0.000000,0.000000,0.000000,0.000000,0.000000,1769522835.051659,0.000000
28.000000,15528.807405,15337.811749,2053.521818,-3904.715646,7565.238484,-8701.467061,918.947270,-16867.945119,13802.425719,11957.579786,-8752.563149,-451.214665,21982.717154,13387.331472,-487.782119,3232.978670,0.010000,-0.016000,0.996000,192.000000,0.000000,40.000000,127.500000,64.000000,15.500000,16.000000,0.000000,0.000000,0.000000,1769522835.051670,0.000000
30.000000,15500.018358,15301.668978,2058.327443,-3897.294867,7538.975184,-8706.965590,924.065819,-16861.843093,13610.781862,11974.924740,-8624.957040,-371.798917,22025.900725,13455.303127,-393.837737,3287.494574,0.010000,-0.016000,0.996000,192.000000,0.000000,0.000000,0.000000,0.000000,0.000000,0.000000,0.000000,0.000000,0.000000,1769522835.051680,0.000000
32.000000,15493.335187,15309.156812,1992.881536,-3971.167382,7545.814818,-8755.021841,854.998929,-16949.484283,13741.472511,11944.526368,-8735.553472,-447.526627,21980.079649,13386.124478,-481.769500,3241.293519,0.010000,-0.016000,0.996000,192.000000,0.000000,0.000000,0.000000,0.000000,0.000000,0.000000,0.000000,0.000000,0.000000,1769522835.051693,0.000000
34.000000,15513.764681,15322.724321,2087.027083,-3868.908151,7573.016891,-8689.173602,953.123087,-16821.341732,13705.575610,11975.595293,-8675.941369,-405.326534,22019.865754,13426.670543,-433.780305,3263.622911,0.010000,-0.016000,0.996000,192.000000,0.000000,0.000000,0.000000,0.000000,0.000000,0.000000,0.000000,0.000000,0.000000,1769522835.051705,0.000000
36.000000,15481.421707,15288.392042,1998.648286,-3961.064394,7531.554405,-8730.993716,864.230199,-16936.944954,13629.646734,11948.527330,-8668.587645,-400.140929,21997.916341,13419.853260,-423.319688,3263.689967,0.010000,-0.016000,0.996000,192.000000,0.000000,0.000000,0.000000,0.000000,0.000000,0.000000,0.000000,0.000000,0.000000,1769522835.051715,0.000000
38.000000,15510.143698,15319.259801,2043.150609,-3914.639820,7567.630120,-8696.549677,911.906470,-16880.663261,13789.305245,11949.622565,-8759.201617,-460.580046,21976.168093,13382.838772,-485.301076,3229.670612,0.010000,-0.018000,1.001000,192.000000,0.000000,40.000000,127.500000,48.000000,15.500000,56.000000,0.000000,0.000000,0.000000,1769522835.051726,0.000000
40.000000,15484.282730,15285.620425,2048.202103,-3902.189899,7537.388210,-8686.401985,919.684877,-16869.263872,13592.609893,11963.726516,-8638.904528,-381.633685,22014.478983,13442.897909,-392.943668,3291.741406,0.010000,-0.018000,1.001000,192.000000,0.000000,0.000000,0.000000,0.000000,0.000000,0.000000,0.000000,0.000000,0.000000,1769522835.051736,0.000000
42.000000,15491.479992,15295.522248,1986.958323,-3974.609551,7538.751666,-8742.057829,852.517885,-16955.742771,13730.408398,11939.430170,-8744.963556,-448.666566,21972.882387,13385.141001,-478.930828,3241.226463,0.010000,-0.018000,1.001000,192.000000,0.000000,0.000000,0.000000,0.000000,0.000000,0.000000,0.000000,0.000000,0.000000,1769522835.051746,0.000000
44.000000,15518.838527,15316.063501,2091.028046,-3866.561218,7568.904170,-8670.800468,954.285378,-16825.655618,13698.870087,11976.534066,-8685.686730,-409.662772,22015.373053,13429.285697,-431.053392,3260.493667,0.010000,-0.018000,1.001000,192.000000,0.000000,0.000000,0.000000,0.000000,0.000000,0.000000,0.000000,0.000000,0.000000,1769522835.051757,0.000000
46.000000,15478.761849,15287.386213,2007.700742,-3959.075088,7531.599108,-8732.312469,865.616008,-16939.940088,13627.858594,11958.540912,-8676.701328,-405.885328,22005.426527,13423.116615,-418.737581,3274.396452,0.010000,-0.018000,1.001000,192.000000,0.000000,0.000000,0.000000,0.000000,0.000000,0.000000,0.000000,0.000000,0.000000,1769522835.051767,0.000000
48.000000,15502.678216,15314.476528,2050.414926,-3910.549451,7566.177257,-8700.662398,912.800540,-16881.669090,13792.635655,11949.935490,-8761.749716,-461.138840,21984.952329,13380.558894,-492.252468,3234.163312,0.009000,-0.019000,1.001500,192.000000,0.000000,32.000000,127.500000,48.000000,15.500000,40.000000,0.000000,0.000000,0.000000,1769522835.051777,0.000000
50.000000,15478.739498,15281.530056,2062.171943,-3902.256954,7552.453286,-8700.528288,922.165921,-16866.939290,13600.433004,11959.211464,-8636.065857,-377.565667,22029.007617,13442.026191,-389.635609,3287.449871,0.009000,-0.019000,1.001500,192.000000,0.000000,0.000000,0.000000,0.000000,0.000000,0.000000,0.000000,0.000000,0.000000,1769522835.051790,0.000000
52.000000,15477.756021,15282.669995,1993.820309,-3977.783498,7550.754553,-8757.055850,854.484839,-16954.491073,13742.880671,11930.176548,-8737.252204,-448.957139,21988.305090,13379.575417,-468.671378,3234.520940,0.009000,-0.019000,1.001500,192.000000,0.000000,0.000000,0.000000,0.000000,0.000000,0.000000,0.000000,0.000000,0.000000,1769522835.051800,0.000000
54.000000,15495.995044,15299.187934,2089.731644,-3869.668111,7573.486277,-8676.634273,955.760593,-16823.822775,13709.956552,11961.625452,-8679.607055,-411.696781,22024.939600,13419.987371,-427.633575,3263.377042,0.009000,-0.019000,1.001500,192.000000,0.000000,0.000000,0.000000,0.000000,0.000000,0.000000,0.000000,0.000000,0.000000,1769522835.051811,0.000000
56.000000,15467.496570,15267.403754,2002.202213,-3963.523086,7535.264794,-8755.692393,866.331263,-16935.581498,13630.071417,11934.356324,-8671.113392,-409.282793,22003.973663,13409.191478,-417.150607,3272.407147,0.009000,-0.019000,1.001500,192.000000,0.000000,0.000000,0.000000,0.000000,0.000000,0.000000,0.000000,0.000000,0.000000,1769522835.051821,0.000000
58.000000,15521.788957,15321.919658,2049.878484,-3910.169472,7573.910960,-8713.157024,915.594508,-16867.632194,13805.063224,11946.046286,-8750.350326,-456.288511,21991.747259,13375.552103,-487.871526,3232.397524,0.009500,-0.018500,1.003750,192.000000,0.000000,40.000000,127.500000,56.000000,15.500000,56.000000,0.000000,0.000000,0.000000,1769522835.531855,0.000000
60.000000,15490.675329,15296.125745,2059.243865,-3896.937239,7552.542693,-8691.520535,926.613918,-16851.740104,13620.013132,11965.604063,-8618.497386,-362.589999,22037.791853,13445.177787,-389.926182,3286.868726,0.009500,-0.018500,1.003750,192.000000,0.000000,0.000000,0.000000,0.000000,0.000000,0.000000,0.000000,0.000000,0.000000,1769522835.531934,0.000000
62.000000,15492.262303,15301.221943,1990.579306,-3971.413251,7544.697230,-8733.094780,855.244798,-16944.835120,13752.648384,11939.832501,-8726.344553,-436.484866,21995.569407,13386.996196,-474.929866,3238.410144,0.009500,-0.018500,1.003750,192.000000,0.000000,0.000000,0.000000,0.000000,0.000000,0.000000,0.000000,0.000000,0.000000,1769522835.531984,0.000000
64.000000,15513.339998,15315.035321,2090.558659,-3861.465020,7573.151001,-8666.978320,958.643968,-16812.736310,13720.841851,11973.762449,-8672.812125,-399.917412,22020.156326,13426.245859,-434.495560,3265.388699,0.009500,-0.018500,1.003750,192.000000,0.000000,0.000000,0.000000,0.000000,0.000000,0.000000,0.000000,0.000000,0.000000,1769522835.532036,0.000000
66.000000,15481.801687,15283.698175,2007.410170,-3952.056641,7540.830379,-8718.722608,871.941551,-16927.981905,13650.545615,11955.411667,-8658.998747,-390.149699,22016.378881,13430.336229,-428.684107,3268.450888,0.009500,-0.018500,1.003750,192.000000,0.000000,0.000000,0.000000,0.000000,0.000000,0.000000,0.000000,0.000000,0.000000,1769522835.532083,0.000000
68.000000,15513.697626,15321.472624,2047.620958,-3907.241393,7570.334681,-8699.477756,915.482749,-16874.069497,13811.366416,11956.506903,-8750.551492,-449.203008,21991.769611,13389.633702,-488.720893,3224.619117,0.007750,-0.015250,1.005875,192.000000,0.000000,24.000000,127.500000,80.000000,15.500000,64.000000,0.000000,0.000000,0.000000,1769522835.532106,0.000000
70.000000,15485.065041,15284.145210,2055.377013,-3899.373579,7548.787600,-8698.181355,920.377781,-16870.202645,13611.877097,11965.089973,-8633.741276,-370.524868,22029.253486,13450.072819,-400.766778,3299.430406,0.007750,-0.015250,1.005875,192.000000,0.000000,0.000000,0.000000,0.000000,0.000000,0.000000,0.000000,0.000000,0.000000,1769522835.532130,0.000000
72.000000,15478.538332,15290.783678,1992.345094,-3978.074071,7545.412486,-8755.446524,851.243836,-16961.464818,13745.361715,11941.307717,-8746.170550,-447.727793,21983.432410,13385.409222,-468.380805,3240.667670,0.007750,-0.015250,1.005875,192.000000,0.000000,0.000000,0.000000,0.000000,0.000000,0.000000,0.000000,0.000000,0.000000,1769522835.532153,0.000000
74.000000,15499.012530,15306.876934,2089.686941,-3870.673939,7568.434783,-8685.262046,954.195971,-16830.237726,13716.103282,11972.287234,-8687.899552,-406.935860,22021.072748,13425.731769,-430.092267,3270.283731,0.007750,-0.015250,1.005875,192.000000,0.000000,0.000000,0.000000,0.000000,0.000000,0.000000,0.000000,0.000000,0.000000,1769522835.532174,0.000000
76.000000,15465.887244,15270.220073,2005.063236,-3960.773821,7532.381419,-8721.583631,866.912409,-16942.734056,13630.361990,11939.720743,-8677.237770,-404.007781,22003.593684,13419.070949,-418.558767,3274.217638,0.007750,-0.015250,1.005875,192.000000,0.000000,0.000000,0.000000,0.000000,0.000000,0.000000,0.000000,0.000000,0.000000,1769522835.532184,0.000000
78.000000,15511.149527,15318.768062,2049.453801,-3909.565974,7569.708832,-8689.888858,914.342810,-16877.981052,13801.732815,11951.701278,-8756.474704,-454.701537,21989.690899,13389.879571,-488.005637,3224.663821,0.009875,-0.015625,1.009937,192.000000,0.000000,48.000000,127.500000,64.000000,15.500000,88.000000,0.000000,0.000000,0.000000,1769522835.532195,0.000000
80.000000,15475.789067,15280.278358,2054.929978,-3896.579611,7541.165655,-8679.450593,922.836473,-16867.296918,13605.305684,11963.078316,-8633.808331,-374.928161,22030.058149,13452.576214,-395.178842,3288.276886,0.009875,-0.015625,1.009937,192.000000,0.000000,0.000000,0.000000,0.000000,0.000000,0.000000,0.000000,0.000000,0.000000,1769522835.532205,0.000000
82.000000,15473.375079,15282.379422,1982.711492,-3972.486135,7535.957698,-8739.532082,850.953263,-16961.755390,13736.108093,11935.540966,-8744.829445,-449.985319,21979.364393,13391.801821,-479.914305,3244.668632,0.009875,-0.015625,1.009937,192.000000,0.000000,0.000000,0.000000,0.000000,0.000000,0.000000,0.000000,0.000000,0.000000,1769522835.532224,0.000000
84.000000,15499.884248,15307.480431,2085.708330,-3862.672015,7570.111164,-8672.610959,955.984110,-16824.627438,13711.521174,11970.230874,-8687.988959,-411.227394,22019.061091,13431.632630,-439.859979,3268.182667,0.009875,-0.015625,1.009937,192.000000,0.000000,0.000000,0.000000,0.000000,0.000000,0.000000,0.000000,0.000000,0.000000,1769522835.532234,0.000000
86.000000,15478.381870,15287.609731,2005.018533,-3954.716498,7539.019887,-8726.076332,869.102880,-16933.592192,13640.397923,11960.396106,-8671.716889,-398.889232,22009.829820,13432.481996,-413.887252,3268.495592,0.009875,-0.015625,1.009937,192.000000,0.000000,0.000000,0.000000,0.000000,0.000000,0.000000,0.000000,0.000000,0.000000,1769522835.532245,0.000000
88.000000,15505.852164,15312.934257,2048.336214,-3911.421169,7574.268588,-8704.730416,914.163996,-16879.903302,13820.418873,11964.397069,-8752.719611,-453.516895,21998.452782,13393.053519,-485.122262,3228.553024,0.010937,-0.017813,1.009969,192.000000,0.000000,48.000000,127.500000,48.000000,15.500000,72.000000,0.000000,0.000000,0.000000,1769522835.532255,0.000000
90.000000,15466.602500,15268.051954,2062.015481,-3900.088835,7556.834228,-8693.755709,924.959889,-16868.235692,13618.046179,11944.727533,-8634.881214,-381.656037,22040.451710,13442.741447,-386.618124,3295.071816,0.010937,-0.017813,1.009969,192.000000,0.000000,0.000000,0.000000,0.000000,0.000000,0.000000,0.000000,0.000000,0.000000,1769522835.532266,0.000000
92.000000,15467.496570,15270.465943,1993.216812,-3977.582333,7550.620443,-8742.393105,854.931874,-16962.180074,13761.723192,11923.448673,-8739.263861,-453.651005,22001.939655,13388.091432,-473.879334,3239.572434,0.010937,-0.017813,1.009969,192.000000,0.000000,0.000000,0.000000,0.000000,0.000000,0.000000,0.000000,0.000000,0.000000,1769522835.532277,0.000000
94.000000,15486.026166,15276.478562,2090.558659,-3874.473736,7579.141269,-8700.908268,954.710061,-16836.473863,13728.240279,11938.156121,-8690.358244,-420.793941,22034.819071,13415.114691,-425.286642,3260.918350,0.010937,-0.017813,1.009969,192.000000,0.000000,0.000000,0.000000,0.000000,0.000000,0.000000,0.000000,0.000000,0.000000,1769522835.532288,0.000000
96.000000,15432.381980,15230.456320,2002.470434,-3969.736870,7536.136512,-8724.154082,862.196191,-16955.832178,13649.718600,11898.794699,-8683.093927,-421.688011,22018.479945,13400.675464,-415.988316,3271.960112,0.010937,-0.017813,1.009969,192.000000,0.000000,0.000000,0.000000,0.000000,0.000000,0.000000,0.000000,0.000000,0.000000,1769522835.532301,0.000000
98.000000,15464.277919,15277.126763,2048.649138,-3921.926489,7571.541676,-8692.012273,909.313668,-16895.817744,13811.098195,11903.823841,-8770.556303,-480.562506,21994.585931,13365.292652,-482.216535,3229.424742,0.010469,-0.017906,1.008984,192.000000,0.000000,40.000000,127.500000,56.000000,15.500000,64.000000,0.000000,0.000000,0.000000,1769522835.532313,0.000000
100.000000,15447.402352,15246.974259,2061.680205,-3910.705913,7550.419277,-8689.620637,920.109561,-16877.936349,13622.985914,11918.106606,-8640.424447,-393.524813,22040.407007,13430.582098,-391.736673,3292.367255,0.010469,-0.017906,1.008984,192.000000,0.000000,0.000000,0.000000,0.000000,0.000000,0.000000,0.000000,0.000000,0.000000,1769522835.532324,0.000000
102.000000,15443.803721,15245.767265,1993.261515,-3986.523031,7542.551463,-8748.718649,849.343938,-16967.745658,13759.264500,11889.809297,-8743.890672,-464.983340,21995.971739,13365.784391,-468.269046,3231.838731,0.010469,-0.017906,1.008984,192.000000,0.000000,0.000000,0.000000,0.000000,0.000000,0.000000,0.000000,0.000000,0.000000,1769522835.532335,0.000000
104.000000,15478.918311,15275.204513,2093.039703,-3876.798317,7573.329815,-8699.075425,954.084212,-16830.438892,13734.923450,11919.090083,-8684.099756,-424.169055,22028.873507,13403.692949,-429.622880,3258.593769,0.010469,-0.017906,1.008984,192.000000,0.000000,0.000000,0.000000,0.000000,0.000000,0.000000,0.000000,0.000000,0.000000,1769522835.532345,0.000000
106.000000,15449.995154,15239.218204,2006.471396,-3967.434641,7540.204530,-8740.627318,867.068871,-16941.862338,13661.185045,11899.599361,-8667.850038,-415.787150,22017.205896,13396.562743,-416.480054,3269.479068,0.010469,-0.017906,1.008984,192.000000,0.000000,0.000000,0.000000,0.000000,0.000000,0.000000,0.000000,0.000000,0.000000,1769522835.532356,0.000000
108.000000,15487.881361,15289.241408,2047.755068,-3919.154873,7578.426013,-8700.327122,912.979354,-16881.110296,13824.799815,11908.830632,-8755.066544,-474.616942,21994.652986,13364.018603,-485.792814,3228.418914,0.010469,-0.017906,1.008984,192.000000,0.000000,0.000000,0.000000,0.000000,0.000000,0.000000,0.000000,0.000000,0.000000,1769522835.532367,0.000000
110.000000,15453.437323,15253.724486,2056.047565,-3906.839062,7551.335699,-8676.678977,922.769418,-16869.174465,13632.060722,11925.214461,-8632.780151,-388.629781,22032.002751,13430.649153,-395.290601,3291.272019,0.006000,-0.014000,1.006000,192.000000,0.000000,24.000000,127.500000,72.000000,15.500000,56.000000,0.000000,0.000000,0.000000,1769522835.532377,0.000000
112.000000,15463.160332,15264.587434,1993.932068,-3981.113908,7555.269606,-8738.995640,854.842467,-16957.374448,13776.832971,11897.028911,-8735.799341,-456.824953,21994.652986,13368.846580,-467.889067,3240.220635,0.006000,-0.014000,1.006000,192.000000,0.000000,0.000000,0.000000,0.000000,0.000000,0.000000,0.000000,0.000000,0.000000,1769522835.532387,0.000000
114.000000,15495.659768,15289.733146,2087.138842,-3874.294922,7573.687443,-8676.209590,955.157096,-16828.449586,13746.814578,11932.210557,-8681.618712,-419.206967,22031.980399,13408.744444,-430.047563,3266.461583,0.006000,-0.014000,1.006000,192.000000,0.000000,0.000000,0.000000,0.000000,0.000000,0.000000,0.000000,0.000000,0.000000,1769522835.532399,0.000000
116.000000,15451.917404,15252.808065,2004.303277,-3965.579446,7540.383344,-8719.102588,868.633493,-16941.638820,13669.723412,11908.182431,-8668.565293,-414.647211,22019.016387,13404.989350,-425.756028,3276.609275,0.006000,-0.014000,1.006000,192.000000,0.000000,0.000000,0.000000,0.000000,0.000000,0.000000,0.000000,0.000000,0.000000,1769522835.532409,0.000000
118.000000,15495.570361,15301.177240,2054.572350,-3917.299678,7582.963417,-8697.846079,919.103732,-16878.651604,13833.941678,11904.539097,-8756.430001,-471.666511,21999.816239,13364.756210,-484.496413,3230.877606,0.006000,-0.014000,1.006000,192.000000,0.000000,0.000000,0.000000,0.000000,0.000000,0.000000,0.000000,0.000000,0.000000,1769522835.532420,0.000000
120.000000,15474.090335,15275.003347,2062.484868,-3904.514480,7552.743858,-8693.956875,928.759686,-16865.978165,13650.523263,11931.830577,-8624.174729,-387.042807,22047.470158,13435.208909,-393.703627,3285.348807,0.006000,-0.016000,1.016000,192.000000,0.000000,24.000000,127.500000,64.000000,15.500000,96.000000,0.000000,0.000000,0.000000,1769522835.532430,0.000000
122.000000,15471.586939,15264.587434,1992.300390,-3986.992417,7546.239501,-8763.314338,854.440135,-16963.230606,13775.380108,11895.374882,-8737.788646,-462.301131,21994.161248,13364.957376,-473.633465,3243.595748,0.006000,-0.016000,1.016000,192.000000,0.000000,0.000000,0.000000,0.000000,0.000000,0.000000,0.000000,0.000000,0.000000,1769522835.532441,0.000000
124.000000,15493.625759,15295.656359,2094.850194,-3875.613675,7571.988710,-8673.773250,959.225113,-16825.253287,13742.925375,11923.828652,-8683.608017,-423.722020,22021.340969,13400.027263,-423.543206,3263.421746,0.006000,-0.016000,1.016000,192.000000,0.000000,0.000000,0.000000,0.000000,0.000000,0.000000,0.000000,0.000000,0.000000,1769522835.532451,0.000000
126.000000,15464.344974,15266.777905,2012.908699,-3965.892370,7538.729315,-8751.825541,872.030958,-16933.659248,13672.584435,11907.176603,-8662.463267,-411.070932,22012.646140,13398.417938,-416.211834,3264.181705,0.006000,-0.016000,1.016000,192.000000,0.000000,0.000000,0.000000,0.000000,0.000000,0.000000,0.000000,0.000000,0.000000,1769522835.532462,0.000000
128.000000,15502.231181,15305.580533,2051.398403,-3920.093646,7569.820591,-8716.330971,915.415694,-16877.131686,13841.675382,11910.730530,-8747.377544,-468.470212,21991.501390,13359.928234,-488.787948,3227.524844,0.006000,-0.016000,1.016000,192.000000,0.000000,0.000000,0.000000,0.000000,0.000000,0.000000,0.000000,0.000000,0.000000,1769522835.532472,0.000000
130.000000,15483.299253,15281.373594,2061.143763,-3901.027608,7548.452323,-8685.284398,928.402058,-16859.429104,13646.276432,11921.749940,-8624.375895,-382.930086,22031.287495,13422.982505,-394.083606,3293.551897,0.008000,-0.016000,1.014000,192.000000,0.000000,32.000000,127.500000,64.000000,15.500000,88.000000,0.000000,0.000000,0.000000,1769522835.532483,0.000000
132.000000,15483.165143,15284.905170,1989.417015,-3978.655217,7545.501893,-8744.360059,854.149563,-16955.049867,13776.452992,11904.740263,-8729.049114,-448.621863,21989.713250,13371.238216,-473.544058,3238.924234,0.008000,-0.016000,1.014000,192.000000,0.000000,0.000000,0.000000,0.000000,0.000000,0.000000,0.000000,0.000000,0.000000,1769522835.532493,0.000000
134.000000,15500.197172,15303.658283,2088.792871,-3866.516515,7569.105335,-8668.185314,957.548732,-16820.112386,13743.752389,11931.249432,-8681.752823,-417.329421,22023.151460,13405.525792,-437.445991,3268.495592,0.008000,-0.016000,1.014000,192.000000,0.000000,0.000000,0.000000,0.000000,0.000000,0.000000,0.000000,0.000000,0.000000,1769522835.532504,0.000000
136.000000,15466.848369,15265.325041,2007.924260,-3960.706766,7534.437780,-8728.467969,869.192287,-16932.429902,13664.649566,11907.601286,-8664.340814,-402.957249,22015.954198,13406.844545,-431.500427,3277.972731,0.008000,-0.016000,1.014000,192.000000,0.000000,0.000000,0.000000,0.000000,0.000000,0.000000,0.000000,0.000000,0.000000,1769522835.532514,0.000000
138.000000,15502.901733,15306.452251,2056.673414,-3914.818634,7584.304522,-8709.558393,916.645040,-16870.716735,13835.081617,11911.557545,-8747.869283,-460.356529,22000.665605,13363.213940,-488.050340,3228.485969,0.008000,-0.016000,1.014000,192.000000,0.000000,0.000000,0.000000,0.000000,0.000000,0.000000,0.000000,0.000000,0.000000,1769522835.532525,0.000000
140.000000,15461.528654,15262.955757,2062.462516,-3900.781739,7552.520341,-8700.505936,924.803427,-16860.434933,13640.688496,11924.476853,-8623.593584,-377.230391,22037.791853,13424.748293,-392.697798,3288.410996,0.006000,-0.018000,1.004000,192.000000,0.000000,24.000000,127.500000,56.000000,15.500000,48.000000,0.000000,0.000000,0.000000,1769522835.532535,0.000000
142.000000,15466.982480,15270.711812,1997.485995,-3973.536667,7556.677765,-8746.706992,855.714185,-16949.774855,13764.785381,11904.069710,-8732.580689,-449.538284,21992.037832,13371.193513,-470.995959,3235.303251,0.006000,-0.018000,1.004000,192.000000,0.000000,0.000000,0.000000,0.000000,0.000000,0.000000,0.000000,0.000000,0.000000,1769522835.532546,0.000000
144.000000,15477.018413,15272.410544,2098.247659,-3868.528172,7584.840963,-8680.992863,958.666320,-16819.106557,13753.184826,11941.352420,-8673.236808,-411.137988,22036.808376,13412.857164,-430.204026,3259.018452,0.006000,-0.018000,1.004000,192.000000,0.000000,0.000000,0.000000,0.000000,0.000000,0.000000,0.000000,0.000000,0.000000,1769522835.532556,0.000000
146.000000,15404.822279,15191.363119,2010.450007,-3969.826277,7545.278376,-8736.827521,866.532429,-16948.031419,13658.949871,11885.562466,-8666.285415,-418.044677,22023.486736,13396.629798,-419.385781,3267.579170,0.006000,-0.018000,1.004000,192.000000,0.000000,0.000000,0.000000,0.000000,0.000000,0.000000,0.000000,0.000000,0.000000,1769522835.532568,0.000000
148.000000,15429.722122,15206.942285,2054.505295,-3925.212196,7583.231638,-8725.763407,911.124159,-16896.018910,13817.691960,11856.616957,-8765.169533,-495.873451,22000.732660,13342.270355,-475.399253,3235.705583,0.006000,-0.018000,1.004000,192.000000,0.000000,0.000000,0.000000,0.000000,0.000000,0.000000,0.000000,0.000000,0.000000,1769522835.532579,0.000000
150.000000,15377.731964,15154.572148,2069.056281,-3912.382294,7566.043146,-8689.017140,924.289337,-16881.020889,13636.307554,11855.991108,-8638.703363,-418.111732,22051.582879,13406.688083,-382.237182,3292.680179,0.012000,-0.014000,1.006000,192.000000,0.000000,48.000000,127.500000,72.000000,15.500000,56.000000,0.000000,0.000000,0.000000,1769522835.532589,0.000000
152.000000,15373.641595,15145.162063,2001.509309,-3993.586182,7564.746745,-8729.317335,853.389603,-16974.808809,13774.575445,11812.136985,-8742.013126,-491.201936,22011.573256,13346.472483,-459.753032,3240.242987,0.012000,-0.014000,1.006000,192.000000,0.000000,0.000000,0.000000,0.000000,0.000000,0.000000,0.000000,0.000000,0.000000,1769522835.532600,0.000000
154.000000,15395.143973,15159.377773,2105.579031,-3884.196744,7599.973094,-8656.718869,957.638139,-16840.474825,13760.538549,11835.047523,-8682.915113,-459.998901,22054.868585,13382.525847,-419.855168,3265.187534,0.012000,-0.014000,1.006000,192.000000,0.000000,0.000000,0.000000,0.000000,0.000000,0.000000,0.000000,0.000000,0.000000,1769522835.532610,0.000000
156.000000,15352.787418,15103.900743,2018.139007,-3983.259676,7561.148114,-8736.089913,865.839525,-16961.531873,13685.660206,11801.609314,-8666.374822,-454.567427,22051.068789,13375.932083,-409.305144,3270.440193,0.012000,-0.014000,1.006000,192.000000,0.000000,0.000000,0.000000,0.000000,0.000000,0.000000,0.000000,0.000000,0.000000,1769522835.532620,0.000000
158.000000,15386.002110,15135.751979,2061.613150,-3943.272405,7599.526060,-8717.672076,910.408903,-16909.832288,13852.851254,11782.073889,-8760.743888,-523.500207,22026.995960,13325.305381,-471.688863,3225.848463,0.012000,-0.014000,1.006000,192.000000,0.000000,0.000000,0.000000,0.000000,0.000000,0.000000,0.000000,0.000000,0.000000,1769522835.532631,0.000000
160.000000,15367.159589,15099.653912,2074.398348,-3932.387106,7574.648568,-8708.060826,921.316555,-16897.024738,13663.353165,11778.743479,-8639.083342,-449.113601,22068.994888,13378.569588,-372.290656,3287.673388,0.006000,-0.016000,0.994000,192.000000,0.000000,24.000000,127.500000,64.000000,15.500000,8.000000,0.000000,0.000000,0.000000,1769522835.532641,0.000000
162.000000,15377.977834,15109.645141,2009.935917,-4006.907822,7574.626216,-8747.466951,849.567455,-16987.102269,13804.035044,11759.342165,-8741.521387,-519.163968,22030.013446,13323.114910,-455.729718,3235.616176,0.006000,-0.016000,0.994000,192.000000,0.000000,0.000000,0.000000,0.000000,0.000000,0.000000,0.000000,0.000000,0.000000,1769522835.532652,0.000000
164.000000,15400.128412,15134.768502,2109.825863,-3896.132576,7600.978923,-8676.611921,954.017157,-16850.801331,13784.633730,11787.773584,-8681.976340,-477.835593,22066.089161,13364.376231,-415.831854,3255.509228,0.006000,-0.016000,0.994000,192.000000,0.000000,0.000000,0.000000,0.000000,0.000000,0.000000,0.000000,0.000000,0.000000,1769522835.532662,0.000000
166.000000,15387.410270,15117.691769,2027.035001,-3984.489022,7562.623329,-8737.542777,868.991121,-16959.117885,13707.766081,11768.081697,-8663.558503,-468.805488,22051.515824,13358.989460,-404.141891,3263.824077,0.006000,-0.016000,0.994000,192.000000,0.000000,0.000000,0.000000,0.000000,0.000000,0.000000,0.000000,0.000000,0.000000,1769522835.532672,0.000000
168.000000,15435.265355,15170.777162,2068.363377,-3937.952690,7590.853583,-8702.003503,916.086247,-16898.745823,13880.388603,11788.242970,-8748.808056,-520.505073,22026.392463,13324.567774,-477.612076,3218.919422,0.006000,-0.016000,0.994000,192.000000,0.000000,0.000000,0.000000,0.000000,0.000000,0.000000,0.000000,0.000000,0.000000,1769522835.532682,0.000000
170.000000,15413.539459,15145.139712,2077.125260,-3925.882748,7566.557236,-8703.769291,926.748029,-16883.680747,13674.797258,11797.831869,-8622.096017,-433.892063,22061.529405,13383.375214,-372.022435,3287.025188,0.004000,-0.026000,0.996000,192.000000,0.000000,16.000000,127.500000,24.000000,15.500000,16.000000,0.000000,0.000000,0.000000,1769522835.532693,0.000000
172.000000,15432.717256,15164.742191,2002.202213,-4013.769807,7565.037318,-8778.290007,845.901769,-16983.794210,13813.936867,11773.893151,-8733.094780,-509.753884,22010.254504,13311.782576,-463.329311,3221.020486,0.004000,-0.026000,0.996000,192.000000,0.000000,0.000000,0.000000,0.000000,0.000000,0.000000,0.000000,0.000000,0.000000,1769522835.532703,0.000000
174.000000,15476.057288,15215.748872,2116.911366,-3882.408605,7598.117900,-8667.358299,965.975340,-16826.504985,13796.055471,11818.887212,-8669.995805,-460.512991,22050.062960,13359.436495,-416.725924,3257.967920,0.004000,-0.026000,0.996000,192.000000,0.000000,0.000000,0.000000,0.000000,0.000000,0.000000,0.000000,0.000000,0.000000,1769522835.532713,0.000000
176.000000,15445.480102,15175.091049,2017.244937,-3989.339350,7548.966414,-8743.711858,863.649054,-16954.602832,13710.537697,11805.118538,-8649.543959,-440.307014,22039.468234,13364.555045,-407.539357,3273.792955,0.004000,-0.026000,0.996000,192.000000,0.000000,0.000000,0.000000,0.000000,0.000000,0.000000,0.000000,0.000000,0.000000,1769522835.532723,0.000000
178.000000,15497.090280,15233.205585,2066.865810,-3937.796228,7596.173298,-8710.899497,916.287412,-16885.558294,13885.753022,11806.794918,-8746.930509,-504.702390,22014.411928,13315.492966,-486.441015,3220.238175,0.004000,-0.026000,0.996000,192.000000,0.000000,0.000000,0.000000,0.000000,0.000000,0.000000,0.000000,0.000000,0.000000,1769522836.012618,0.000000
180.000000,15471.922215,15208.395148,2077.013502,-3919.221928,7568.144210,-8705.065692,931.240729,-16865.665241,13689.124726,11833.326439,-8604.929877,-405.974735,22065.798588,13386.236237,-371.821269,3287.248705,0.012000,-0.011000,0.993000,192.000000,0.000000,80.000000,0.000000,16.000000,15.000000,120.000000,0.000000,0.000000,0.000000,1769522836.012707,0.000000
182.000000,15487.434326,15214.921858,1996.301353,-4008.897127,7557.102449,-8774.333748,845.745307,-16972.663042,13824.464539,11809.812404,-8725.606945,-487.983285,22010.522724,13318.488099,-467.352625,3226.720181,0.012000,-0.011000,0.993000,192.000000,0.000000,0.000000,0.000000,0.000000,0.000000,0.000000,0.000000,0.000000,0.000000,1769522836.012758,0.000000
184.000000,15508.199097,15250.461131,2114.407970,-3877.468869,7597.648513,-8672.990939,969.529267,-16814.144470,13806.493736,11846.469265,-8662.172694,-439.725869,22051.337010,13364.040955,-423.856130,3255.397469,0.012000,-0.011000,0.993000,192.000000,0.000000,0.000000,0.000000,0.000000,0.000000,0.000000,0.000000,0.000000,0.000000,1769522836.012805,0.000000
186.000000,15469.888207,15205.332959,2016.842606,-3985.114871,7549.078172,-8749.411553,866.688891,-16947.919661,13719.612505,11823.469320,-8643.508988,-431.567482,22042.575126,13364.018603,-408.165205,3266.908618,0.012000,-0.011000,0.993000,192.000000,0.000000,0.000000,0.000000,0.000000,0.000000,0.000000,0.000000,0.000000,0.000000,1769522836.012851,0.000000
188.000000,15520.581963,15256.607861,2063.803621,-3935.292832,7593.088757,-8721.762445,917.360296,-16883.948968,13890.893923,11820.362427,-8748.249262,-505.127073,22012.243809,13308.630980,-488.609134,3217.935946,0.012000,-0.011000,0.993000,192.000000,0.000000,0.000000,0.000000,0.000000,0.000000,0.000000,0.000000,0.000000,0.000000,1769522836.012875,0.000000
190.000000,15489.289521,15225.069550,2078.533420,-3918.685486,7570.357033,-8706.742073,931.620709,-16866.581662,13691.985749,11845.508140,-8601.957095,-404.678333,22069.754847,13387.443231,-375.129327,3290.914391,0.012000,-0.008500,0.994500,192.000000,0.000000,48.000000,127.500000,104.000000,15.500000,16.000000,0.000000,0.000000,0.000000,1769522836.012898,0.000000
192.000000,15504.287541,15232.803253,2000.525832,-4006.617249,7567.540713,-8767.672928,848.606330,-16969.153818,13826.498547,11810.661770,-8723.818806,-487.715064,22014.948370,13313.838937,-469.833668,3227.189568,0.012000,-0.008500,0.994500,192.000000,0.000000,0.000000,0.000000,0.000000,0.000000,0.000000,0.000000,0.000000,0.000000,1769522836.012921,0.000000
194.000000,15531.087283,15264.542730,2115.816130,-3878.787622,7605.158699,-8678.891799,969.752785,-16813.496269,13816.417911,11858.718021,-8657.545883,-437.848322,22060.858853,13366.276129,-421.799770,3260.068984,0.012000,-0.008500,0.994500,192.000000,0.000000,0.000000,0.000000,0.000000,0.000000,0.000000,0.000000,0.000000,0.000000,1769522836.012944,0.000000
196.000000,15492.508172,15225.203660,2021.625879,-3985.226629,7553.481466,-8746.885806,869.885191,-16938.241355,13722.920564,11832.454721,-8638.636308,-429.377011,22045.257335,13362.230463,-404.052485,3270.395490,0.012000,-0.008500,0.994500,192.000000,0.000000,0.000000,0.000000,0.000000,0.000000,0.000000,0.000000,0.000000,0.000000,1769522836.012967,0.000000
198.000000,15542.151397,15273.237559,2071.984359,-3935.762219,7591.837059,-8738.526254,921.562424,-16873.466000,13900.974560,11831.851224,-8734.949974,-493.057131,22021.251562,13313.324846,-486.441015,3205.821300,0.012000,-0.008500,0.994500,192.000000,0.000000,0.000000,0.000000,0.000000,0.000000,0.000000,0.000000,0.000000,0.000000,1769522836.012991,0.000000
200.000000,15497.269094,15241.766303,2084.411929,-3917.322030,7562.042184,-8717.783835,937.052183,-16856.568081,13699.831212,11851.364297,-8594.245743,-396.922278,22070.403048,13386.347996,-378.683255,3289.819156,0.012000,-0.008500,0.994500,192.000000,0.000000,0.000000,127.500000,96.000000,15.500000,8.000000,0.000000,0.000000,0.000000,1769522836.013013,0.000000
202.000000,15500.890076,15239.620535,1999.631762,-4008.137167,7551.536864,-8764.029594,849.053365,-16967.030402,13830.477158,11820.273020,-8717.716779,-481.948314,22011.595608,13318.286934,-476.829764,3225.714353,0.012000,-0.008500,0.994500,192.000000,0.000000,0.000000,0.000000,0.000000,0.000000,0.000000,0.000000,0.000000,0.000000,1769522836.013036,0.000000
204.000000,15541.123216,15282.312367,2116.933717,-3873.981997,7596.665036,-8671.247503,971.831497,-16805.784918,13815.188565,11866.295262,-8653.589625,-429.891101,22057.841367,13372.087583,-425.532511,3250.055403,0.012000,-0.008500,0.994500,192.000000,0.000000,0.000000,0.000000,0.000000,0.000000,0.000000,0.000000,0.000000,0.000000,1769522836.013059,0.000000
206.000000,15492.999910,15229.383436,2012.305202,-3987.059472,7546.038335,-8751.624376,863.358481,-16946.824425,13724.954572,11844.010573,-8640.580909,-421.240976,22042.508071,13370.120629,-408.299316,3272.116574,0.012000,-0.008500,0.994500,192.000000,0.000000,0.000000,0.000000,0.000000,0.000000,0.000000,0.000000,0.000000,0.000000,1769522836.013083,0.000000
208.000000,15542.553728,15282.155905,2063.714214,-3934.085838,7592.798184,-8713.961686,914.588680,-16883.144305,13897.241819,11839.428465,-8747.310489,-494.934677,22014.791908,13317.661085,-486.128090,3218.248870,0.012000,-0.008500,0.994500,192.000000,0.000000,0.000000,0.000000,0.000000,0.000000,0.000000,0.000000,0.000000,0.000000,1769522836.013102,0.000000
210.000000,15513.317646,15249.075323,2077.594647,-3916.673829,7569.909998,-8697.197878,929.989032,-16863.161846,13701.127613,11862.897797,-8602.135909,-398.039865,22070.470103,13397.546220,-373.363539,3291.964923,0.011000,-0.012250,0.994250,192.000000,0.000000,40.000000,127.500000,64.000000,15.500000,8.000000,0.000000,0.000000,0.000000,1769522836.013125,0.000000
212.000000,15511.440100,15245.767265,1997.374236,-4009.321810,7559.896417,-8769.103440,843.890112,-16972.886559,13834.701638,11827.850262,-8724.668172,-483.602343,22011.439146,13323.919573,-469.788965,3227.949527,0.011000,-0.012250,0.994250,192.000000,0.000000,0.000000,0.000000,0.000000,0.000000,0.000000,0.000000,0.000000,0.000000,1769522836.013136,0.000000
214.000000,15549.840397,15285.910998,2117.961898,-3876.775965,7604.599906,-8677.438936,967.182334,-16813.630380,13817.535498,11871.100887,-8662.239750,-436.037831,22062.334068,13369.718298,-422.671488,3253.989310,0.011000,-0.012250,0.994250,192.000000,0.000000,0.000000,0.000000,0.000000,0.000000,0.000000,0.000000,0.000000,0.000000,1769522836.013146,0.000000
216.000000,15518.167975,15241.118102,2023.726943,-3980.778632,7558.510608,-8740.426152,867.359444,-16939.984791,13732.174186,11852.705402,-8636.579947,-421.643307,22058.377809,13374.501571,-402.689028,3267.132135,0.011000,-0.012250,0.994250,192.000000,0.000000,0.000000,0.000000,0.000000,0.000000,0.000000,0.000000,0.000000,0.000000,1769522836.013156,0.000000
218.000000,15546.353524,15282.759402,2066.016443,-3934.532873,7593.155812,-8717.940297,914.253403,-16883.189009,13909.423519,11852.079553,-8740.582614,-489.234983,22031.712178,13326.825300,-491.023122,3213.845577,0.011000,-0.012250,0.994250,192.000000,0.000000,0.000000,0.000000,0.000000,0.000000,0.000000,0.000000,0.000000,0.000000,1769522836.013166,0.000000
220.000000,15522.906545,15252.271623,2084.344874,-3914.528062,7571.899303,-8704.506898,932.313613,-16858.467979,13705.486203,11871.413812,-8597.911429,-393.413054,22081.847141,13400.116670,-376.895115,3291.830813,0.011500,-0.016125,0.997125,192.000000,0.000000,48.000000,127.500000,48.000000,15.500000,32.000000,0.000000,0.000000,0.000000,1769522836.013177,0.000000
222.000000,15526.058141,15253.769190,2001.978696,-4007.265449,7558.868236,-8769.617530,847.086411,-16966.717478,13843.485873,11837.685029,-8716.710951,-476.941523,22028.717044,13328.099350,-474.929866,3225.826112,0.011500,-0.016125,0.997125,192.000000,0.000000,0.000000,0.000000,0.000000,0.000000,0.000000,0.000000,0.000000,0.000000,1769522836.013187,0.000000
224.000000,15548.856920,15279.741917,2119.437113,-3881.268666,7606.946839,-8687.385462,969.372805,-16813.384511,13823.458710,11872.240826,-8656.674165,-431.500427,22066.513844,13371.349975,-425.800732,3255.688042,0.011500,-0.016125,0.997125,192.000000,0.000000,0.000000,0.000000,0.000000,0.000000,0.000000,0.000000,0.000000,0.000000,1769522836.013198,0.000000
226.000000,15506.343902,15231.842128,2019.703629,-3988.668798,7560.835190,-8758.799286,865.772470,-16943.672829,13726.563898,11843.496483,-8638.390438,-422.559729,22056.477911,13369.941815,-399.425673,3258.727879,0.011500,-0.016125,0.997125,192.000000,0.000000,0.000000,0.000000,0.000000,0.000000,0.000000,0.000000,0.000000,0.000000,1769522836.013208,0.000000
228.000000,15563.452609,15292.951798,2074.465403,-3933.415286,7610.701932,-8722.388294,920.243671,-16871.052011,13906.830717,11845.686954,-8742.817788,-491.492509,22026.750091,13317.392864,-488.832651,3208.481158,0.011500,-0.016125,0.997125,192.000000,0.000000,0.000000,0.000000,0.000000,0.000000,0.000000,0.000000,0.000000,0.000000,1769522836.013219,0.000000
230.000000,15527.712170,15255.177349,2086.356531,-3916.137387,7580.281208,-8713.648762,936.001651,-16854.109389,13722.138253,11883.707271,-8583.986292,-381.812499,22097.895694,13408.520926,-373.274132,3274.150583,0.009750,-0.019062,1.000563,192.000000,0.000000,32.000000,127.500000,40.000000,15.500000,48.000000,0.000000,0.000000,0.000000,1769522836.013230,0.000000
232.000000,15509.517850,15237.765341,1994.915544,-4014.529766,7552.520341,-8780.234609,843.912464,-16976.105210,13831.706504,11831.717113,-8725.629297,-484.742282,22016.133012,13317.348160,-472.538230,3230.408219,0.009750,-0.019062,1.000563,192.000000,0.000000,0.000000,0.000000,0.000000,0.000000,0.000000,0.000000,0.000000,0.000000,1769522836.013240,0.000000
234.000000,15538.575117,15275.584492,2113.625659,-3883.302675,7590.607714,-8688.860677,968.165811,-16817.452528,13810.785271,11869.469210,-8667.023023,-439.815276,22058.467216,13366.901978,-428.259424,3259.018452,0.009750,-0.019062,1.000563,192.000000,0.000000,0.000000,0.000000,0.000000,0.000000,0.000000,0.000000,0.000000,0.000000,1769522836.013252,0.000000
236.000000,15494.341015,15224.242535,2012.059332,-3992.580353,7541.702097,-8755.290062,862.956150,-16950.490111,13719.076064,11847.653907,-8645.699459,-422.962060,22048.319524,13368.243083,-412.702610,3266.528638,0.009750,-0.019062,1.000563,192.000000,0.000000,0.000000,0.000000,0.000000,0.000000,0.000000,0.000000,0.000000,0.000000,1769522836.013262,0.000000
238.000000,15543.760722,15277.238521,2065.412946,-3938.913815,7594.921600,-8724.042323,916.466226,-16882.205532,13892.078566,11842.535358,-8752.697260,-498.935640,22015.596570,13311.939038,-494.532346,3211.208071,0.009750,-0.019062,1.000563,192.000000,0.000000,0.000000,0.000000,0.000000,0.000000,0.000000,0.000000,0.000000,0.000000,1769522836.013273,0.000000
240.000000,15513.049425,15244.627326,2079.673359,-3919.356038,7576.012024,-8708.172585,932.917110,-16860.703154,13701.015854,11875.839457,-8596.883249,-388.965057,22082.763563,13399.960208,-378.817365,3283.806537,0.006875,-0.018531,1.001281,192.000000,0.000000,16.000000,127.500000,56.000000,15.500000,40.000000,0.000000,0.000000,0.000000,1769522836.013283,0.000000
242.000000,15507.997931,15237.675934,1991.227507,-4016.183795,7557.169504,-8780.994568,841.096144,-16979.703841,13823.436358,11834.198157,-8728.020934,-480.003712,22017.921152,13322.064379,-472.381767,3226.474312,0.006875,-0.018531,1.001281,192.000000,0.000000,0.000000,0.000000,0.000000,0.000000,0.000000,0.000000,0.000000,0.000000,1769522836.013295,0.000000
244.000000,15550.533301,15288.034414,2116.039648,-3878.586457,7604.488147,-8682.512782,969.529267,-16814.211525,13806.851364,11878.208742,-8668.431183,-435.791962,22063.317545,13368.533655,-433.020345,3256.068022,0.006875,-0.018531,1.001281,192.000000,0.000000,0.000000,0.000000,0.000000,0.000000,0.000000,0.000000,0.000000,0.000000,1769522836.013305,0.000000
246.000000,15507.707358,15236.535995,2012.394609,-3984.600781,7546.328908,-8738.481550,863.246723,-16950.356001,13727.905003,11869.960948,-8640.871482,-415.697743,22058.333106,13376.490876,-405.773569,3264.472278,0.006875,-0.018531,1.001281,192.000000,0.000000,0.000000,0.000000,0.000000,0.000000,0.000000,0.000000,0.000000,0.000000,1769522836.013316,0.000000
248.000000,15532.048408,15284.301672,2055.958158,-3932.297699,7587.031434,-8714.051093,913.895776,-16888.106392,13876.968786,11854.493541,-8761.727364,-493.839442,22006.432355,13322.444358,-498.533308,3213.666763,0.006875,-0.018531,1.001281,192.000000,0.000000,0.000000,0.000000,0.000000,0.000000,0.000000,0.000000,0.000000,0.000000,1769522836.013326,0.000000
250.000000,15515.016379,15264.162751,2074.621865,-3910.728265,7568.457135,-8700.952971,932.067744,-16859.272642,13678.909979,11891.463326,-8607.746197,-385.656999,22062.602289,13409.482051,-381.834851,3288.321589,0.006875,-0.018531,1.001281,192.000000,0.000000,0.000000,0.000000,0.000000,0.000000,0.000000,0.000000,0.000000,0.000000,1769522836.013336,0.000000
252.000000,15522.973600,15268.811914,1991.898059,-4007.466615,7561.863370,-8768.097611,843.778353,-16970.629033,13810.517050,11866.541131,-8727.909175,-466.816183,22006.477059,13339.699905,-475.488660,3226.206091,0.004000,-0.014000,1.002000,192.000000,0.000000,16.000000,127.500000,72.000000,15.500000,40.000000,0.000000,0.000000,0.000000,1769522836.013347,0.000000
254.000000,15552.902586,15307.055748,2113.111569,-3871.210381,7604.085815,-8680.344663,971.987959,-16807.349540,13801.576352,11914.887955,-8662.396212,-418.894043,22055.740303,13388.940798,-430.561653,3246.434420,0.004000,-0.014000,1.002000,192.000000,0.000000,0.000000,0.000000,0.000000,0.000000,0.000000,0.000000,0.000000,0.000000,1769522836.013358,0.000000
0.000000,15500.823021,15248.091846,2006.806672,-3982.209144,7548.675841,-8750.059754,862.576170,-16945.840948,13700.814688,11883.573161,-8646.392363,-409.685124,22038.328295,13384.939836,-418.894043,3270.663711,0.004000,-0.014000,1.002000,192.000000,0.000000,0.000000,0.000000,0.000000,0.000000,0.000000,0.000000,0.000000,0.000000,1769522836.013368,0.000000
2.000000,15544.163054,15299.254990,2055.466420,-3932.632975,7586.472641,-8719.147291,912.241746,-16884.753631,13875.247702,11877.538190,-8756.318242,-483.289419,22002.721966,13327.697018,-502.266050,3218.561795,0.004000,-0.014000,1.002000,192.000000,0.000000,0.000000,0.000000,0.000000,0.000000,0.000000,0.000000,0.000000,0.000000,1769522836.013379,0.000000
4.000000,15513.742329,15264.565082,2071.962008,-3913.924565,7557.996518,-8704.864526,930.234901,-16861.507816,13673.456153,11897.498297,-8609.355522,-383.622990,22061.797626,13406.039882,-380.270228,3291.942572,0.004000,-0.014000,1.002000,192.000000,0.000000,0.000000,0.000000,0.000000,0.000000,0.000000,0.000000,0.000000,0.000000,1769522836.013389,0.000000
6.000000,15516.133966,15264.386268,1985.885440,-4009.746493,7547.848826,-8770.846876,841.140847,-16975.233492,13806.761957,11860.640271,-8733.742980,-468.358453,22004.867733,13331.161539,-481.098948,3223.725048,0.012000,-0.020000,1.000000,192.000000,0.000000,48.000000,127.500000,48.000000,15.500000,32.000000,0.000000,0.000000,0.000000,1769522836.013400,0.000000
8.000000,15549.773341,15305.781699,2107.724799,-3877.513573,7588.104318,-8680.009387,967.294093,-16812.959828,13788.053547,11899.442899,-8674.756727,-426.292470,22044.810300,13374.009833,-434.964947,3254.481048,0.012000,-0.020000,1.000000,192.000000,0.000000,0.000000,0.000000,0.000000,0.000000,0.000000,0.000000,0.000000,0.000000,1769522836.013410,0.000000
10.000000,15495.525658,15248.114198,2008.281888,-3988.780557,7534.728352,-8756.295890,861.235066,-16946.444445,13695.584380,11872.173771,-8650.482732,-410.355676,22035.668437,13373.518094,-420.302203,3264.762850,0.012000,-0.020000,1.000000,192.000000,0.000000,0.000000,0.000000,0.000000,0.000000,0.000000,0.000000,0.000000,0.000000,1769522836.013421,0.000000
12.000000,15548.543995,15307.055748,2060.607321,-3931.560091,7588.931333,-8715.950992,917.248537,-16875.902340,13876.521751,11871.167942,-8754.619510,-479.757843,22006.521762,13321.438530,-498.980343,3207.028294,0.012000,-0.020000,1.000000,192.000000,0.000000,0.000000,0.000000,0.000000,0.000000,0.000000,0.000000,0.000000,0.000000,1769522836.013431,0.000000
14.000000,15512.356521,15267.783733,2070.889124,-3912.024666,7555.984861,-8706.116224,930.883101,-16859.652622,13677.412412,11896.514821,-8603.141737,-376.738653,22064.949222,13408.006836,-385.679351,3288.701569,0.012000,-0.020000,1.000000,192.000000,0.000000,0.000000,0.000000,0.000000,0.000000,0.000000,0.000000,0.000000,0.000000,1769522836.013442,0.000000
16.000000,15513.295294,15260.206492,1987.472413,-4005.589069,7540.316289,-8778.893504,843.420725,-16972.573635,13798.424756,11855.432314,-8735.642878,-468.269046,21995.703518,13326.870004,-481.881259,3227.837769,0.006000,-0.020000,0.996000,192.000000,0.000000,24.000000,127.500000,48.000000,15.500000,16.000000,0.000000,0.000000,0.000000,1769522836.013452,0.000000
18.000000,15544.118350,15299.903190,2113.849177,-3872.283265,7584.952722,-8689.508878,971.295055,-16807.371891,13782.599721,11894.681978,-8669.213494,-419.028153,22042.977457,13375.082716,-425.107828,3254.905731,0.006000,-0.020000,0.996000,192.000000,0.000000,0.000000,0.000000,0.000000,0.000000,0.000000,0.000000,0.000000,0.000000,1769522836.013464,0.000000
20.000000,15509.517850,15253.456265,2012.528719,-3981.873868,7535.264794,-8758.486361,864.856048,-16939.180128,13701.865220,11870.720908,-8643.017249,-406.041790,22041.703408,13375.194475,-414.736618,3260.963054,0.006000,-0.020000,0.996000,192.000000,0.000000,0.000000,0.000000,0.000000,0.000000,0.000000,0.000000,0.000000,0.000000,1769522836.013474,0.000000
22.000000,15565.307804,15317.002275,2070.844420,-3922.395876,7594.295751,-8710.564221,923.305860,-16864.100619,13881.215618,11876.241788,-8745.388239,-472.448823,22013.428451,13330.423931,-505.149425,3208.481158,0.006000,-0.020000,0.996000,192.000000,0.000000,0.000000,0.000000,0.000000,0.000000,0.000000,0.000000,0.000000,0.000000,1769522836.013484,0.000000
24.000000,15524.024132,15275.785658,2082.266162,-3906.727303,7565.774925,-8700.304771,936.359279,-16847.649735,13688.454174,11909.009446,-8586.757909,-362.254722,22082.472990,13418.802729,-374.235257,3276.698682,0.006000,-0.020000,0.996000,192.000000,0.000000,0.000000,0.000000,0.000000,0.000000,0.000000,0.000000,0.000000,0.000000,1769522836.013495,0.000000
26.000000,15520.805481,15264.788600,1991.473376,-4006.371380,7542.417352,-8774.490210,843.756001,-16965.421076,13811.075844,11853.286547,-8723.572936,-460.937674,22010.075690,13330.312172,-475.265142,3227.055457,0.004000,-0.022000,0.998000,192.000000,0.000000,16.000000,127.500000,40.000000,15.500000,24.000000,0.000000,0.000000,0.000000,1769522836.013506,0.000000
28.000000,15550.242728,15295.902228,2111.546947,-3875.948951,7580.392966,-8689.039491,968.389329,-16807.193077,13791.383957,11888.110565,-8664.631386,-418.961098,22046.486681,13372.266397,-432.908587,3258.996100,0.004000,-0.022000,0.998000,192.000000,0.000000,0.000000,0.000000,0.000000,0.000000,0.000000,0.000000,0.000000,0.000000,1769522836.013516,0.000000
30.000000,15494.408070,15242.816835,2006.136120,-3988.154708,7535.823588,-8767.672928,860.475106,-16944.410437,13694.511496,11859.701498,-8646.526473,-410.087456,22033.790890,13369.494780,-408.612240,3263.935836,0.004000,-0.022000,0.998000,192.000000,0.000000,0.000000,0.000000,0.000000,0.000000,0.000000,0.000000,0.000000,0.000000,1769522836.013526,0.000000
32.000000,15540.787940,15297.042167,2055.332310,-3933.638803,7579.543600,-8731.396047,913.560499,-16878.361032,13863.356574,11857.980413,-8759.492190,-491.000770,21994.541227,13316.610553,-498.890936,3212.348010,0.004000,-0.022000,0.998000,192.000000,0.000000,0.000000,0.000000,0.000000,0.000000,0.000000,0.000000,0.000000,0.000000,1769522836.013537,0.000000
34.000000,15508.020283,15259.223015,2069.257446,-3914.662172,7555.716640,-8720.331934,929.921976,-16856.098694,13665.498932,11880.242751,-8605.332208,-380.627856,22053.885109,13401.949513,-379.309103,3290.735577,0.004000,-0.022000,0.998000,192.000000,0.000000,0.000000,0.000000,0.000000,0.000000,0.000000,0.000000,0.000000,0.000000,1769522836.013548,0.000000
36.000000,15509.249629,15255.423219,1985.684274,-4007.980705,7540.651565,-8782.581542,843.711298,-16966.896292,13794.110870,11837.841491,-8732.491283,-468.760785,21990.093230,13321.952620,-481.344817,3226.273146,0.006000,-0.014000,0.996000,192.000000,0.000000,24.000000,127.500000,72.000000,15.500000,16.000000,0.000000,0.000000,0.000000,1769522836.013558,0.000000
38.000000,15537.591641,15289.375518,2103.299153,-3877.915904,7580.795298,-8683.004520,965.014215,-16810.635246,13783.739660,11880.130992,-8665.838381,-424.727848,22030.795757,13372.512266,-433.556787,3256.045670,0.006000,-0.014000,0.996000,192.000000,0.000000,0.000000,0.000000,0.000000,0.000000,0.000000,0.000000,0.000000,0.000000,1769522836.013568,0.000000
40.000000,15506.567419,15250.617594,2013.400437,-3973.246094,7532.627288,-8744.181245,871.114537,-16931.625239,13693.505668,11859.567387,-8643.710154,-410.780360,22024.134937,13377.116725,-423.006764,3266.528638,0.006000,-0.014000,0.996000,192.000000,0.000000,0.000000,0.000000,0.000000,0.000000,0.000000,0.000000,0.000000,0.000000,1769522836.013579,0.000000
42.000000,15548.454588,15296.952760,2059.757955,-3927.089742,7580.258856,-8717.515614,915.683915,-16875.879988,13863.267167,11867.591663,-8742.035477,-472.113546,22004.040719,13338.627021,-496.342837,3217.645373,0.006000,-0.014000,0.996000,192.000000,0.000000,0.000000,0.000000,0.000000,0.000000,0.000000,0.000000,0.000000,0.000000,1769522836.492215,0.000000
44.000000,15522.191289,15254.417390,2072.856077,-3911.711742,7560.030527,-8711.257125,928.312651,-16860.166712,13674.149057,11879.035756,-8608.327342,-385.791109,22054.555661,13407.693912,-386.439310,3285.438214,0.006000,-0.014000,0.996000,192.000000,0.000000,0.000000,0.000000,0.000000,0.000000,0.000000,0.000000,0.000000,0.000000,1769522836.492288,0.000000
46.000000,15515.552821,15258.507759,1999.587059,-3992.982685,7559.158809,-8759.067507,851.020318,-16960.481341,13802.179849,11850.000840,-8722.321239,-462.055261,22007.818163,13339.901071,-462.859924,3231.436399,0.006000,-0.018000,1.006000,192.000000,0.000000,24.000000,127.500000,56.000000,15.500000,56.000000,0.000000,0.000000,0.000000,1769522836.492334,0.000000
48.000000,15543.291335,15291.431879,2109.334124,-3872.149154,7597.872030,-8668.118258,964.053090,-16812.333979,13791.719233,11894.458460,-8662.642081,-418.804636,22054.063923,13391.332435,-425.130180,3256.515057,0.006000,-0.018000,1.006000,192.000000,0.000000,0.000000,0.000000,0.000000,0.000000,0.000000,0.000000,0.000000,0.000000,1769522836.492380,0.000000
50.000000,15500.107765,15240.626364,2014.853300,-3974.274275,7548.742896,-8747.332841,865.616008,-16940.565937,13704.882706,11871.078535,-8643.620747,-407.472301,22042.239850,13391.354786,-407.807578,3265.925141,0.006000,-0.018000,1.006000,192.000000,0.000000,0.000000,0.000000,0.000000,0.000000,0.000000,0.000000,0.000000,0.000000,1769522836.492435,0.000000
52.000000,15545.750027,15289.755498,2058.170981,-3930.666021,7586.025606,-8720.778968,911.437084,-16881.713793,13871.269092,11866.071745,-8748.115152,-478.014407,22007.616998,13334.804873,-482.685922,3223.099199,0.006000,-0.018000,1.006000,192.000000,0.000000,0.000000,0.000000,0.000000,0.000000,0.000000,0.000000,0.000000,0.000000,1769522836.492482,0.000000
54.000000,15506.813289,15250.841111,2066.999920,-3910.169472,7548.139399,-8715.705122,925.965718,-16864.480599,13680.608711,11886.233018,-8611.300124,-380.829022,22055.092103,13410.487880,-387.892173,3287.472223,0.006000,-0.018000,1.006000,192.000000,0.000000,0.000000,0.000000,0.000000,0.000000,0.000000,0.000000,0.000000,0.000000,1769522836.492527,0.000000
56.000000,15502.521754,15247.689515,1991.071044,-3999.464691,7549.122876,-8791.499888,845.521789,-16970.606681,13794.759070,11846.938651,-8728.378562,-463.463421,21993.043660,13332.033257,-470.191296,3238.968937,0.006000,-0.022000,1.002000,192.000000,0.000000,24.000000,127.500000,40.000000,15.500000,40.000000,0.000000,0.000000,0.000000,1769522836.492574,0.000000
58.000000,15524.873498,15276.098582,2097.554755,-3877.357111,7577.286074,-8687.497221,958.688671,-16824.426272,13778.397593,11875.817105,-8675.427279,-426.180712,22026.124242,13371.618196,-427.365354,3258.012624,0.006000,-0.022000,1.002000,192.000000,0.000000,0.000000,0.000000,0.000000,0.000000,0.000000,0.000000,0.000000,0.000000,1769522836.492620,0.000000
60.000000,15498.118460,15227.885869,2010.829986,-3973.201391,7535.242443,-8728.087989,868.499383,-16942.488187,13684.408508,11851.788980,-8655.288357,-415.809502,22016.244771,13372.825190,-410.355676,3269.076737,0.006000,-0.022000,1.002000,192.000000,0.000000,0.000000,0.000000,0.000000,0.000000,0.000000,0.000000,0.000000,0.000000,1769522836.492666,0.000000
62.000000,15528.405074,15277.640853,2050.079650,-3928.274385,7570.804068,-8706.227983,911.682953,-16886.564122,13855.019373,11858.494503,-8751.602024,-478.752014,21988.148628,13328.658143,-496.588707,3225.222614,0.006000,-0.022000,1.002000,192.000000,0.000000,0.000000,0.000000,0.000000,0.000000,0.000000,0.000000,0.000000,0.000000,1769522836.492713,0.000000
64.000000,15506.008626,15247.287184,2069.793888,-3909.253050,7551.939196,-8697.667265,929.050258,-16862.983032,13664.940138,11872.598454,-8615.457549,-388.585077,22035.042588,13399.736690,-390.619086,3285.840545,0.006000,-0.022000,1.002000,192.000000,0.000000,0.000000,0.000000,0.000000,0.000000,0.000000,0.000000,0.000000,0.000000,1769522836.492759,0.000000
66.000000,15501.314759,15239.687591,1988.277076,-3999.174118,7537.611727,-8765.638920,846.728783,-16972.238359,13790.221666,11843.094151,-8727.506844,-468.179639,21983.119486,13336.123626,-468.045529,3235.750286,0.005000,-0.021000,1.007000,192.000000,0.000000,16.000000,127.500000,48.000000,15.500000,80.000000,0.000000,0.000000,0.000000,1769522836.492784,0.000000
68.000000,15525.789920,15268.029603,2099.275839,-3881.201611,7580.392966,-8688.480698,958.375747,-16825.029770,13773.256692,11873.380765,-8677.595398,-428.952328,22021.542134,13369.763001,-427.946499,3258.526714,0.005000,-0.021000,1.007000,192.000000,0.000000,0.000000,0.000000,0.000000,0.000000,0.000000,0.000000,0.000000,0.000000,1769522836.492801,0.000000
70.000000,15495.816230,15233.652620,2017.133178,-3972.799059,7547.312385,-8748.383373,871.092185,-16935.425035,13688.454174,11857.131047,-8649.767476,-408.142854,22020.804527,13375.261530,-407.941688,3269.233199,0.005000,-0.021000,1.007000,192.000000,0.000000,0.000000,0.000000,0.000000,0.000000,0.000000,0.000000,0.000000,0.000000,1769522836.492816,0.000000
72.000000,15547.739333,15291.141306,2066.999920,-3925.055733,7596.329760,-8715.258088,917.874386,-16870.895549,13871.872589,11864.305957,-8736.805169,-463.731642,22008.041681,13339.744608,-477.634427,3213.532652,0.005000,-0.021000,1.007000,192.000000,0.000000,0.000000,0.000000,0.000000,0.000000,0.000000,0.000000,0.000000,0.000000,1769522836.492832,0.000000
74.000000,15509.875478,15246.728390,2072.878429,-3908.694256,7559.896417,-8707.837308,928.849093,-16859.853787,13684.564970,11881.606207,-8604.393435,-373.899981,22056.075580,13412.588944,-377.185688,3281.839583,0.005000,-0.021000,1.007000,192.000000,0.000000,0.000000,0.000000,0.000000,0.000000,0.000000,0.000000,0.000000,0.000000,1769522836.492850,0.000000
76.000000,15505.226315,15246.951908,1992.032169,-3995.709598,7548.005289,-8768.790516,846.885246,-16966.203388,13790.691053,11843.049448,-8727.328030,-462.681110,21992.328404,13340.213995,-461.496468,3237.828998,0.003500,-0.021500,1.005500,192.000000,0.000000,8.000000,127.500000,40.000000,15.500000,48.000000,0.000000,0.000000,0.000000,1769522836.492868,0.000000
78.000000,15533.702437,15277.171466,2096.258354,-3875.390157,7579.588304,-8684.211514,958.621616,-16824.023941,13773.681375,11882.813201,-8674.086174,-421.352735,22031.511012,13382.928179,-428.348831,3258.727879,0.003500,-0.021500,1.005500,192.000000,0.000000,0.000000,0.000000,0.000000,0.000000,0.000000,0.000000,0.000000,0.000000,1769522836.492884,0.000000
80.000000,15483.098088,15233.406750,2007.074893,-3974.855420,7534.951870,-8748.383373,865.571304,-16945.528024,13676.384232,11854.091210,-8657.523532,-410.959174,22017.407062,13380.693004,-417.776456,3275.134060,0.003500,-0.021500,1.005500,192.000000,0.000000,0.000000,0.000000,0.000000,0.000000,0.000000,0.000000,0.000000,0.000000,1769522836.492900,0.000000
82.000000,15532.406036,15285.598074,2054.080612,-3928.564957,7581.979940,-8712.933506,912.845244,-16885.066555,13847.240966,11859.522684,-8755.982966,-478.796718,21995.971739,13336.883585,-488.542079,3223.456827,0.003500,-0.021500,1.005500,192.000000,0.000000,0.000000,0.000000,0.000000,0.000000,0.000000,0.000000,0.000000,0.000000,1769522836.492919,0.000000
84.000000,15505.382777,15247.890681,2073.325464,-3909.565974,7574.581513,-8702.763462,930.771343,-16861.887796,13666.214188,11885.785983,-8614.697589,-381.477223,22054.443902,13414.555897,-385.321723,3283.113633,0.003500,-0.021500,1.005500,192.000000,0.000000,0.000000,0.000000,0.000000,0.000000,0.000000,0.000000,0.000000,0.000000,1769522836.492935,0.000000
86.000000,15506.008626,15244.403809,1992.881536,-3999.174118,7562.556274,-8766.085954,848.852199,-16970.025536,13786.757146,11848.391515,-8728.155044,-462.099965,22001.134992,13341.286879,-462.882276,3235.437362,0.003750,-0.019750,1.006750,192.000000,0.000000,16.000000,127.500000,56.000000,15.500000,64.000000,0.000000,0.000000,0.000000,1769522836.492950,0.000000
88.000000,15528.270963,15270.890626,2099.924040,-3884.777890,7593.267571,-8696.102643,958.331044,-16828.024903,13768.987509,11874.587759,-8679.405889,-431.522778,22034.081463,13373.048708,-428.125313,3267.847391,0.003750,-0.019750,1.006750,192.000000,0.000000,0.000000,0.000000,0.000000,0.000000,0.000000,0.000000,0.000000,0.000000,1769522836.492965,0.000000
90.000000,15495.346844,15231.775073,2016.954364,-3977.157650,7556.543655,-8750.193864,869.058176,-16942.912870,13683.201514,11851.766628,-8653.723735,-415.273060,22033.813242,13375.976786,-396.609354,3275.379929,0.003750,-0.019750,1.006750,192.000000,0.000000,0.000000,0.000000,0.000000,0.000000,0.000000,0.000000,0.000000,0.000000,1769522836.492981,0.000000
92.000000,15538.262193,15277.618501,2059.914417,-3939.092629,7601.604772,-8732.088951,910.163034,-16888.285206,13859.601481,11858.427448,-8749.143332,-476.807413,22014.881315,13332.659105,-473.409948,3224.082675,0.003750,-0.019750,1.006750,192.000000,0.000000,0.000000,0.000000,0.000000,0.000000,0.000000,0.000000,0.000000,0.000000,1769522836.493006,0.000000
94.000000,15519.889059,15253.456265,2079.718063,-3914.997448,7583.946894,-8722.343591,930.659584,-16859.496159,13678.731165,11877.739355,-8608.774377,-384.248839,22071.341821,13399.803746,-365.808650,3277.592752,0.003750,-0.019750,1.006750,192.000000,0.000000,0.000000,0.000000,0.000000,0.000000,0.000000,0.000000,0.000000,0.000000,1769522836.493022,0.000000
96.000000,15509.070815,15252.249271,1995.429635,-3998.704731,7568.591245,-8751.087934,847.399336,-16968.729135,13797.038948,11853.308899,-8721.740093,-463.172849,22018.569352,13340.683382,-452.712232,3230.408219,0.002875,-0.017875,1.007375,192.000000,0.000000,8.000000,127.500000,64.000000,15.500000,64.000000,0.000000,0.000000,0.000000,1769522836.493039,0.000000
98.000000,15536.518757,15281.865332,2102.718008,-3875.837192,7599.459004,-8665.078421,961.460288,-16817.027845,13781.236265,11884.020195,-8670.912227,-420.123389,22048.677152,13381.385908,-418.201139,3258.347900,0.002875,-0.017875,1.007375,192.000000,0.000000,0.000000,0.000000,0.000000,0.000000,0.000000,0.000000,0.000000,0.000000,1769522836.493055,0.000000
100.000000,15490.585922,15235.731332,2008.617164,-3974.207219,7545.993632,-8750.372678,867.247685,-16938.844852,13684.564970,11863.166018,-8646.839398,-401.549089,22033.992056,13385.968016,-404.611278,3273.032996,0.002875,-0.017875,1.007375,192.000000,0.000000,0.000000,0.000000,0.000000,0.000000,0.000000,0.000000,0.000000,0.000000,1769522836.493072,0.000000
102.000000,15527.868632,15280.300710,2047.062164,-3930.420152,7577.800164,-8738.615661,910.006572,-16885.178314,13844.245832,11858.583910,-8752.831370,-472.761747,21996.865809,13331.429759,-481.724797,3228.597728,0.002875,-0.017875,1.007375,192.000000,0.000000,0.000000,0.000000,0.000000,0.000000,0.000000,0.000000,0.000000,0.000000,1769522836.493089,0.000000
