Sample Index, EXG Channel 0, EXG Channel 1, EXG Channel 2, EXG Channel 3, EXG Channel 4, EXG Channel 5, EXG Channel 6, EXG Channel 7, EXG Channel 8, EXG Channel 9, EXG Channel 10, EXG Channel 11, EXG Channel 12, EXG Channel 13, EXG Channel 14, EXG Channel 15, Accel Channel 0, Accel Channel 1, Accel Channel 2, Not Used, Digital Channel 0 (D11), Digital Channel 1 (D12), Digital Channel 2 (D13), Digital Channel 3 (D17), Not Used, Digital Channel 4 (D18), Analog Channel 0, Analog Channel 1, Analog Channel 2, Timestamp, Marker Channel, Timestamp (Formatted)
74.000000,7257.678480,10885.523067,-17953.278774,-12684.816144,-8315.184214,-10519.401493,-2217.427160,-196.158909,6740.816741,8470.014747,1376.420424,-8.068980,8422.226718,12022.757473,-2218.656506,-1110.747589,-0.001500,-0.017750,1.008750,192.000000,0.000000,0.000000,0.000000,0.000000,0.000000,0.000000,0.000000,0.000000,0.000000,1768316194.924177,0.000000
76.000000,7195.004188,10891.625093,-18057.013220,-12780.258093,-8391.224848,-10613.301171,-2295.792376,-282.526050,6802.976942,8383.982883,1234.933881,-173.158964,8307.897545,11904.896725,-2323.530891,-1114.055647,-0.001500,-0.017750,1.008750,192.000000,0.000000,0.000000,0.000000,0.000000,0.000000,0.000000,0.000000,0.000000,0.000000,1768316194.924254,0.000000
78.000000,7295.587038,10864.110096,-17879.540369,-12624.041751,-8280.829582,-10464.505609,-2176.121137,-143.229978,6775.037262,8431.770913,1317.925908,-69.513925,8357.205493,11976.578769,-2250.977129,-1120.358839,-0.001500,-0.017750,1.008750,192.000000,0.000000,0.000000,0.000000,0.000000,0.000000,0.000000,0.000000,0.000000,0.000000,1768316194.924308,0.000000
80.000000,7195.317113,10877.007053,-18059.226043,-12767.204674,-8393.147098,-10598.481965,-2302.363789,-284.493003,6703.310514,8424.014857,1314.059057,-85.718940,8349.628252,11974.723574,-2258.889646,-1104.176176,0.000250,-0.017875,1.007375,192.000000,0.000000,8.000000,127.500000,56.000000,15.500000,56.000000,0.000000,0.000000,0.000000,1768316194.924357,0.000000
82.000000,7276.319835,10850.810808,-17935.039751,-12679.004691,-8321.822682,-10506.929220,-2221.629288,-191.263877,6827.049771,8389.347302,1231.894044,-166.408737,8316.033580,11907.176603,-2332.382182,-1118.727162,0.000250,-0.017875,1.007375,192.000000,0.000000,0.000000,0.000000,0.000000,0.000000,0.000000,0.000000,0.000000,0.000000,1768316194.924405,0.000000
84.000000,7265.970977,10849.715573,-17942.035847,-12670.958063,-8321.375647,-10498.815536,-2227.060762,-195.577764,6692.268752,8450.389916,1371.503040,-11.600555,8381.278322,12033.329848,-2214.275564,-1117.296650,0.000250,-0.017875,1.007375,192.000000,0.000000,0.000000,0.000000,0.000000,0.000000,0.000000,0.000000,0.000000,0.000000,1768316194.924458,0.000000
86.000000,7195.138299,10861.852570,-18050.888842,-12768.568131,-8391.046034,-10590.882372,-2301.179147,-284.783576,6779.373500,8387.447403,1233.816294,-175.908229,8304.589487,11922.979286,-2337.098400,-1112.111045,0.000250,-0.017875,1.007375,192.000000,0.000000,0.000000,0.000000,0.000000,0.000000,0.000000,0.000000,0.000000,0.000000,1768316194.924512,0.000000
88.000000,7296.972847,10842.495959,-17864.609404,-12615.011646,-8278.236780,-10445.104294,-2176.948151,-140.167789,6761.223884,8431.815616,1322.060981,-61.869629,8355.663223,11991.867362,-2258.777888,-1128.964261,0.000250,-0.017875,1.007375,192.000000,0.000000,0.000000,0.000000,0.000000,0.000000,0.000000,0.000000,0.000000,0.000000,1768316194.924529,0.000000
90.000000,7199.027502,10835.321049,-18052.788741,-12764.813037,-8394.868183,-10583.439241,-2304.733074,-285.901163,6687.172554,8412.928392,1314.371981,-81.069777,8349.717659,11992.269694,-2264.455231,-1118.548348,-0.000875,-0.014938,1.006687,192.000000,127.500000,120.000000,127.500000,80.000000,15.500000,56.000000,0.000000,0.000000,0.000000,1768316194.924546,0.000000
92.000000,7256.337375,10848.530930,-17928.356579,-12676.657757,-8320.012190,-10494.926333,-2223.573890,-194.415473,6800.071216,8391.224848,1233.570425,-172.399005,8306.757606,11926.689676,-2335.310261,-1128.673688,-0.000875,-0.014938,1.006687,192.000000,0.000000,0.000000,0.000000,0.000000,0.000000,0.000000,0.000000,0.000000,0.000000,1768316194.924564,0.000000
94.000000,7257.365555,10821.418264,-17934.123329,-12667.448839,-8320.146301,-10492.065310,-2225.227919,-196.158909,6666.541894,8455.664927,1371.815964,-22.910538,8379.557238,12033.687476,-2213.605012,-1127.801970,-0.000875,-0.014938,1.006687,192.000000,0.000000,0.000000,0.000000,0.000000,0.000000,0.000000,0.000000,0.000000,0.000000,1768316194.924581,0.000000
96.000000,7194.378340,10836.729209,-18045.502072,-12768.724593,-8392.945933,-10586.702596,-2300.262725,-283.286009,6749.019831,8376.472697,1237.593739,-169.649740,8295.537030,11923.292210,-2335.377316,-1122.906938,-0.000875,-0.014938,1.006687,192.000000,0.000000,0.000000,0.000000,0.000000,0.000000,0.000000,0.000000,0.000000,0.000000,1768316194.924598,0.000000
98.000000,7292.927181,10815.025665,-17858.753247,-12614.251687,-8276.828620,-10436.185948,-2174.087128,-140.167789,6726.556328,8416.482319,1323.580900,-66.027053,8350.879949,11993.588447,-2256.989748,-1135.379211,-0.000875,-0.014938,1.006687,192.000000,0.000000,0.000000,0.000000,0.000000,0.000000,0.000000,0.000000,0.000000,0.000000,1768316194.924615,0.000000
100.000000,7174.082956,10807.247258,-18048.206633,-12762.108476,-8391.001331,-10579.661796,-2299.882746,-289.768015,6659.702260,8406.513441,1317.814150,-83.103786,8333.043257,11994.616627,-2263.069423,-1121.051743,-0.000875,-0.014938,1.006687,192.000000,0.000000,0.000000,0.000000,0.000000,0.000000,0.000000,0.000000,0.000000,0.000000,1768316194.924632,0.000000
102.000000,7227.123645,10802.173412,-17928.691856,-12677.283606,-8319.028714,-10492.981731,-2222.411599,-205.971325,6773.718509,8379.713700,1229.502407,-178.925714,8304.097748,11923.269859,-2338.730078,-1130.215958,-0.002000,-0.012000,1.006000,192.000000,127.500000,120.000000,127.500000,80.000000,15.500000,56.000000,0.000000,0.000000,0.000000,1768316194.924649,0.000000
104.000000,7181.481383,10745.735257,-17932.335190,-12669.236978,-8312.859632,-10486.656187,-2225.004402,-214.174415,6645.374792,8446.478360,1357.242627,-45.999890,8375.444517,12037.979011,-2216.376628,-1131.467656,-0.002000,-0.012000,1.006000,192.000000,0.000000,0.000000,0.000000,0.000000,0.000000,0.000000,0.000000,0.000000,0.000000,1768316194.924666,0.000000
106.000000,7086.374710,10731.363086,-18048.698371,-12771.272692,-8381.948874,-10579.281816,-2301.380313,-308.409370,6710.775997,8348.041278,1215.554919,-186.637066,8298.442757,11924.320391,-2335.533778,-1122.683421,-0.002000,-0.012000,1.006000,192.000000,0.000000,0.000000,0.000000,0.000000,0.000000,0.000000,0.000000,0.000000,0.000000,1768316194.924683,0.000000
108.000000,7175.602874,10690.861725,-17854.975802,-12617.604449,-8256.779105,-10433.503739,-2174.377701,-162.608941,6675.281426,8387.134479,1298.301077,-83.975504,8358.703060,11998.483479,-2257.146210,-1138.039069,-0.002000,-0.012000,1.006000,192.000000,0.000000,0.000000,0.000000,0.000000,0.000000,0.000000,0.000000,0.000000,0.000000,1768316194.924700,0.000000
110.000000,7048.555559,10684.692643,-18047.983116,-12767.763468,-8378.484354,-10567.882427,-2300.419188,-315.941908,6600.939524,8379.601941,1293.786024,-105.924917,8345.560234,11996.404767,-2258.330853,-1127.131418,-0.002000,-0.012000,1.006000,192.000000,0.000000,0.000000,0.000000,0.000000,0.000000,0.000000,0.000000,0.000000,0.000000,1768316194.924717,0.000000
112.000000,7112.459196,10684.446774,-17927.060178,-12679.943464,-8309.506870,-10489.092528,-2221.025791,-224.970308,6716.341581,8343.570929,1205.966020,-193.431997,8308.009304,11931.785873,-2328.783551,-1133.613424,-0.002000,-0.018000,1.010000,192.000000,127.500000,120.000000,127.500000,56.000000,15.500000,72.000000,0.000000,0.000000,0.000000,1768316194.924734,0.000000
114.000000,7126.093760,10674.477896,-17933.922164,-12672.366222,-8306.712902,-10481.671748,-2224.266794,-224.769142,6585.516821,8410.559107,1341.551702,-42.043631,8374.036357,12034.916822,-2204.396093,-1139.089601,-0.002000,-0.018000,1.010000,192.000000,0.000000,0.000000,0.000000,0.000000,0.000000,0.000000,0.000000,0.000000,0.000000,1768316194.924751,0.000000
116.000000,7059.351451,10696.851992,-18048.318392,-12773.306700,-8385.346339,-10572.598645,-2299.256897,-311.985649,6683.685682,8348.912996,1205.317820,-203.602040,8304.723597,11936.658554,-2330.616394,-1128.494874,-0.002000,-0.018000,1.010000,192.000000,0.000000,0.000000,0.000000,0.000000,0.000000,0.000000,0.000000,0.000000,0.000000,1768316194.924768,0.000000
118.000000,7192.612552,10692.538106,-17855.869872,-12611.323608,-8275.174591,-10419.511547,-2169.080337,-157.021005,6671.056947,8404.479433,1296.356475,-89.764606,8365.185066,11995.220124,-2258.241446,-1140.408354,-0.002000,-0.018000,1.010000,192.000000,0.000000,0.000000,0.000000,0.000000,0.000000,0.000000,0.000000,0.000000,0.000000,1768316194.924785,0.000000
120.000000,7089.906286,10730.737237,-18047.290212,-12753.838331,-8387.760328,-10553.823179,-2292.640781,-295.668876,6619.960859,8400.322008,1303.956068,-89.317571,8352.869255,12013.973238,-2276.100490,-1123.465732,-0.002000,-0.018000,1.010000,192.000000,0.000000,0.000000,0.000000,0.000000,0.000000,0.000000,0.000000,0.000000,0.000000,1768316194.924802,0.000000
122.000000,7158.101458,10730.647830,-17931.329361,-12678.423545,-8323.923746,-10491.461812,-2219.550576,-214.308526,6731.384305,8362.234636,1213.856186,-182.054959,8294.687664,11938.647859,-2341.434639,-1130.238310,-0.002000,-0.016000,1.014000,192.000000,127.500000,120.000000,127.500000,64.000000,15.500000,88.000000,0.000000,0.000000,0.000000,1768316194.924819,0.000000
124.000000,7173.613569,10722.668257,-17935.106806,-12667.895874,-8321.889737,-10488.869010,-2219.595280,-212.743904,6601.811242,8418.493976,1350.559455,-28.252605,8361.161752,12038.940136,-2209.246422,-1134.865121,-0.002000,-0.016000,1.014000,192.000000,0.000000,0.000000,0.000000,0.000000,0.000000,0.000000,0.000000,0.000000,0.000000,1768316194.924836,0.000000
126.000000,7115.968420,10760.420353,-18049.950069,-12770.177456,-8398.422110,-10585.540305,-2295.613563,-298.149919,6701.209450,8357.227845,1219.064143,-184.200726,8286.484574,11930.221251,-2336.651365,-1127.489046,-0.002000,-0.016000,1.014000,192.000000,0.000000,0.000000,0.000000,0.000000,0.000000,0.000000,0.000000,0.000000,0.000000,1768316194.924853,0.000000
128.000000,7237.494855,10752.798409,-17861.010773,-12610.876573,-8270.391318,-10427.736989,-2169.661483,-148.706156,6691.307627,8421.556165,1311.399199,-75.235972,8345.761400,12002.953828,-2261.325987,-1141.749459,-0.002000,-0.016000,1.014000,192.000000,0.000000,0.000000,0.000000,0.000000,0.000000,0.000000,0.000000,0.000000,0.000000,1768316194.924870,0.000000
130.000000,7138.275461,10768.690499,-18054.867453,-12761.884959,-8392.633008,-10571.212837,-2296.284115,-298.015809,6626.666382,8406.714607,1308.448769,-86.814175,8332.260946,11999.444604,-2266.176315,-1116.916670,-0.002000,-0.016000,1.014000,192.000000,0.000000,0.000000,0.000000,0.000000,0.000000,0.000000,0.000000,0.000000,0.000000,1768316194.924887,0.000000
132.000000,7204.257811,10774.501952,-17935.822062,-12677.551827,-8330.539862,-10497.452080,-2219.394114,-208.385314,6752.350241,8369.968339,1221.679297,-174.969456,8297.973370,11929.550699,-2339.914720,-1136.183874,-0.006000,-0.018000,1.012000,192.000000,127.500000,104.000000,127.500000,56.000000,15.500000,80.000000,0.000000,0.000000,0.000000,1768316194.924904,0.000000
134.000000,7218.026485,10776.312444,-17934.615068,-12663.939615,-8328.863481,-10485.963283,-2216.533091,-204.831386,6614.372923,8436.129503,1360.796554,-24.005774,8362.860484,12042.494064,-2217.494216,-1134.753363,-0.006000,-0.018000,1.012000,192.000000,0.000000,0.000000,0.000000,0.000000,0.000000,0.000000,0.000000,0.000000,0.000000,1768316194.924919,0.000000
136.000000,7141.561167,10781.095717,-18055.985040,-12768.635186,-8398.287999,-10581.740508,-2296.060597,-296.853518,6707.356180,8370.907112,1224.540320,-175.505897,8289.859687,11932.389370,-2341.144066,-1120.805874,-0.006000,-0.018000,1.012000,192.000000,0.000000,0.000000,0.000000,0.000000,0.000000,0.000000,0.000000,0.000000,0.000000,1768316194.924962,0.000000
138.000000,7262.819381,10770.858618,-17857.099218,-12606.875611,-8281.924818,-10426.775864,-2166.599294,-141.195970,6697.476709,8423.053732,1310.974516,-71.436175,8345.403772,12002.149165,-2264.187010,-1134.127514,-0.006000,-0.018000,1.012000,192.000000,0.000000,0.000000,0.000000,0.000000,0.000000,0.000000,0.000000,0.000000,0.000000,1768316194.924989,0.000000
140.000000,7158.570845,10785.342549,-18051.067656,-12756.945223,-8392.409491,-10569.178828,-2293.624257,-289.768015,6633.640126,8411.520232,1318.372943,-75.750062,8338.452380,12006.217182,-2263.516458,-1116.112008,-0.006000,-0.018000,1.012000,192.000000,0.000000,0.000000,0.000000,0.000000,0.000000,0.000000,0.000000,0.000000,0.000000,1768316194.925007,0.000000
142.000000,7228.174177,10799.826479,-17931.530527,-12669.840475,-8320.325115,-10485.203324,-2215.236689,-198.081159,6753.579587,8379.713700,1228.027192,-167.414566,8296.431100,11931.271783,-2338.886540,-1125.611499,0.002000,-0.018000,1.012000,192.000000,0.000000,8.000000,127.500000,56.000000,15.500000,80.000000,0.000000,0.000000,0.000000,1768316194.925038,0.000000
144.000000,7241.406410,10788.181220,-17932.469300,-12655.647118,-8324.057856,-10469.288882,-2213.493253,-192.515575,6617.323353,8447.908872,1371.413633,-9.655954,8358.926577,12048.596090,-2215.393152,-1124.739781,0.002000,-0.018000,1.012000,192.000000,0.000000,0.000000,0.000000,0.000000,0.000000,0.000000,0.000000,0.000000,0.000000,1768316194.925060,0.000000
146.000000,7173.524162,10814.131595,-18050.464159,-12760.566206,-8397.639799,-10573.291549,-2289.533888,-285.007094,6722.018924,8384.944008,1239.404230,-163.905342,8292.497193,11940.659516,-2345.234435,-1119.129493,0.002000,-0.018000,1.012000,192.000000,0.000000,0.000000,0.000000,0.000000,0.000000,0.000000,0.000000,0.000000,0.000000,1768316194.925080,0.000000
148.000000,7282.332454,10804.833270,-17851.555985,-12601.824117,-8278.125021,-10432.274393,-2160.609026,-129.751877,6702.796424,8431.100360,1326.441923,-57.645149,8365.274473,12004.272581,-2267.584475,-1136.519150,0.002000,-0.018000,1.012000,192.000000,0.000000,0.000000,0.000000,0.000000,0.000000,0.000000,0.000000,0.000000,0.000000,1768316194.925103,0.000000
150.000000,7190.824412,10810.018874,-18040.137653,-12750.485569,-8387.425052,-10573.827991,-2284.862373,-274.904105,6639.004545,8423.053732,1334.555606,-61.668463,8342.229824,12005.501927,-2261.750670,-1126.527921,0.002000,-0.018000,1.012000,192.000000,0.000000,0.000000,0.000000,0.000000,0.000000,0.000000,0.000000,0.000000,0.000000,1768316194.925120,0.000000
152.000000,7254.795105,10823.452273,-17921.382835,-12668.700536,-8325.533071,-10493.808746,-2209.693457,-188.313447,6767.281207,8394.599962,1245.930939,-157.155115,8303.829527,11937.127940,-2338.953595,-1137.592034,0.004000,-0.016000,1.008000,192.000000,0.000000,16.000000,127.500000,64.000000,15.500000,64.000000,0.000000,0.000000,0.000000,1768316194.925136,0.000000
154.000000,7244.647413,10793.076252,-17921.628704,-12652.361411,-8322.873214,-10486.835001,-2205.804253,-183.105491,6635.942356,8454.681451,1384.578810,-3.620983,8374.751613,12049.981898,-2224.467960,-1137.681441,0.004000,-0.016000,1.008000,192.000000,0.000000,0.000000,0.000000,0.000000,0.000000,0.000000,0.000000,0.000000,0.000000,1768316194.925153,0.000000
156.000000,7183.425985,10820.457139,-18045.859700,-12762.376697,-8396.656322,-10585.205029,-2288.304542,-280.536745,6730.601994,8386.575685,1246.601492,-160.798450,8299.135661,11937.686734,-2348.296624,-1131.177083,0.004000,-0.016000,1.008000,192.000000,0.000000,0.000000,0.000000,0.000000,0.000000,0.000000,0.000000,0.000000,0.000000,1768316194.925170,0.000000
158.000000,7300.638533,10812.097587,-17846.571546,-12602.964056,-8275.934550,-10429.234556,-2159.804363,-126.644984,6707.602049,8438.230567,1330.778161,-54.582960,8348.309499,12004.496098,-2268.545600,-1142.934101,0.004000,-0.016000,1.008000,192.000000,0.000000,0.000000,0.000000,0.000000,0.000000,0.000000,0.000000,0.000000,0.000000,1768316194.925188,0.000000
160.000000,7201.374436,10828.861395,-18039.712970,-12750.038534,-8391.224848,-10570.542284,-2284.348283,-274.457070,6648.057002,8422.561994,1335.360269,-65.445908,8340.642850,12009.413482,-2267.204495,-1124.873891,0.004000,-0.016000,1.008000,192.000000,0.000000,0.000000,0.000000,0.000000,0.000000,0.000000,0.000000,0.000000,0.000000,1768316194.925205,0.000000
162.000000,7273.682329,10846.787494,-17919.393530,-12664.990147,-8319.676914,-10483.504591,-2209.715809,-180.199764,6781.608675,8401.238430,1247.674375,-151.321310,8322.627344,11940.771275,-2344.966214,-1134.149865,0.004000,-0.012000,1.012000,192.000000,0.000000,16.000000,127.500000,80.000000,15.500000,80.000000,0.000000,0.000000,0.000000,1768316194.925220,0.000000
164.000000,7254.817457,10813.550450,-17916.085472,-12649.209815,-8310.177423,-10464.863237,-2206.497157,-175.640008,6639.988022,8464.918550,1394.570040,9.588898,8391.694235,12059.593148,-2214.029695,-1139.044897,0.004000,-0.012000,1.012000,192.000000,0.000000,0.000000,0.000000,0.000000,0.000000,0.000000,0.000000,0.000000,0.000000,1768316194.925237,0.000000
166.000000,7187.963389,10831.945936,-18043.378656,-12760.610910,-8388.766156,-10575.616130,-2289.377426,-279.575620,6725.304630,8397.371578,1253.284663,-153.310615,8307.316399,11949.086124,-2336.249034,-1124.762133,0.004000,-0.012000,1.012000,192.000000,0.000000,0.000000,0.000000,0.000000,0.000000,0.000000,0.000000,0.000000,0.000000,1768316194.925253,0.000000
168.000000,7302.069044,10816.478529,-17847.242099,-12600.147736,-8275.129887,-10422.663143,-2163.090070,-128.299013,6710.485424,8444.690221,1331.672231,-54.694719,8358.144266,12014.889659,-2259.046109,-1137.100296,0.004000,-0.012000,1.012000,192.000000,0.000000,0.000000,0.000000,0.000000,0.000000,0.000000,0.000000,0.000000,0.000000,1768316194.925271,0.000000
170.000000,7196.658218,10830.224851,-18046.619659,-12748.228043,-8398.869145,-10571.726927,-2287.231658,-279.396806,6637.059943,8432.821445,1330.979327,-63.523658,8342.229824,12017.504813,-2267.070385,-1122.638717,0.004000,-0.012000,1.012000,192.000000,0.000000,0.000000,0.000000,0.000000,0.000000,0.000000,0.000000,0.000000,0.000000,1768316194.925287,0.000000
172.000000,7268.474372,10850.967270,-17928.557745,-12664.476057,-8330.785731,-10492.445289,-2212.956812,-189.162813,6770.477506,8404.099453,1238.621919,-156.819839,8308.791615,11944.235795,-2347.827238,-1134.798066,0.003000,-0.013000,1.011000,192.000000,0.000000,8.000000,127.500000,72.000000,15.500000,72.000000,0.000000,0.000000,0.000000,1768316194.925305,0.000000
174.000000,7268.653186,10808.945991,-17922.992161,-12648.963946,-8320.973315,-10479.593036,-2207.190061,-180.870316,6627.269879,8466.974910,1378.320322,-2.369285,8371.778831,12060.151942,-2222.389248,-1135.468618,0.003000,-0.013000,1.011000,192.000000,0.000000,0.000000,0.000000,0.000000,0.000000,0.000000,0.000000,0.000000,0.000000,1768316194.925323,0.000000
176.000000,7204.146052,10835.835139,-18041.992848,-12759.426267,-8396.633970,-10590.703558,-2285.823498,-274.434718,6730.065552,8405.060578,1249.663681,-157.244522,8310.155071,11944.347554,-2343.088668,-1129.254833,0.003000,-0.013000,1.011000,192.000000,0.000000,0.000000,0.000000,0.000000,0.000000,0.000000,0.000000,0.000000,0.000000,1768316194.925338,0.000000
178.000000,7303.298390,10818.646648,-17842.749398,-12601.265323,-8277.230951,-10435.984783,-2158.887942,-120.945289,6713.480558,8440.845721,1333.482722,-53.152448,8364.425107,12005.256057,-2268.925580,-1145.683366,0.003000,-0.013000,1.011000,192.000000,0.000000,0.000000,0.000000,0.000000,0.000000,0.000000,0.000000,0.000000,0.000000,1768316194.925355,0.000000
180.000000,7190.243267,10827.162662,-18041.054075,-12752.072543,-8394.041168,-10577.001938,-2281.800184,-273.898277,6639.406876,8429.334572,1337.461333,-60.774393,8352.042240,12009.055854,-2266.802164,-1129.701868,0.003000,-0.013000,1.011000,192.000000,0.000000,0.000000,0.000000,0.000000,0.000000,0.000000,0.000000,0.000000,0.000000,1768316194.925371,0.000000
182.000000,7252.179951,10826.603869,-17928.960076,-12674.489638,-8332.260946,-10500.849545,-2212.554480,-191.062712,6759.949834,8394.197630,1241.281777,-157.400984,8327.120045,11931.629411,-2346.530836,-1139.447229,0.004500,-0.014500,1.010500,192.000000,0.000000,24.000000,127.500000,64.000000,15.500000,72.000000,0.000000,0.000000,0.000000,1768316194.925388,0.000000
184.000000,7259.332509,10808.789528,-17919.840565,-12656.541187,-8318.313458,-10486.276208,-2207.100654,-181.585572,6619.424417,8452.222759,1378.007397,-5.610288,8368.001386,12045.019811,-2220.399942,-1144.610482,0.004500,-0.014500,1.010500,192.000000,0.000000,0.000000,0.000000,0.000000,0.000000,0.000000,0.000000,0.000000,0.000000,1768316194.925405,0.000000
186.000000,7192.210220,10834.225814,-18043.021028,-12768.210503,-8403.607715,-10594.212782,-2288.483356,-279.799137,6718.330886,8388.877915,1250.423640,-156.864543,8306.556440,11938.133769,-2338.931243,-1132.115857,0.004500,-0.014500,1.010500,192.000000,0.000000,0.000000,0.000000,0.000000,0.000000,0.000000,0.000000,0.000000,0.000000,1768316194.925422,0.000000
188.000000,7305.332399,10826.648572,-17845.029276,-12606.495632,-8287.199829,-10440.186911,-2161.078413,-126.309708,6708.004380,8436.263613,1330.241720,-54.448849,8355.462057,12004.138470,-2266.980978,-1149.729031,0.004500,-0.014500,1.010500,192.000000,0.000000,0.000000,0.000000,0.000000,0.000000,0.000000,0.000000,0.000000,0.000000,1768316194.925440,0.000000
190.000000,7215.344276,10830.783645,-18037.366037,-12752.608985,-8393.415319,-10582.299302,-2280.079100,-271.372529,6634.802417,8427.501729,1335.896711,-59.500344,8349.203569,12009.368778,-2268.411490,-1136.474447,0.004500,-0.014500,1.010500,192.000000,0.000000,0.000000,0.000000,0.000000,0.000000,0.000000,0.000000,0.000000,0.000000,1768316194.925457,0.000000
192.000000,7268.541428,10847.033363,-17921.069911,-12671.628615,-8333.736161,-10509.834946,-2207.055951,-183.597229,6770.969244,8404.881764,1251.384765,-149.801391,8318.827548,11936.144464,-2345.055621,-1144.364613,0.005250,-0.015250,1.010250,192.000000,0.000000,24.000000,127.500000,64.000000,15.500000,72.000000,0.000000,0.000000,0.000000,1768316194.925474,0.000000
194.000000,7270.731899,10818.289020,-17915.549030,-12651.288527,-8328.751722,-10490.970074,-2200.641000,-173.248371,6633.662478,8466.706689,1390.077339,1.542270,8377.500877,12046.271508,-2226.345506,-1150.734860,0.005250,-0.015250,1.010250,192.000000,0.000000,0.000000,0.000000,0.000000,0.000000,0.000000,0.000000,0.000000,0.000000,1768316195.403660,0.000000
196.000000,7199.161613,10848.128599,-18042.551642,-12761.616738,-8407.832194,-10590.390633,-2282.068405,-271.305474,6725.729314,8409.955610,1260.817201,-144.146400,8315.944173,11947.677964,-2351.157648,-1134.976880,0.005250,-0.015250,1.010250,192.000000,0.000000,0.000000,0.000000,0.000000,0.000000,0.000000,0.000000,0.000000,0.000000,1768316195.403734,0.000000
198.000000,7310.182728,10832.214157,-17846.035105,-12602.159393,-8285.568152,-10441.170387,-2158.485610,-121.481731,6713.234688,8454.569692,1336.209635,-43.541198,8358.680708,12011.805119,-2272.412452,-1151.025432,0.005250,-0.015250,1.010250,192.000000,0.000000,0.000000,0.000000,0.000000,0.000000,0.000000,0.000000,0.000000,0.000000,1768316195.403794,0.000000
200.000000,7198.513412,10837.757389,-18043.535119,-12748.786837,-8399.383235,-10579.281816,-2281.755481,-271.327826,6633.975403,8440.912776,1337.617795,-52.683062,8343.392115,12016.119005,-2269.037338,-1134.216921,0.005250,-0.015250,1.010250,192.000000,0.000000,0.000000,0.000000,0.000000,0.000000,0.000000,0.000000,0.000000,0.000000,1768316195.403853,0.000000
202.000000,7262.104125,10834.069351,-17927.328399,-12668.678185,-8332.730333,-10501.743615,-2210.989858,-186.435901,6764.710756,8412.816633,1243.919282,-148.192066,8314.960696,11944.548719,-2342.038136,-1134.283976,0.003625,-0.013625,1.008125,192.000000,0.000000,8.000000,127.500000,80.000000,15.500000,56.000000,0.000000,0.000000,0.000000,1768316195.403919,0.000000
204.000000,7260.360689,10823.541680,-17922.433367,-12652.964908,-8324.504891,-10478.117821,-2207.033599,-185.295962,6617.211594,8467.913683,1379.862592,1.743436,8380.719528,12053.491122,-2218.790617,-1139.335470,0.003625,-0.013625,1.008125,192.000000,0.000000,0.000000,0.000000,0.000000,0.000000,0.000000,0.000000,0.000000,0.000000,1768316195.403973,0.000000
206.000000,7204.347218,10833.801131,-18049.771255,-12763.360174,-8404.680598,-10583.841572,-2287.544583,-285.320018,6713.860537,8398.779738,1241.684108,-155.791659,8298.710978,11948.326164,-2340.674679,-1125.164464,0.003625,-0.013625,1.008125,192.000000,0.000000,0.000000,0.000000,0.000000,0.000000,0.000000,0.000000,0.000000,0.000000,1768316195.403996,0.000000
208.000000,7304.058350,10812.678732,-17851.332468,-12602.740538,-8282.148335,-10431.268565,-2161.391337,-130.891816,6700.762415,8447.841817,1318.641164,-56.974597,8343.705039,12012.028636,-2268.635007,-1140.810685,0.003625,-0.013625,1.008125,192.000000,0.000000,0.000000,0.000000,0.000000,0.000000,0.000000,0.000000,0.000000,0.000000,1768316195.404013,0.000000
210.000000,7174.060604,10822.066465,-18046.038514,-12751.938433,-8400.031435,-10572.039851,-2283.074234,-281.699035,6619.044437,8432.240299,1324.720839,-60.349710,8332.976202,12015.716674,-2267.003330,-1123.622194,0.003625,-0.013625,1.008125,192.000000,0.000000,0.000000,0.000000,0.000000,0.000000,0.000000,0.000000,0.000000,0.000000,1768316195.404030,0.000000
212.000000,7245.809704,10820.725360,-17931.955210,-12677.663586,-8337.021868,-10506.728054,-2214.834358,-197.768235,6751.746744,8398.869145,1233.168093,-158.004482,8303.829527,11938.513748,-2346.284967,-1133.501665,0.002812,-0.015813,1.011062,192.000000,0.000000,8.000000,127.500000,56.000000,15.500000,88.000000,0.000000,0.000000,0.000000,1768316195.404047,0.000000
214.000000,7257.790239,10811.069406,-17922.165146,-12659.223397,-8322.515586,-10484.510420,-2207.391227,-185.497127,6610.483719,8456.626052,1373.380586,-6.370247,8367.487296,12047.210282,-2221.070495,-1141.570645,0.002812,-0.015813,1.011062,192.000000,0.000000,0.000000,0.000000,0.000000,0.000000,0.000000,0.000000,0.000000,0.000000,1768316195.404064,0.000000
216.000000,7186.309360,10842.898291,-18051.872319,-12771.093878,-8401.953686,-10584.489773,-2290.115033,-286.862288,6716.363933,8396.902191,1242.533474,-160.910208,8308.724559,11936.010353,-2340.674679,-1125.678554,0.002812,-0.015813,1.011062,192.000000,0.000000,0.000000,0.000000,0.000000,0.000000,0.000000,0.000000,0.000000,0.000000,1768316195.404082,0.000000
218.000000,7296.436405,10816.277363,-17853.031201,-12609.982504,-8284.383510,-10436.789445,-2165.034671,-131.450609,6695.107424,8441.002183,1317.881205,-62.830754,8352.668089,12006.731273,-2266.176315,-1143.224674,0.002812,-0.015813,1.011062,192.000000,0.000000,0.000000,0.000000,0.000000,0.000000,0.000000,0.000000,0.000000,0.000000,1768316195.404099,0.000000
220.000000,7186.890505,10822.312334,-18047.334915,-12753.860683,-8394.242334,-10572.799811,-2283.275400,-277.809832,6616.473987,8428.954593,1328.565339,-59.679158,8341.872196,12013.012113,-2266.086908,-1130.797104,0.002812,-0.015813,1.011062,192.000000,0.000000,0.000000,0.000000,0.000000,0.000000,0.000000,0.000000,0.000000,0.000000,1768316195.404116,0.000000
222.000000,7252.492875,10828.839043,-17935.330324,-12673.193237,-8331.948022,-10499.307275,-2213.470902,-192.672037,6751.836151,8403.339494,1236.073820,-156.149287,8321.934440,11940.279536,-2344.250958,-1133.456961,0.003406,-0.014906,1.011531,192.000000,0.000000,16.000000,127.500000,72.000000,15.500000,80.000000,0.000000,0.000000,0.000000,1768316195.404132,0.000000
224.000000,7273.816439,10814.019837,-17925.562611,-12649.723905,-8321.777978,-10477.804897,-2203.949059,-179.640970,6616.116359,8464.002128,1374.788746,-0.603497,8365.676804,12053.535825,-2222.925690,-1136.742668,0.003406,-0.014906,1.011531,192.000000,0.000000,0.000000,0.000000,0.000000,0.000000,0.000000,0.000000,0.000000,0.000000,1768316195.404150,0.000000
226.000000,7191.673778,10839.187901,-18056.409723,-12764.634224,-8397.952723,-10585.272084,-2288.729225,-280.424986,6713.346447,8400.836098,1242.756992,-151.768345,8303.293085,11948.504978,-2343.289833,-1125.119761,0.003406,-0.014906,1.011531,192.000000,0.000000,0.000000,0.000000,0.000000,0.000000,0.000000,0.000000,0.000000,0.000000,1768316195.404167,0.000000
228.000000,7297.330475,10818.758406,-17856.987459,-12602.874649,-8285.791670,-10438.264661,-2162.866552,-125.616804,6696.448528,8449.406439,1323.491493,-49.933797,8344.464999,12007.714749,-2273.418280,-1143.112915,0.003406,-0.014906,1.011531,192.000000,0.000000,0.000000,0.000000,0.000000,0.000000,0.000000,0.000000,0.000000,0.000000,1768316195.404184,0.000000
230.000000,7195.831203,10836.259822,-18044.272726,-12749.278575,-8390.978979,-10575.303206,-2281.911943,-274.188849,6625.079408,8438.208215,1330.778161,-55.521733,8353.830380,12013.950886,-2268.165620,-1131.445304,0.003406,-0.014906,1.011531,192.000000,0.000000,0.000000,0.000000,0.000000,0.000000,0.000000,0.000000,0.000000,0.000000,1768316195.404201,0.000000
232.000000,7257.723183,10846.742791,-17930.122367,-12671.941539,-8340.240519,-10498.524964,-2212.509777,-191.442691,6759.391041,8410.022665,1241.751163,-156.104583,8308.925725,11940.815978,-2346.821409,-1135.490970,0.000703,-0.014453,1.010766,192.000000,127.500000,120.000000,127.500000,72.000000,15.500000,72.000000,0.000000,0.000000,0.000000,1768316195.404218,0.000000
234.000000,7280.968998,10826.760331,-17918.387701,-12650.908548,-8321.777978,-10477.290806,-2203.971410,-178.478679,6622.866586,8466.997262,1383.997665,0.022352,8374.282226,12049.981898,-2223.551538,-1140.654223,0.000703,-0.014453,1.010766,192.000000,0.000000,0.000000,0.000000,0.000000,0.000000,0.000000,0.000000,0.000000,0.000000,1768316195.404238,0.000000
236.000000,7198.826337,10857.337517,-18048.988944,-12768.299910,-8400.120842,-10592.938732,-2288.617467,-282.123719,6719.090845,8404.881764,1249.574274,-153.020043,8307.919897,11946.292156,-2341.680508,-1129.903034,0.000703,-0.014453,1.010766,192.000000,0.000000,0.000000,0.000000,0.000000,0.000000,0.000000,0.000000,0.000000,0.000000,1768316195.404255,0.000000
238.000000,7315.681257,10826.022723,-17845.677477,-12604.416919,-8281.500135,-10440.119855,-2159.603198,-123.024001,6707.155014,8452.736849,1328.364173,-59.500344,8351.975185,12006.105424,-2270.020815,-1150.265473,0.000703,-0.014453,1.010766,192.000000,0.000000,0.000000,0.000000,0.000000,0.000000,0.000000,0.000000,0.000000,0.000000,1768316195.404272,0.000000
240.000000,7207.431758,10825.620392,-18042.864566,-12749.077409,-8398.958552,-10569.447049,-2280.727301,-269.897314,6627.694562,8438.610546,1338.400106,-50.917274,8346.856635,12015.426101,-2268.478545,-1126.840845,0.000703,-0.014453,1.010766,192.000000,0.000000,0.000000,0.000000,0.000000,0.000000,0.000000,0.000000,0.000000,0.000000,1768316195.404289,0.000000
242.000000,7257.745535,10840.506654,-17928.423635,-12669.460496,-8334.674935,-10494.121670,-2210.900451,-185.407720,6760.530980,8405.932296,1245.550960,-146.605092,8309.506870,11939.877205,-2346.754354,-1130.037144,0.000703,-0.014453,1.010766,192.000000,0.000000,0.000000,0.000000,0.000000,0.000000,0.000000,0.000000,0.000000,0.000000,1768316195.404306,0.000000
244.000000,7274.509343,10825.665096,-17916.353693,-12648.516911,-8317.508795,-10474.630949,-2201.847995,-173.784813,6618.239774,8465.209122,1387.149261,6.482006,8372.471735,12055.636889,-2224.914995,-1137.972014,-0.002000,-0.012000,1.014000,192.000000,127.500000,120.000000,127.500000,80.000000,15.500000,88.000000,0.000000,0.000000,0.000000,1768316195.404324,0.000000
246.000000,7208.683456,10853.381259,-18049.815959,-12765.327128,-8397.639799,-10583.908627,-2286.426996,-278.614495,6713.055874,8407.966305,1256.235094,-144.571083,8312.636115,11946.672135,-2338.752429,-1130.014793,-0.002000,-0.012000,1.014000,192.000000,0.000000,0.000000,0.000000,0.000000,0.000000,0.000000,0.000000,0.000000,0.000000,1768316195.404341,0.000000
248.000000,7307.902850,10838.383238,-17851.108951,-12605.065120,-8284.495268,-10431.805006,-2162.486573,-129.215435,6706.372703,8447.975927,1326.598385,-56.505210,8355.797333,12009.078206,-2270.512554,-1136.854426,-0.002000,-0.012000,1.014000,192.000000,0.000000,0.000000,0.000000,0.000000,0.000000,0.000000,0.000000,0.000000,0.000000,1768316195.404358,0.000000
250.000000,7203.833127,10822.401741,-18044.339781,-12756.945223,-8393.974113,-10573.649177,-2286.382292,-283.129547,6623.403027,8433.469645,1328.766504,-64.663597,8350.477618,12013.369741,-2260.186048,-1120.850577,-0.002000,-0.012000,1.014000,192.000000,0.000000,0.000000,0.000000,0.000000,0.000000,0.000000,0.000000,0.000000,0.000000,1768316195.404375,0.000000
252.000000,7253.722221,10823.474625,-17930.770568,-12679.585836,-8334.339659,-10500.469565,-2216.913070,-199.690485,6757.133515,8402.601886,1235.872654,-161.491354,8309.775091,11933.372847,-2336.316089,-1129.232482,-0.002000,-0.012000,1.014000,192.000000,0.000000,0.000000,0.000000,0.000000,0.000000,0.000000,0.000000,0.000000,0.000000,1768316195.404393,0.000000
254.000000,7272.162410,10815.852680,-17918.678274,-12654.931862,-8323.342600,-10479.660091,-2206.519509,-186.301790,6610.908402,8452.602738,1377.806232,-4.962087,8374.662206,12043.432837,-2216.309573,-1137.323813,0.002000,-0.016000,1.012000,192.000000,0.000000,8.000000,127.500000,64.000000,15.500000,80.000000,0.000000,0.000000,0.000000,1768316195.404410,0.000000
0.000000,7213.086750,10844.842892,-18050.978249,-12769.551607,-8401.908982,-10586.993168,-2290.047978,-289.589201,6712.027694,8396.477508,1246.936768,-156.931598,8325.086036,11944.034629,-2338.014822,-1126.304403,0.002000,-0.016000,1.012000,192.000000,0.000000,0.000000,0.000000,0.000000,0.000000,0.000000,0.000000,0.000000,0.000000,1768316195.404427,0.000000
2.000000,7299.498594,10817.171433,-17848.158520,-12608.127309,-8281.723652,-10437.683515,-2162.888904,-134.669260,6699.331903,8440.912776,1319.714048,-68.999835,8353.226883,11999.981046,-2268.120917,-1144.543427,0.002000,-0.016000,1.012000,192.000000,0.000000,0.000000,0.000000,0.000000,0.000000,0.000000,0.000000,0.000000,0.000000,1768316195.404444,0.000000
4.000000,7210.471596,10833.532910,-18040.472930,-12751.960784,-8392.878877,-10574.029156,-2281.040225,-278.189811,6631.583766,8434.944860,1335.695545,-60.930855,8353.070420,12012.654485,-2260.007234,-1127.042011,0.002000,-0.016000,1.012000,192.000000,0.000000,0.000000,0.000000,0.000000,0.000000,0.000000,0.000000,0.000000,0.000000,1768316195.404461,0.000000
6.000000,7257.767887,10833.756427,-17930.591754,-12676.277778,-8332.193891,-10507.085682,-2213.515605,-194.214308,6763.771983,8410.112072,1240.655928,-156.573970,8334.294955,11937.597327,-2343.938034,-1132.249967,0.002000,-0.016000,1.012000,192.000000,0.000000,0.000000,0.000000,0.000000,0.000000,0.000000,0.000000,0.000000,0.000000,1768316195.404478,0.000000
8.000000,7268.854352,10830.046037,-17918.745329,-12649.612147,-8315.385379,-10484.532772,-2203.837300,-179.886839,6616.071655,8469.724175,1383.260057,-2.972782,8376.562104,12047.880834,-2220.869329,-1142.084735,-0.002000,-0.016000,1.012000,192.000000,127.500000,120.000000,127.500000,64.000000,15.500000,80.000000,0.000000,0.000000,0.000000,1768316195.404495,0.000000
10.000000,7197.909915,10834.136407,-18053.079313,-12765.438886,-8407.385159,-10586.523782,-2287.924562,-282.995437,6718.956735,8409.218002,1251.161248,-150.248426,8312.658466,11948.415571,-2340.808790,-1128.830150,-0.002000,-0.016000,1.012000,192.000000,0.000000,0.000000,0.000000,0.000000,0.000000,0.000000,0.000000,0.000000,0.000000,1768316195.404515,0.000000
12.000000,7305.578268,10807.403720,-17854.461712,-12610.384835,-8291.759585,-10444.836073,-2163.961788,-132.411734,6700.516546,8447.081858,1323.536196,-56.058175,8350.544673,12001.992703,-2271.585437,-1145.862180,-0.002000,-0.016000,1.012000,192.000000,0.000000,0.000000,0.000000,0.000000,0.000000,0.000000,0.000000,0.000000,0.000000,1768316195.404531,0.000000
14.000000,7227.034238,10829.241375,-18041.165834,-12752.027840,-8399.405587,-10579.527686,-2279.989693,-273.227724,6619.647934,8434.542529,1338.243644,-57.555742,8343.325060,12005.613685,-2265.863391,-1130.662993,-0.002000,-0.016000,1.012000,192.000000,0.000000,0.000000,0.000000,0.000000,0.000000,0.000000,0.000000,0.000000,0.000000,1768316195.404588,0.000000
16.000000,7252.917558,10846.943956,-17931.508175,-12678.356490,-8335.256080,-10510.103167,-2213.537957,-191.219174,6757.669956,8403.853584,1245.662718,-154.092926,8309.305705,11933.551661,-2345.502656,-1135.826246,-0.002000,-0.016000,1.012000,192.000000,0.000000,0.000000,0.000000,0.000000,0.000000,0.000000,0.000000,0.000000,0.000000,1768316195.404609,0.000000
18.000000,7270.530733,10825.665096,-17918.767681,-12650.729734,-8328.103522,-10484.711586,-2202.295029,-175.662360,6616.697504,8464.873846,1385.092900,0.648201,8371.711775,12045.802122,-2220.265832,-1141.525941,0.004000,-0.016000,1.010000,192.000000,0.000000,16.000000,127.500000,64.000000,15.500000,72.000000,0.000000,0.000000,0.000000,1768316195.404627,0.000000
20.000000,7194.937133,10848.530930,-18052.632279,-12768.121096,-8410.156776,-10593.497526,-2288.013969,-283.978913,6715.268697,8409.642686,1255.810410,-150.382537,8307.137586,11946.381563,-2344.161551,-1127.556101,0.004000,-0.016000,1.010000,192.000000,0.000000,0.000000,0.000000,0.000000,0.000000,0.000000,0.000000,0.000000,0.000000,1768316195.404644,0.000000
22.000000,7298.336303,10809.571840,-17856.138093,-12610.027207,-8288.116251,-10446.892434,-2165.414651,-134.646909,6696.381473,8450.479323,1320.652821,-62.964864,8348.153037,11996.538877,-2268.076213,-1143.269377,0.004000,-0.016000,1.010000,192.000000,0.000000,0.000000,0.000000,0.000000,0.000000,0.000000,0.000000,0.000000,0.000000,1768316195.404662,0.000000
24.000000,7202.916706,10817.171433,-18045.457369,-12750.060886,-8400.187898,-10575.303206,-2281.666074,-277.899239,6619.804397,8434.028439,1329.906443,-51.029033,8355.573816,12011.469842,-2264.902266,-1128.628985,0.004000,-0.016000,1.010000,192.000000,0.000000,0.000000,0.000000,0.000000,0.000000,0.000000,0.000000,0.000000,0.000000,1768316195.404679,0.000000
26.000000,7264.071079,10831.767122,-17937.587850,-12676.724813,-8340.642850,-10507.800938,-2215.214338,-197.879994,6749.153942,8402.244258,1234.531550,-152.528304,8303.963638,11932.322315,-2350.621206,-1131.445304,0.004000,-0.016000,1.010000,192.000000,0.000000,0.000000,0.000000,0.000000,0.000000,0.000000,0.000000,0.000000,0.000000,1768316195.404694,0.000000
28.000000,7255.599768,10803.849793,-17922.411015,-12651.333231,-8330.271641,-10486.432670,-2202.898527,-186.547659,6605.946315,8462.661023,1376.576886,-2.145767,8364.313348,12039.230709,-2216.689553,-1138.061421,0.004000,-0.014000,1.006000,192.000000,0.000000,16.000000,127.500000,72.000000,15.500000,56.000000,0.000000,0.000000,0.000000,1768316195.404710,0.000000
30.000000,7199.295723,10828.190843,-18055.470950,-12766.735288,-8405.820537,-10594.011616,-2286.494051,-288.024579,6693.363988,8396.857488,1246.109753,-154.696423,8313.641943,11939.430170,-2336.249034,-1122.526958,0.004000,-0.014000,1.006000,192.000000,0.000000,0.000000,0.000000,0.000000,0.000000,0.000000,0.000000,0.000000,0.000000,1768316195.404726,0.000000
32.000000,7286.959265,10823.988715,-17848.471445,-12606.115652,-8280.002568,-10443.874948,-2159.111459,-130.958871,6695.755624,8442.343288,1321.256318,-60.327358,8345.560234,11992.090880,-2262.421222,-1139.044897,0.004000,-0.014000,1.006000,192.000000,0.000000,0.000000,0.000000,0.000000,0.000000,0.000000,0.000000,0.000000,0.000000,1768316195.404742,0.000000
34.000000,7203.631962,10828.235546,-18036.248450,-12748.116284,-8386.396871,-10575.727889,-2276.771042,-272.557172,6620.743170,8445.338422,1339.651804,-54.761774,8345.761400,12007.424177,-2251.893550,-1127.399639,0.004000,-0.014000,1.006000,192.000000,0.000000,0.000000,0.000000,0.000000,0.000000,0.000000,0.000000,0.000000,0.000000,1768316195.404759,0.000000
36.000000,7267.289730,10830.224851,-17932.066969,-12675.093135,-8333.132664,-10504.492879,-2211.638059,-192.180299,6765.470715,8418.762197,1239.493637,-154.450554,8312.323190,11928.522519,-2338.394801,-1130.014793,0.004000,-0.014000,1.006000,192.000000,0.000000,0.000000,0.000000,0.000000,0.000000,0.000000,0.000000,0.000000,0.000000,1768316195.404777,0.000000
38.000000,7269.211980,10813.036360,-17915.034940,-12647.175806,-8320.883908,-10479.861257,-2199.054026,-176.690540,6612.204803,8455.508465,1383.483575,-0.916422,8368.113144,12049.043125,-2216.443684,-1136.385040,0.004000,-0.014000,1.006000,192.000000,0.000000,0.000000,127.500000,56.000000,15.500000,88.000000,0.000000,0.000000,0.000000,1768316195.404794,0.000000
40.000000,7198.625171,10853.425962,-18050.955898,-12764.231892,-8406.982828,-10588.200162,-2286.024664,-283.911858,6706.886793,8405.194688,1256.391556,-152.885932,8317.464091,11949.086124,-2335.667889,-1120.828226,0.004000,-0.014000,1.006000,192.000000,0.000000,0.000000,0.000000,0.000000,0.000000,0.000000,0.000000,0.000000,0.000000,1768316195.404810,0.000000
42.000000,7309.467472,10808.811880,-17849.074942,-12602.785242,-8285.970484,-10439.583414,-2158.530314,-128.366068,6696.783805,8443.013840,1324.787894,-60.975559,8353.182179,12002.126813,-2269.663187,-1140.721278,0.004000,-0.014000,1.006000,192.000000,0.000000,0.000000,0.000000,0.000000,0.000000,0.000000,0.000000,0.000000,0.000000,1768316195.404835,0.000000
44.000000,7198.736930,10830.135444,-18039.511805,-12744.852930,-8397.259819,-10575.191447,-2275.966379,-271.618399,6611.891879,8433.961384,1342.445772,-48.995024,8347.370726,12015.046121,-2259.984882,-1123.823359,0.004000,-0.014000,1.006000,192.000000,0.000000,0.000000,0.000000,0.000000,0.000000,0.000000,0.000000,0.000000,0.000000,1768316195.404852,0.000000
46.000000,7256.583244,10830.358962,-17937.230222,-12677.104792,-8339.659374,-10512.360693,-2213.336791,-197.567069,6752.864331,8407.273401,1241.304128,-161.536057,8318.738141,11935.786836,-2349.615377,-1130.417124,0.004000,-0.014000,1.006000,192.000000,0.000000,0.000000,0.000000,0.000000,0.000000,0.000000,0.000000,0.000000,0.000000,1768316195.404869,0.000000
48.000000,7268.206152,10813.773967,-17920.019379,-12647.242862,-8320.772150,-10484.152792,-2199.590468,-181.742034,6618.843272,8457.341308,1376.375720,-2.257526,8372.807011,12046.785599,-2220.869329,-1134.596900,0.004000,-0.014000,1.006000,192.000000,0.000000,0.000000,127.500000,72.000000,15.500000,64.000000,0.000000,0.000000,0.000000,1768316195.404884,0.000000
50.000000,7196.568811,10831.029514,-18052.654630,-12765.997680,-8403.540659,-10592.379939,-2287.991618,-292.249059,6705.456281,8406.446386,1247.204989,-157.088060,8308.076359,11945.375734,-2335.422019,-1124.113932,0.004000,-0.014000,1.006000,192.000000,0.000000,0.000000,0.000000,0.000000,0.000000,0.000000,0.000000,0.000000,0.000000,1768316195.404899,0.000000
52.000000,7287.339245,10796.250200,-17853.254718,-12604.729844,-8285.657559,-10439.918690,-2162.240703,-139.698403,6690.748834,8439.079933,1318.618812,-66.451736,8353.606862,11998.215258,-2270.467850,-1137.457924,0.004000,-0.014000,1.006000,192.000000,0.000000,0.000000,0.000000,0.000000,0.000000,0.000000,0.000000,0.000000,0.000000,1768316195.404916,0.000000
54.000000,7181.615493,10799.737072,-18040.718799,-12747.803360,-8390.084909,-10567.614206,-2279.274437,-283.174251,6605.834556,8438.878767,1333.303909,-65.043576,8338.832359,12009.905220,-2255.782754,-1115.732028,0.004000,-0.014000,1.006000,192.000000,0.000000,0.000000,0.000000,0.000000,0.000000,0.000000,0.000000,0.000000,0.000000,1768316195.404933,0.000000
56.000000,7215.970125,10792.539810,-17936.380856,-12680.859885,-8332.015077,-10499.262571,-2216.354277,-209.547604,6739.430933,8400.657284,1232.743410,-166.073461,8306.578792,11928.768388,-2341.546397,-1124.158636,0.004000,-0.014000,1.006000,192.000000,0.000000,0.000000,0.000000,0.000000,0.000000,0.000000,0.000000,0.000000,0.000000,1768316195.404950,0.000000
58.000000,7209.085787,10742.203682,-17917.605390,-12649.768609,-8307.226993,-10470.160600,-2202.093864,-196.762406,6583.438108,8446.232491,1369.960769,-11.935832,8370.862409,12053.267605,-2218.298878,-1130.819455,0.001000,-0.013000,1.006000,192.000000,127.500000,120.000000,127.500000,80.000000,15.500000,56.000000,0.000000,0.000000,0.000000,1768316195.884484,0.000000
60.000000,7115.744903,10754.027755,-18057.348497,-12768.948110,-8396.164584,-10584.512125,-2291.612600,-312.857367,6677.695415,8389.079081,1231.290547,-171.504935,8301.527298,11947.029763,-2332.426886,-1116.514339,0.001000,-0.013000,1.006000,192.000000,0.000000,0.000000,0.000000,0.000000,0.000000,0.000000,0.000000,0.000000,0.000000,1768316195.884596,0.000000
62.000000,7191.763185,10707.111443,-17856.495721,-12609.043730,-8278.929684,-10432.900242,-2165.347596,-162.050147,6645.128923,8418.203404,1298.010504,-87.104748,8346.566063,12001.813889,-2269.551429,-1136.452095,0.001000,-0.013000,1.006000,192.000000,0.000000,0.000000,0.000000,0.000000,0.000000,0.000000,0.000000,0.000000,0.000000,1768316195.884657,0.000000
64.000000,7078.641007,10694.214486,-18043.959802,-12749.032706,-8381.904171,-10560.841627,-2279.989693,-304.050780,6559.253521,8401.216078,1311.287440,-81.069777,8356.467886,12014.621438,-2258.040280,-1122.482255,0.001000,-0.013000,1.006000,192.000000,0.000000,0.000000,0.000000,0.000000,0.000000,0.000000,0.000000,0.000000,0.000000,1768316195.884711,0.000000
66.000000,7121.019914,10694.974446,-17941.387646,-12678.200028,-8328.975240,-10492.780565,-2216.577794,-229.127732,6690.882944,8372.896418,1212.984468,-182.054959,8303.449548,11932.858757,-2343.111020,-1120.761170,0.001000,-0.013000,1.006000,192.000000,0.000000,0.000000,0.000000,0.000000,0.000000,0.000000,0.000000,0.000000,0.000000,1768316195.884766,0.000000
68.000000,7139.437752,10690.481745,-17920.622876,-12649.388629,-8309.506870,-10464.192684,-2204.597259,-212.967421,6548.703497,8424.417189,1350.313586,-30.264262,8359.865351,12050.764209,-2217.851844,-1128.383115,0.001500,-0.013500,1.008000,192.000000,0.000000,8.000000,127.500000,72.000000,15.500000,72.000000,0.000000,0.000000,0.000000,1768316195.884794,0.000000
70.000000,7074.193010,10710.911239,-18060.924776,-12769.551607,-8392.074214,-10577.828953,-2292.998408,-321.686306,6639.362173,8372.628197,1217.208948,-186.972342,8299.828565,11941.799455,-2334.304432,-1115.240290,0.001500,-0.013500,1.008000,192.000000,0.000000,0.000000,0.000000,0.000000,0.000000,0.000000,0.000000,0.000000,0.000000,1768316195.884811,0.000000
72.000000,7181.682549,10689.006530,-17862.463637,-12605.623913,-8277.834449,-10429.703943,-2165.682872,-161.647816,6637.708144,8408.793319,1288.220440,-85.204850,8339.324098,12001.433909,-2268.813821,-1131.512360,0.001500,-0.013500,1.008000,192.000000,0.000000,0.000000,0.000000,0.000000,0.000000,0.000000,0.000000,0.000000,0.000000,1768316195.884826,0.000000
74.000000,7094.734263,10729.016153,-18049.435979,-12747.557491,-8389.056729,-10564.708479,-2281.822536,-298.328733,6558.091230,8397.125709,1306.884147,-75.235972,8329.243461,12009.771110,-2257.570893,-1119.151845,0.001500,-0.013500,1.008000,192.000000,0.000000,0.000000,0.000000,0.000000,0.000000,0.000000,0.000000,0.000000,0.000000,1768316195.884852,0.000000
76.000000,7160.493095,10736.258118,-17943.846338,-12680.502257,-8334.026734,-10499.396682,-2216.913070,-216.521349,6704.226935,8377.746746,1216.113712,-175.885877,8292.206620,11933.842234,-2343.043964,-1124.002173,0.001500,-0.013500,1.008000,192.000000,0.000000,0.000000,0.000000,0.000000,0.000000,0.000000,0.000000,0.000000,0.000000,1768316195.884869,0.000000
78.000000,7192.992531,10722.891775,-17918.655922,-12646.460551,-8319.095769,-10471.591112,-2198.450529,-190.861546,6575.190315,8444.399648,1364.976330,-12.114645,8361.809952,12047.858482,-2216.175463,-1131.780580,0.001500,-0.013500,1.008000,192.000000,0.000000,0.000000,127.500000,40.000000,15.500000,80.000000,0.000000,0.000000,0.000000,1768316195.884887,0.000000
80.000000,7121.064618,10763.191970,-18061.304755,-12768.881055,-8406.736959,-10586.009691,-2290.584420,-299.826300,6671.973368,8383.938179,1236.386745,-160.530229,8298.532164,11944.146388,-2335.198502,-1118.302479,0.001500,-0.013500,1.008000,192.000000,0.000000,0.000000,0.000000,0.000000,0.000000,0.000000,0.000000,0.000000,0.000000,1768316195.884904,0.000000
82.000000,7240.534692,10758.274586,-17858.015640,-12610.206021,-8287.736271,-10438.152902,-2163.850029,-145.040470,6669.939359,8429.379276,1306.370056,-76.152393,8337.535958,11996.293008,-2270.087870,-1136.161522,0.001500,-0.013500,1.008000,192.000000,0.000000,0.000000,0.000000,0.000000,0.000000,0.000000,0.000000,0.000000,0.000000,1768316195.884920,0.000000
84.000000,7151.574749,10767.327042,-18041.344648,-12750.306755,-8389.123784,-10566.138991,-2279.475603,-282.995437,6587.640236,8432.620279,1326.307812,-68.776318,8344.308537,12009.681703,-2258.219094,-1124.695078,0.001500,-0.013500,1.008000,192.000000,0.000000,0.000000,0.000000,0.000000,0.000000,0.000000,0.000000,0.000000,0.000000,1768316195.884938,0.000000
86.000000,7205.464805,10779.240522,-17937.990181,-12682.290397,-8337.535958,-10504.448176,-2217.538919,-204.831386,6731.272546,8399.316180,1232.899872,-169.783851,8296.967542,11933.596365,-2346.910816,-1128.070191,0.001500,-0.013500,1.008000,192.000000,0.000000,0.000000,0.000000,0.000000,0.000000,0.000000,0.000000,0.000000,0.000000,1768316195.884956,0.000000
88.000000,7231.571642,10763.571949,-17911.704530,-12648.181635,-8314.111330,-10473.893341,-2201.400960,-184.826575,6597.832632,8449.518198,1374.386415,-5.140901,8372.181162,12044.818645,-2218.500044,-1135.781543,0.001500,-0.013500,1.008000,192.000000,0.000000,0.000000,127.500000,56.000000,15.500000,80.000000,0.000000,0.000000,0.000000,1768316195.884973,0.000000
90.000000,7148.780781,10803.425110,-18048.117226,-12767.696413,-8393.303560,-10584.869753,-2288.617467,-292.696094,6691.329979,8400.277305,1248.791963,-150.807220,8308.769263,11952.684754,-2330.348173,-1120.001211,0.001500,-0.013500,1.008000,192.000000,0.000000,0.000000,0.000000,0.000000,0.000000,0.000000,0.000000,0.000000,0.000000,1768316195.884986,0.000000
92.000000,7269.435497,10782.079194,-17847.286802,-12605.020416,-8280.762527,-10429.346315,-2161.860724,-137.664394,6687.261961,8438.342325,1314.327277,-68.016358,8349.382383,12005.568982,-2267.405661,-1137.100296,0.001500,-0.013500,1.008000,192.000000,0.000000,0.000000,0.000000,0.000000,0.000000,0.000000,0.000000,0.000000,0.000000,1768316195.885002,0.000000
94.000000,7167.623301,10784.180258,-18032.940392,-12744.674116,-8385.771023,-10560.014613,-2279.363844,-279.463861,6610.215498,8438.834064,1336.969595,-55.365271,8349.740010,12024.590316,-2255.693347,-1119.800045,0.001500,-0.013500,1.008000,192.000000,0.000000,0.000000,0.000000,0.000000,0.000000,0.000000,0.000000,0.000000,0.000000,1768316195.885018,0.000000
96.000000,7223.457959,10792.673921,-17937.207870,-12676.568350,-8334.853749,-10500.536621,-2218.611803,-207.603003,6744.437724,8401.372540,1231.804637,-166.431089,8310.289182,11941.128903,-2340.853493,-1122.951641,0.001500,-0.013500,1.008000,192.000000,0.000000,0.000000,0.000000,0.000000,0.000000,0.000000,0.000000,0.000000,0.000000,1768316195.885034,0.000000
98.000000,7247.463733,10784.202610,-17910.005797,-12642.727809,-8316.570022,-10474.921522,-2199.434006,-181.384406,6605.700446,8460.850532,1376.733348,-4.559756,8370.571836,12057.626195,-2215.639021,-1131.579415,0.001500,-0.013500,1.008000,192.000000,0.000000,0.000000,127.500000,56.000000,15.500000,72.000000,0.000000,0.000000,0.000000,1768316195.885050,0.000000
100.000000,7169.992586,10806.599058,-18051.537043,-12765.662404,-8402.490127,-10592.335235,-2288.483356,-290.013884,6700.784767,8404.345322,1251.921207,-152.103621,8303.069568,11954.562301,-2331.354002,-1123.622194,0.001500,-0.013500,1.008000,192.000000,0.000000,0.000000,0.000000,0.000000,0.000000,0.000000,0.000000,0.000000,0.000000,1768316195.885066,0.000000
102.000000,7285.998140,10798.194802,-17845.766884,-12602.047634,-8286.395167,-10436.968259,-2158.239741,-129.349545,6697.968447,8449.451142,1322.128036,-64.060100,8346.566063,12004.809023,-2270.065519,-1139.648395,0.001500,-0.013500,1.008000,192.000000,0.000000,0.000000,0.000000,0.000000,0.000000,0.000000,0.000000,0.000000,0.000000,1768316195.885082,0.000000
104.000000,7192.098462,10809.594191,-18031.621639,-12740.807264,-8386.933313,-10563.546188,-2272.211286,-268.422099,6618.999734,8448.087686,1345.552664,-44.859951,8352.757496,12025.149110,-2256.430955,-1129.947737,0.001500,-0.013500,1.008000,192.000000,0.000000,0.000000,0.000000,0.000000,0.000000,0.000000,0.000000,0.000000,0.000000,1768316195.885098,0.000000
106.000000,7252.783448,10820.658305,-17929.809443,-12677.283606,-8342.475694,-10510.572554,-2211.660410,-196.427130,6755.099506,8411.363770,1243.025213,-157.132764,8322.739103,11940.592461,-2345.726174,-1130.819455,0.001500,-0.013500,1.008000,192.000000,0.000000,0.000000,0.000000,0.000000,0.000000,0.000000,0.000000,0.000000,0.000000,1768316195.885119,0.000000
108.000000,7253.364593,10786.773060,-17902.942646,-12644.471245,-8317.419388,-10479.503629,-2195.298933,-174.455365,6620.542004,8470.841762,1385.361121,2.637506,8370.773002,12050.339526,-2222.277489,-1136.429743,0.001500,-0.013500,1.008000,192.000000,0.000000,0.000000,127.500000,80.000000,15.500000,72.000000,0.000000,0.000000,0.000000,1768316195.885138,0.000000
110.000000,7172.741851,10815.562107,-18046.843177,-12765.327128,-8404.568840,-10590.390633,-2286.158775,-285.856460,6703.109348,8408.793319,1259.833724,-146.538037,8315.295972,11950.762504,-2335.287909,-1123.666897,0.001500,-0.013500,1.008000,192.000000,0.000000,0.000000,0.000000,0.000000,0.000000,0.000000,0.000000,0.000000,0.000000,1768316195.885154,0.000000
112.000000,7284.098242,10797.703063,-17845.766884,-12603.120518,-8287.088071,-10437.951736,-2158.709128,-130.243615,6700.360084,8443.215006,1324.832597,-62.026091,8351.148170,12001.500964,-2272.591266,-1138.128476,0.001500,-0.013500,1.008000,192.000000,0.000000,0.000000,0.000000,0.000000,0.000000,0.000000,0.000000,0.000000,0.000000,1768316195.885172,0.000000
114.000000,7186.421119,10799.781775,-18034.974400,-12743.869453,-8395.136403,-10572.576293,-2277.016911,-275.127623,6609.477891,8441.940956,1342.401068,-51.699585,8343.012135,12019.516470,-2260.834248,-1125.790313,0.001500,-0.013500,1.008000,192.000000,0.000000,0.000000,0.000000,0.000000,0.000000,0.000000,0.000000,0.000000,0.000000,1768316195.885190,0.000000
116.000000,7248.178988,10827.073255,-17935.039751,-12673.975548,-8339.257042,-10506.325722,-2213.917937,-199.422264,6751.590282,8409.173299,1239.627747,-159.636159,8308.232821,11936.300926,-2349.213046,-1129.679517,0.001500,-0.013500,1.008000,192.000000,0.000000,0.000000,0.000000,0.000000,0.000000,0.000000,0.000000,0.000000,0.000000,1768316195.885208,0.000000
118.000000,7285.685216,10806.196726,-17906.675387,-12635.999934,-8305.640019,-10466.763135,-2193.063759,-172.667226,6620.676115,8478.977797,1385.741101,5.833805,8388.497935,12058.699078,-2222.188082,-1139.603691,0.001500,-0.013500,1.008000,192.000000,0.000000,0.000000,0.000000,0.000000,0.000000,0.000000,0.000000,0.000000,0.000000,1768316195.885222,0.000000
120.000000,7174.440584,10813.572802,-18058.331973,-12763.896616,-8411.699046,-10594.458651,-2289.399778,-291.444396,6710.552479,8412.682523,1251.563579,-146.538037,8321.062722,11953.958804,-2342.462819,-1123.957470,0.001500,-0.013500,1.008000,192.000000,0.000000,0.000000,127.500000,64.000000,15.500000,96.000000,0.000000,0.000000,0.000000,1768316195.885234,0.000000
122.000000,7290.446137,10807.716645,-17847.555023,-12602.494669,-8287.736271,-10439.315193,-2158.373852,-129.036621,6700.002456,8451.060468,1317.277708,-64.574190,8346.878987,11995.734214,-2276.525173,-1131.020621,0.001500,-0.013500,1.008000,192.000000,0.000000,0.000000,0.000000,0.000000,0.000000,0.000000,0.000000,0.000000,0.000000,1768316195.885246,0.000000
124.000000,7194.333636,10815.696218,-18031.353418,-12742.774217,-8386.039243,-10572.419831,-2271.473679,-266.343387,6616.339876,8448.199445,1347.676080,-44.949358,8355.171484,12018.667104,-2258.084984,-1134.194569,0.001500,-0.013500,1.008000,192.000000,0.000000,0.000000,0.000000,0.000000,0.000000,0.000000,0.000000,0.000000,0.000000,1768316195.885257,0.000000
126.000000,7245.005041,10818.400779,-17938.817196,-12681.105755,-8340.933423,-10516.585173,-2215.102579,-196.225965,6747.835189,8407.899250,1242.131143,-153.534133,8305.707074,11931.361190,-2346.016746,-1134.954528,0.001500,-0.013500,1.008000,192.000000,0.000000,0.000000,0.000000,0.000000,0.000000,0.000000,0.000000,0.000000,0.000000,1768316195.885270,0.000000
128.000000,7269.681367,10801.614618,-17911.168088,-12642.012553,-8322.314420,-10482.744632,-2193.488442,-169.023892,6605.946315,8467.198428,1381.047235,5.297363,8362.324043,12044.416314,-2220.578756,-1128.874854,0.001500,-0.013500,1.008000,192.000000,0.000000,0.000000,0.000000,0.000000,0.000000,0.000000,0.000000,0.000000,0.000000,1768316195.885282,0.000000
130.000000,7189.438604,10827.207366,-18055.895633,-12767.249378,-8410.514404,-10597.342026,-2286.047016,-283.464823,6692.894601,8410.335590,1255.318672,-141.195970,8305.125929,11948.013240,-2335.623185,-1117.967202,-0.002000,-0.022000,1.014000,192.000000,127.500000,120.000000,127.500000,40.000000,15.500000,88.000000,0.000000,0.000000,0.000000,1768316195.885293,0.000000
132.000000,7291.653131,10802.419281,-17852.114779,-12605.959190,-8290.686702,-10440.723353,-2161.212523,-129.483656,6696.984970,8446.724230,1318.618812,-65.602370,8349.337679,11996.114194,-2278.268609,-1135.066287,-0.002000,-0.022000,1.014000,192.000000,0.000000,0.000000,0.000000,0.000000,0.000000,0.000000,0.000000,0.000000,0.000000,1768316195.885305,0.000000
134.000000,7204.883659,10808.588363,-18036.471967,-12744.584709,-8398.578572,-10574.632654,-2275.675806,-271.417233,6610.662533,8443.863206,1341.708164,-51.319605,8338.318269,12013.146223,-2260.521324,-1125.231519,-0.002000,-0.022000,1.014000,192.000000,0.000000,0.000000,0.000000,0.000000,0.000000,0.000000,0.000000,0.000000,0.000000,1768316195.885316,0.000000
136.000000,7252.403468,10827.743808,-17941.275888,-12682.893894,-8349.695307,-10517.993333,-2217.538919,-201.098645,6753.378421,8406.401683,1236.185579,-161.334891,8303.538955,11928.768388,-2351.090592,-1132.987575,-0.002000,-0.022000,1.014000,192.000000,0.000000,0.000000,0.000000,0.000000,0.000000,0.000000,0.000000,0.000000,0.000000,1768316195.885328,0.000000
138.000000,7260.405393,10796.808993,-17914.945533,-12644.247728,-8326.270679,-10484.711586,-2197.288239,-175.818822,6616.719856,8469.254788,1376.219258,-2.078712,8369.186028,12043.142264,-2225.093809,-1140.609520,-0.002000,-0.022000,1.014000,192.000000,0.000000,0.000000,0.000000,0.000000,0.000000,0.000000,0.000000,0.000000,0.000000,1768316195.885342,0.000000
140.000000,7183.023653,10811.605848,-18059.673078,-12771.809134,-8414.090683,-10601.901782,-2291.031455,-292.584335,6698.437834,8406.200517,1253.955216,-149.779040,8301.549649,11941.710048,-2341.144066,-1125.879720,0.002000,-0.018000,1.012000,192.000000,0.000000,8.000000,127.500000,56.000000,15.500000,80.000000,0.000000,0.000000,0.000000,1768316195.885354,0.000000
142.000000,7288.926219,10795.244371,-17855.154616,-12609.021379,-8290.418481,-10445.372515,-2163.224180,-135.965662,6699.063682,8433.335535,1314.953126,-73.559591,8345.917862,11988.134621,-2279.922638,-1140.207188,0.002000,-0.018000,1.012000,192.000000,0.000000,0.000000,0.000000,0.000000,0.000000,0.000000,0.000000,0.000000,0.000000,1768316195.885365,0.000000
144.000000,7200.458014,10800.295866,-18038.885956,-12749.636203,-8397.550392,-10575.571427,-2276.726338,-273.808870,6615.356399,8432.195596,1344.233912,-55.655844,8353.070420,12008.452357,-2260.186048,-1126.013830,0.002000,-0.018000,1.012000,192.000000,0.000000,0.000000,0.000000,0.000000,0.000000,0.000000,0.000000,0.000000,0.000000,1768316195.885377,0.000000
146.000000,7243.172198,10808.297790,-17944.606298,-12689.822935,-8348.376554,-10519.133272,-2219.125893,-203.959668,6753.914863,8395.829308,1235.805599,-166.185220,8302.130795,11918.844213,-2352.990491,-1133.546368,0.002000,-0.018000,1.012000,192.000000,0.000000,0.000000,0.000000,0.000000,0.000000,0.000000,0.000000,0.000000,0.000000,1768316195.885389,0.000000
148.000000,7265.143963,10792.204534,-17909.312893,-12650.439161,-8324.817815,-10486.611484,-2194.449567,-171.192011,6618.485644,8451.507503,1382.231877,-2.861023,8361.675842,12033.955697,-2225.831416,-1138.843732,0.002000,-0.018000,1.012000,192.000000,0.000000,0.000000,0.000000,0.000000,0.000000,0.000000,0.000000,0.000000,0.000000,1768316195.885401,0.000000
150.000000,7189.237438,10821.485319,-18057.013220,-12779.565189,-8410.581459,-10608.406139,-2289.176260,-287.644599,6705.344523,8392.409491,1261.197181,-148.393231,8304.209507,11932.679943,-2339.221816,-1127.869025,0.002000,-0.018000,1.012000,192.000000,0.000000,0.000000,127.500000,72.000000,15.500000,64.000000,0.000000,0.000000,0.000000,1768316195.885412,0.000000
152.000000,7309.154547,10799.357092,-17852.539462,-12616.509213,-8289.390300,-10456.101353,-2160.072584,-128.567234,6705.389226,8430.899195,1321.882167,-71.279713,8347.549540,11974.835333,-2273.351225,-1149.483162,0.002000,-0.018000,1.012000,192.000000,0.000000,0.000000,0.000000,0.000000,0.000000,0.000000,0.000000,0.000000,0.000000,1768316195.885424,0.000000
154.000000,7209.242250,10813.170470,-18036.427264,-12752.385468,-8393.571781,-10582.075784,-2273.932370,-267.684492,6620.385542,8431.882671,1347.541970,-50.805515,8357.049031,11996.874153,-2255.313367,-1132.048801,0.002000,-0.018000,1.012000,192.000000,0.000000,0.000000,0.000000,0.000000,0.000000,0.000000,0.000000,0.000000,0.000000,1768316195.885436,0.000000
156.000000,7265.345128,10829.487244,-17941.588812,-12690.314673,-8339.346449,-10521.547260,-2215.370800,-195.577764,6764.308425,8402.646590,1244.969814,-158.853848,8308.590449,11921.794644,-2347.223740,-1135.289804,0.002000,-0.018000,1.012000,192.000000,0.000000,0.000000,0.000000,0.000000,0.000000,0.000000,0.000000,0.000000,0.000000,1768316195.885448,0.000000
158.000000,7277.951512,10809.080101,-17905.758966,-12649.031001,-8317.374684,-10485.002158,-2192.102634,-166.118165,6632.611946,8465.186771,1385.785804,1.609326,8371.979996,12036.570851,-2222.657469,-1149.304348,0.002000,-0.018000,1.012000,192.000000,0.000000,0.000000,0.000000,0.000000,0.000000,0.000000,0.000000,0.000000,0.000000,1768316195.885459,0.000000
160.000000,7193.976008,10828.079084,-18058.130808,-12773.440811,-8413.375427,-10602.013541,-2287.656342,-286.974047,6707.065607,8406.155813,1261.599512,-145.085173,8306.914068,11937.127940,-2335.019688,-1127.913729,0.002000,-0.020000,1.006000,192.000000,0.000000,8.000000,127.500000,48.000000,15.500000,56.000000,0.000000,0.000000,0.000000,1768316195.885471,0.000000
162.000000,7305.690027,10806.219078,-17854.238195,-12608.909620,-8297.056949,-10451.832170,-2160.586674,-132.143513,6703.802252,8440.890424,1320.138731,-68.508097,8348.264795,11985.161839,-2278.894458,-1139.424877,0.002000,-0.020000,1.006000,192.000000,0.000000,0.000000,0.000000,0.000000,0.000000,0.000000,0.000000,0.000000,0.000000,1768316195.885482,0.000000
164.000000,7208.661104,10813.304581,-18036.047284,-12745.076447,-8397.840965,-10579.080651,-2273.373577,-266.566904,6615.378751,8436.598889,1347.497266,-51.409012,8350.164694,12005.390168,-2259.470792,-1128.584281,0.002000,-0.020000,1.006000,192.000000,0.000000,0.000000,0.000000,0.000000,0.000000,0.000000,0.000000,0.000000,0.000000,1768316195.885495,0.000000
166.000000,7261.992367,10823.564032,-17942.907565,-12686.269007,-8343.168598,-10522.441330,-2216.689553,-195.220136,6762.430878,8406.245220,1246.422678,-158.093889,8309.015132,11924.856833,-2352.521104,-1135.267453,0.002000,-0.020000,1.006000,192.000000,0.000000,0.000000,0.000000,0.000000,0.000000,0.000000,0.000000,0.000000,0.000000,1768316195.885513,0.000000
168.000000,7281.550143,10809.303619,-17907.234181,-12643.018382,-8320.369818,-10482.230542,-2191.297971,-163.793583,6631.069676,8466.259654,1389.362084,5.654991,8375.936255,12038.448398,-2224.535015,-1141.481238,0.002000,-0.020000,1.006000,192.000000,0.000000,0.000000,0.000000,0.000000,0.000000,0.000000,0.000000,0.000000,0.000000,1768316195.885527,0.000000
170.000000,7205.911840,10839.858453,-18055.225081,-12768.456372,-8409.821500,-10600.605381,-2285.622333,-278.167460,6713.122930,8407.295752,1265.734585,-141.017156,8327.701190,11939.720743,-2342.194598,-1129.813627,0.002000,-0.020000,1.008000,192.000000,0.000000,8.000000,127.500000,48.000000,15.500000,64.000000,0.000000,0.000000,0.000000,1768316195.885542,0.000000
172.000000,7320.106902,10807.314313,-17849.700791,-12605.422748,-8287.088071,-10444.210225,-2157.256264,-122.733429,6718.219127,8445.539587,1326.643089,-60.528524,8357.719583,11993.521392,-2286.494051,-1147.896188,0.002000,-0.020000,1.008000,192.000000,0.000000,0.000000,0.000000,0.000000,0.000000,0.000000,0.000000,0.000000,0.000000,1768316195.885554,0.000000
174.000000,7229.314116,10821.820595,-18031.375770,-12743.467122,-8391.046034,-10570.542284,-2271.183106,-261.716576,6629.527405,8446.187788,1355.074508,-45.955187,8354.612691,12017.325999,-2266.019853,-1135.423915,0.002000,-0.020000,1.008000,192.000000,0.000000,0.000000,0.000000,0.000000,0.000000,0.000000,0.000000,0.000000,0.000000,1768316195.885565,0.000000
176.000000,7268.407317,10827.207366,-17940.538280,-12688.213609,-8340.754609,-10513.411225,-2217.069533,-197.544717,6773.718509,8410.983790,1248.814314,-159.144421,8315.206565,11933.350495,-2355.985624,-1135.692136,0.002000,-0.020000,1.008000,192.000000,0.000000,0.000000,0.000000,0.000000,0.000000,0.000000,0.000000,0.000000,0.000000,1768316195.885577,0.000000
178.000000,7284.746442,10803.536869,-17907.010663,-12646.013516,-8315.094807,-10473.043975,-2195.522451,-172.108432,6636.568205,8467.623111,1389.205621,0.737608,8378.260836,12046.673840,-2228.714791,-1143.068211,0.002000,-0.020000,1.008000,192.000000,0.000000,0.000000,0.000000,0.000000,0.000000,0.000000,0.000000,0.000000,0.000000,1768316196.366330,0.000000
180.000000,7191.651427,10826.983848,-18057.259090,-12773.261997,-8403.451252,-10592.759918,-2290.249144,-292.673742,6706.059778,8405.306447,1261.823030,-151.991862,8312.770225,11948.169702,-2341.591101,-1119.911804,0.006000,-0.016000,1.014000,192.000000,0.000000,24.000000,127.500000,64.000000,15.500000,88.000000,0.000000,0.000000,0.000000,1768316196.366412,0.000000
182.000000,7300.616181,10806.129671,-17852.964145,-12612.374140,-8278.661463,-10442.735010,-2163.402994,-138.290243,6708.809043,8434.833102,1316.584804,-77.426443,8345.582586,11987.911104,-2278.603885,-1139.782505,0.006000,-0.016000,1.014000,192.000000,0.000000,0.000000,0.000000,0.000000,0.000000,0.000000,0.000000,0.000000,0.000000,1768316196.366466,0.000000
184.000000,7218.317058,10819.361904,-18032.336895,-12744.115322,-8386.352168,-10561.221607,-2273.865315,-271.461936,6629.505054,8442.544453,1349.285406,-51.520771,8364.402755,12015.269639,-2255.626292,-1134.127514,0.006000,-0.016000,1.014000,192.000000,0.000000,0.000000,0.000000,0.000000,0.000000,0.000000,0.000000,0.000000,0.000000,1768316196.366526,0.000000
186.000000,7261.522980,10812.052883,-17946.282678,-12687.297188,-8345.023792,-10516.652228,-2221.405771,-208.608831,6765.157791,8403.652418,1241.237073,-167.481621,8313.753702,11933.082275,-2352.878732,-1135.043935,0.006000,-0.016000,1.014000,192.000000,0.000000,0.000000,0.000000,0.000000,0.000000,0.000000,0.000000,0.000000,0.000000,1768316196.366580,0.000000
188.000000,7282.108937,10794.774985,-17912.486841,-12645.477074,-8325.644830,-10485.426841,-2197.131776,-177.428147,6627.180472,8455.799038,1378.879115,-8.560718,8361.966415,12039.096599,-2227.418390,-1131.333546,0.006000,-0.016000,1.014000,192.000000,0.000000,0.000000,0.000000,0.000000,0.000000,0.000000,0.000000,0.000000,0.000000,1768316196.366636,0.000000
190.000000,7198.200488,10827.609697,-18058.711953,-12773.686680,-8417.063465,-10606.349779,-2292.551374,-292.182004,6702.215278,8393.482374,1257.285626,-154.584665,8302.510774,11934.512786,-2342.082839,-1120.157673,0.004000,-0.014000,1.014000,192.000000,0.000000,8.000000,127.500000,80.000000,15.500000,88.000000,0.000000,0.000000,0.000000,1768316196.366663,0.000000
192.000000,7300.750291,10811.583497,-17852.204186,-12610.094262,-8295.045292,-10451.139265,-2162.218352,-133.149342,6707.736159,8436.621241,1320.272841,-73.716053,8344.934385,11982.256112,-2284.013007,-1139.871912,0.004000,-0.014000,1.014000,192.000000,0.000000,0.000000,0.000000,0.000000,0.000000,0.000000,0.000000,0.000000,0.000000,1768316196.366678,0.000000
194.000000,7202.447319,10809.594191,-18029.721740,-12744.271784,-8394.197630,-10575.616130,-2271.540734,-268.489154,6620.609059,8437.157683,1351.922912,-52.012509,8345.560234,12008.340598,-2261.124821,-1125.700906,0.004000,-0.014000,1.014000,192.000000,0.000000,0.000000,0.000000,0.000000,0.000000,0.000000,0.000000,0.000000,0.000000,1768316196.366695,0.000000
196.000000,7251.710564,10823.608735,-17946.126216,-12690.158211,-8348.220092,-10527.179900,-2220.846977,-205.367828,6760.262759,8393.840002,1241.527646,-162.206610,8306.087054,11920.297077,-2354.599816,-1133.568720,0.004000,-0.014000,1.014000,192.000000,0.000000,0.000000,0.000000,0.000000,0.000000,0.000000,0.000000,0.000000,0.000000,1768316196.366726,0.000000
198.000000,7278.309140,10803.603924,-17908.709396,-12644.761818,-8322.090903,-10486.320911,-2194.158994,-170.432051,6621.816054,8457.631881,1379.370854,-0.290573,8363.709851,12033.866290,-2227.038411,-1141.369479,0.004000,-0.014000,1.014000,192.000000,0.000000,0.000000,0.000000,0.000000,0.000000,0.000000,0.000000,0.000000,0.000000,1768316196.366743,0.000000
200.000000,7205.330694,10831.543604,-18059.270747,-12774.558398,-8408.569802,-10604.628695,-2291.590249,-286.728178,6703.243459,8404.546488,1260.839553,-144.414621,8299.090958,11942.559414,-2338.797133,-1124.918595,0.001000,-0.013000,1.014000,192.000000,127.500000,120.000000,127.500000,80.000000,15.500000,88.000000,0.000000,0.000000,0.000000,1768316196.366757,0.000000
202.000000,7315.725960,10814.645686,-17853.120608,-12612.240030,-8292.407786,-10442.712658,-2163.268884,-132.299975,6718.554404,8444.846683,1319.691696,-69.648036,8342.430990,11990.995644,-2280.459080,-1140.542464,0.001000,-0.013000,1.014000,192.000000,0.000000,0.000000,0.000000,0.000000,0.000000,0.000000,0.000000,0.000000,0.000000,1768316196.366784,0.000000
204.000000,7204.928363,10809.549488,-18033.007447,-12746.059924,-8394.309389,-10569.916435,-2273.708853,-273.294779,6622.464254,8438.297622,1345.642071,-48.726803,8354.076249,12011.894526,-2257.034452,-1128.606633,0.001000,-0.013000,1.014000,192.000000,0.000000,0.000000,0.000000,0.000000,0.000000,0.000000,0.000000,0.000000,0.000000,1768316196.366802,0.000000
206.000000,7264.808686,10816.545584,-17945.857995,-12692.885124,-8346.856635,-10522.530737,-2220.779922,-212.207462,6756.395907,8394.667017,1232.788114,-168.085118,8311.607934,11925.795606,-2352.074069,-1135.535674,0.001000,-0.013000,1.014000,192.000000,0.000000,0.000000,0.000000,0.000000,0.000000,0.000000,0.000000,0.000000,0.000000,1768316196.366814,0.000000
208.000000,7268.407317,10790.930485,-17908.463527,-12650.886196,-8323.700228,-10488.354920,-2194.807195,-181.250296,6623.537138,8450.255805,1371.950075,-13.478102,8367.263778,12033.285145,-2225.540844,-1144.096392,0.001000,-0.013000,1.014000,192.000000,0.000000,0.000000,0.000000,0.000000,0.000000,0.000000,0.000000,0.000000,0.000000,1768316196.366831,0.000000
210.000000,7186.063491,10828.682581,-18059.404857,-12779.028747,-8413.464834,-10610.104872,-2290.964400,-298.127568,6692.827546,8392.409491,1252.725870,-156.506915,8303.740120,11935.809187,-2338.126580,-1130.215958,0.001000,-0.013000,1.014000,192.000000,0.000000,0.000000,127.500000,80.000000,15.500000,80.000000,0.000000,0.000000,0.000000,1768316196.366846,0.000000
212.000000,7295.654094,10798.820650,-17850.572509,-12610.407187,-8290.485536,-10448.747629,-2159.647901,-139.340775,6706.551517,8435.637764,1310.907461,-81.136832,8354.322118,11983.843086,-2282.716606,-1144.163447,0.001000,-0.013000,1.014000,192.000000,0.000000,0.000000,0.000000,0.000000,0.000000,0.000000,0.000000,0.000000,0.000000,1768316196.366863,0.000000
214.000000,7216.685381,10803.983903,-18030.749921,-12741.120188,-8393.191802,-10571.168133,-2273.306522,-278.547439,6618.217423,8434.587232,1341.372888,-51.520771,8343.459170,12012.632133,-2262.778850,-1126.907900,0.001000,-0.013000,1.014000,192.000000,0.000000,0.000000,0.000000,0.000000,0.000000,0.000000,0.000000,0.000000,0.000000,1768316196.366876,0.000000
216.000000,7240.937023,10809.191860,-17946.997934,-12685.352586,-8344.710868,-10522.664848,-2223.104504,-215.537872,6759.614558,8397.863316,1228.474227,-169.940313,8301.594353,11925.616792,-2357.036156,-1126.170293,0.001000,-0.013000,1.014000,192.000000,0.000000,0.000000,0.000000,0.000000,0.000000,0.000000,0.000000,0.000000,0.000000,1768316196.366893,0.000000
218.000000,7267.580303,10799.848831,-17899.522829,-12641.453760,-8318.201699,-10481.783507,-2193.175518,-175.461194,6635.607080,8465.007957,1379.370854,-4.269183,8374.349281,12041.890567,-2231.665222,-1135.826246,0.001000,-0.013000,1.014000,192.000000,0.000000,0.000000,0.000000,0.000000,0.000000,0.000000,0.000000,0.000000,0.000000,1768316196.366909,0.000000
220.000000,7195.853555,10825.083950,-18058.354325,-12775.094840,-8417.488148,-10609.501375,-2292.149042,-296.853518,6692.872249,8396.790433,1255.162210,-154.852886,8304.097748,11935.898594,-2330.929319,-1123.532787,-0.001500,-0.011500,1.013000,192.000000,127.500000,112.000000,127.500000,88.000000,15.500000,80.000000,0.000000,0.000000,0.000000,1768316196.366924,0.000000
222.000000,7303.186632,10806.017912,-17855.467541,-12615.257515,-8298.934495,-10457.241292,-2163.402994,-139.832513,6705.813909,8433.402590,1309.789873,-77.918181,8338.921766,11977.338729,-2280.816708,-1138.754325,-0.001500,-0.011500,1.013000,192.000000,0.000000,0.000000,0.000000,0.000000,0.000000,0.000000,0.000000,0.000000,0.000000,1768316196.366938,0.000000
224.000000,7199.385130,10801.525212,-18030.347589,-12747.915119,-8402.154851,-10581.785212,-2271.540734,-276.446375,6609.768463,8430.899195,1340.836446,-57.734556,8339.189987,12000.696302,-2258.263798,-1128.383115,-0.001500,-0.011500,1.013000,192.000000,0.000000,0.000000,0.000000,0.000000,0.000000,0.000000,0.000000,0.000000,0.000000,1768316196.366954,0.000000
226.000000,7242.971032,10809.504784,-17948.383742,-12693.622731,-8357.116086,-10532.834891,-2224.065629,-221.662250,6744.594186,8392.878877,1230.731753,-177.003464,8317.687609,11908.964742,-2353.079898,-1132.920519,-0.001500,-0.011500,1.013000,192.000000,0.000000,0.000000,0.000000,0.000000,0.000000,0.000000,0.000000,0.000000,0.000000,1768316196.366971,0.000000
228.000000,7252.738744,10776.290092,-17906.764794,-12646.035867,-8321.979144,-10490.903019,-2198.025846,-188.447558,6610.483719,8450.300509,1366.987987,-19.624832,8360.647662,12030.580584,-2224.892643,-1140.833037,-0.001500,-0.011500,1.013000,192.000000,0.000000,0.000000,0.000000,0.000000,0.000000,0.000000,0.000000,0.000000,0.000000,1768316196.366984,0.000000
230.000000,7181.146107,10814.131595,-18059.427209,-12779.699299,-8419.633915,-10617.212727,-2296.194708,-304.810739,6696.426177,8393.549430,1245.148628,-163.547714,8297.638094,11927.784911,-2336.472551,-1128.293708,-0.002750,-0.010750,1.013500,192.000000,127.500000,112.000000,127.500000,88.000000,15.500000,88.000000,0.000000,0.000000,0.000000,1768316196.367001,0.000000
232.000000,7294.804727,10796.004331,-17853.433532,-12619.258478,-8298.107481,-10461.979861,-2164.766450,-142.402964,6692.134642,8428.373447,1304.201937,-90.032827,8335.211377,11969.001528,-2282.336626,-1146.309214,-0.002750,-0.010750,1.013500,192.000000,0.000000,0.000000,0.000000,0.000000,0.000000,0.000000,0.000000,0.000000,0.000000,1768316196.367016,0.000000
234.000000,7207.923497,10810.600020,-18026.994828,-12749.747962,-8394.801127,-10583.528648,-2271.876010,-270.187887,6603.577030,8430.653325,1342.266958,-58.382757,8344.241481,11999.109328,-2256.855638,-1133.680479,-0.002750,-0.010750,1.013500,192.000000,0.000000,0.000000,0.000000,0.000000,0.000000,0.000000,0.000000,0.000000,0.000000,1768316196.367034,0.000000
236.000000,7257.119686,10831.141273,-17945.299202,-12693.958008,-8348.734182,-10527.783397,-2220.645812,-208.653534,6758.005233,8398.287999,1235.850303,-169.627389,8311.183251,11916.340818,-2351.738793,-1137.212054,-0.002750,-0.010750,1.013500,192.000000,0.000000,0.000000,0.000000,0.000000,0.000000,0.000000,0.000000,0.000000,0.000000,1768316196.367049,0.000000
238.000000,7281.505439,10797.770118,-17905.200172,-12645.275908,-8324.259022,-10490.567743,-2193.667256,-182.859621,6618.709161,8455.441410,1372.307703,-13.835730,8374.662206,12028.904203,-2229.988841,-1143.783467,-0.002750,-0.010750,1.013500,192.000000,0.000000,0.000000,0.000000,0.000000,0.000000,0.000000,0.000000,0.000000,0.000000,1768316196.367066,0.000000
240.000000,7183.135412,10816.255011,-18060.924776,-12772.636148,-8421.243241,-10607.981456,-2291.970228,-304.587222,6687.574886,8394.778776,1247.830838,-162.139554,8294.330036,11933.842234,-2342.753392,-1125.455037,-0.002375,-0.012375,1.012750,192.000000,127.500000,120.000000,127.500000,72.000000,15.500000,80.000000,0.000000,0.000000,0.000000,1768316196.367082,0.000000
242.000000,7296.190536,10799.871182,-17851.220709,-12611.077739,-8289.122080,-10453.195626,-2160.944302,-141.061859,6704.942191,8438.051753,1309.096969,-83.014379,8335.479598,11980.870304,-2287.164603,-1143.559950,-0.002375,-0.012375,1.012750,192.000000,0.000000,0.000000,0.000000,0.000000,0.000000,0.000000,0.000000,0.000000,0.000000,1768316196.367095,0.000000
244.000000,7197.552287,10797.367787,-18034.259145,-12750.731438,-8403.808880,-10585.808526,-2275.988731,-281.073187,6601.431263,8433.715514,1338.869493,-56.594617,8338.899414,12000.785709,-2261.348338,-1130.283014,-0.002375,-0.012375,1.012750,192.000000,0.000000,0.000000,0.000000,0.000000,0.000000,0.000000,0.000000,0.000000,0.000000,1768316196.367112,0.000000
246.000000,7245.720297,10810.309447,-17951.222414,-12697.333121,-8359.664185,-10536.165301,-2225.339678,-215.627279,6742.984860,8389.794337,1225.590852,-174.567124,8295.492327,11909.568239,-2356.902046,-1133.993403,-0.002375,-0.012375,1.012750,192.000000,0.000000,0.000000,0.000000,0.000000,0.000000,0.000000,0.000000,0.000000,0.000000,1768316196.367126,0.000000
248.000000,7282.555971,10801.748729,-17904.999006,-12648.293394,-8329.332868,-10492.624103,-2195.723617,-174.880049,6620.877280,8456.111962,1372.039482,-4.984439,8360.625310,12027.004305,-2229.385344,-1144.923406,-0.002375,-0.012375,1.012750,192.000000,0.000000,0.000000,0.000000,0.000000,0.000000,0.000000,0.000000,0.000000,0.000000,1768316196.367142,0.000000
250.000000,7199.183965,10830.001334,-18061.260052,-12777.978215,-8422.338476,-10617.480948,-2294.138347,-295.512413,6691.799365,8399.763215,1253.843457,-148.482638,8300.007379,11929.729513,-2341.456990,-1131.177083,-0.002375,-0.012375,1.012750,192.000000,0.000000,0.000000,0.000000,0.000000,0.000000,0.000000,0.000000,0.000000,0.000000,1768316196.367156,0.000000
252.000000,7311.412074,10808.878935,-17857.367439,-12609.736634,-8302.041388,-10461.711641,-2162.508924,-140.905397,6708.630229,8436.777703,1309.856929,-76.577077,8339.122932,11974.142429,-2289.064501,-1149.527866,0.002000,-0.014000,1.006000,192.000000,0.000000,8.000000,127.500000,72.000000,15.500000,56.000000,0.000000,0.000000,0.000000,1768316196.367172,0.000000
254.000000,7192.612552,10799.602961,-18034.393255,-12739.712028,-8403.294790,-10585.450898,-2270.981940,-278.972123,6601.028931,8433.067314,1339.450638,-56.684024,8346.186083,12001.724482,-2264.119955,-1138.731973,0.002000,-0.014000,1.006000,192.000000,0.000000,0.000000,0.000000,0.000000,0.000000,0.000000,0.000000,0.000000,0.000000,1768316196.367189,0.000000
0.000000,7242.747515,10817.797281,-17948.696667,-12690.068804,-8352.109295,-10532.276098,-2219.237652,-213.436808,6749.891549,8395.650494,1230.821160,-175.192973,8309.216298,11913.859774,-2359.047813,-1136.630909,0.002000,-0.014000,1.006000,192.000000,0.000000,0.000000,0.000000,0.000000,0.000000,0.000000,0.000000,0.000000,0.000000,1768316196.367205,0.000000
2.000000,7272.654149,10799.200630,-17902.964998,-12642.906623,-8323.432007,-10488.131403,-2190.448605,-175.975284,6613.992943,8457.095439,1374.989912,-8.627773,8360.446496,12027.093712,-2228.848902,-1144.476371,0.002000,-0.014000,1.006000,192.000000,0.000000,0.000000,0.000000,0.000000,0.000000,0.000000,0.000000,0.000000,0.000000,1768316196.367236,0.000000
4.000000,7197.462880,10837.489168,-18059.181340,-12772.680852,-8417.599907,-10606.975628,-2290.316199,-294.283067,6686.010264,8405.149985,1258.850248,-147.543865,8302.980161,11936.770312,-2342.239301,-1126.505569,0.002000,-0.014000,1.006000,192.000000,0.000000,0.000000,0.000000,0.000000,0.000000,0.000000,0.000000,0.000000,0.000000,1768316196.367254,0.000000
6.000000,7309.758044,10813.751616,-17853.187663,-12610.496594,-8296.364045,-10453.150922,-2163.537105,-133.596377,6700.851822,8449.540549,1314.707257,-72.397300,8339.033525,11983.306644,-2288.595115,-1143.694060,0.002000,-0.014000,1.006000,192.000000,0.000000,0.000000,127.500000,48.000000,15.500000,72.000000,0.000000,0.000000,0.000000,1768316196.367266,0.000000
8.000000,7215.858366,10820.278325,-18029.498223,-12741.254299,-8393.057691,-10576.040813,-2272.591266,-265.359910,6607.801510,8456.246073,1349.441868,-41.171913,8346.901339,12014.129700,-2257.101507,-1131.847636,0.002000,-0.014000,1.006000,192.000000,0.000000,0.000000,0.000000,0.000000,0.000000,0.000000,0.000000,0.000000,0.000000,1768316196.367283,0.000000
10.000000,7258.863122,10831.476549,-17951.691801,-12693.667435,-8348.912996,-10529.012743,-2223.596242,-210.307564,6746.672898,8410.000314,1237.504332,-164.486487,8317.575850,11920.453539,-2353.638691,-1133.993403,0.002000,-0.014000,1.006000,192.000000,0.000000,0.000000,0.000000,0.000000,0.000000,0.000000,0.000000,0.000000,0.000000,1768316196.367303,0.000000
12.000000,7275.895152,10791.623389,-17911.078681,-12640.090303,-8317.955830,-10482.319949,-2189.979218,-181.496165,6602.504146,8466.080840,1370.318397,-10.639430,8356.959624,12031.005267,-2224.445608,-1140.251892,0.002000,-0.014000,1.006000,192.000000,0.000000,0.000000,0.000000,0.000000,0.000000,0.000000,0.000000,0.000000,0.000000,1768316196.367319,0.000000
14.000000,7167.042156,10819.317200,-18070.245453,-12770.915064,-8423.433712,-10605.343950,-2289.891516,-309.705771,6666.944226,8407.206345,1242.108791,-160.150249,8286.752795,11936.904423,-2340.115886,-1125.455037,0.002000,-0.014000,1.006000,192.000000,0.000000,0.000000,0.000000,0.000000,0.000000,0.000000,0.000000,0.000000,0.000000,1768316196.367332,0.000000
16.000000,7304.415978,10808.722473,-17858.037991,-12610.898925,-8295.291161,-10446.713620,-2163.358291,-143.364089,6676.778993,8442.320936,1299.217498,-85.607181,8322.068551,11976.824638,-2286.561106,-1141.592996,-0.002000,-0.018000,1.012000,192.000000,127.500000,120.000000,127.500000,56.000000,15.500000,80.000000,0.000000,0.000000,0.000000,1768316196.367349,0.000000
18.000000,7211.388017,10825.396875,-18028.045360,-12742.058962,-8392.163621,-10571.793982,-2271.428975,-269.271465,6597.095024,8455.888445,1347.609025,-46.513980,8342.118066,12013.906183,-2251.647681,-1135.669784,-0.002000,-0.018000,1.012000,192.000000,0.000000,0.000000,0.000000,0.000000,0.000000,0.000000,0.000000,0.000000,0.000000,1768316196.367365,0.000000
20.000000,7252.224654,10831.588308,-17950.104827,-12693.600380,-8352.042240,-10531.426732,-2225.093809,-210.307564,6743.208378,8410.045017,1237.683146,-168.867429,8299.247420,11917.972495,-2354.890389,-1129.143075,-0.002000,-0.018000,1.012000,192.000000,0.000000,0.000000,0.000000,0.000000,0.000000,0.000000,0.000000,0.000000,0.000000,1768316196.367383,0.000000
22.000000,7295.721149,10822.357037,-17901.065099,-12639.062123,-8321.979144,-10486.767946,-2189.040445,-163.972397,6617.412760,8473.345157,1382.433043,-1.743436,8364.603921,12029.731218,-2225.317326,-1138.910787,-0.002000,-0.018000,1.012000,192.000000,0.000000,0.000000,0.000000,0.000000,0.000000,0.000000,0.000000,0.000000,0.000000,1768316196.367400,0.000000
24.000000,7201.262677,10827.028552,-18056.700296,-12773.172590,-8417.130520,-10612.854137,-2285.264705,-288.471614,6689.050101,8412.973096,1263.611169,-143.364089,8304.410673,11934.468083,-2336.003165,-1129.031316,-0.002000,-0.018000,1.012000,192.000000,0.000000,0.000000,0.000000,0.000000,0.000000,0.000000,0.000000,0.000000,0.000000,1768316196.367418,0.000000
26.000000,7325.784245,10816.076197,-17850.684267,-12610.183669,-8288.809155,-10455.587263,-2156.228084,-134.110467,6697.655523,8446.143084,1314.841368,-78.946361,8337.245385,11976.511714,-2284.147118,-1147.851485,0.002000,-0.018000,1.002000,192.000000,0.000000,8.000000,127.500000,56.000000,15.500000,40.000000,0.000000,0.000000,0.000000,1768316196.367436,0.000000
28.000000,7201.955581,10818.132558,-18025.541964,-12737.141578,-8391.671883,-10574.118563,-2265.751632,-265.806945,6604.784024,8451.954538,1349.598330,-50.850219,8349.091810,12009.257020,-2253.748745,-1133.993403,0.002000,-0.018000,1.002000,192.000000,0.000000,0.000000,0.000000,0.000000,0.000000,0.000000,0.000000,0.000000,0.000000,1768316196.367452,0.000000
30.000000,7251.621157,10835.969250,-17947.243803,-12687.766574,-8345.537883,-10526.241127,-2219.595280,-206.418360,6748.595148,8414.358904,1237.951367,-162.653644,8324.817815,11925.616792,-2353.549284,-1137.524979,0.002000,-0.018000,1.002000,192.000000,0.000000,0.000000,0.000000,0.000000,0.000000,0.000000,0.000000,0.000000,0.000000,1768316196.367468,0.000000
32.000000,7291.027283,10817.484357,-17894.806611,-12636.961059,-8310.803272,-10477.804897,-2185.844146,-161.558409,6620.005562,8479.648349,1387.953924,0.670552,8365.520342,12033.799235,-2226.524320,-1147.806781,0.002000,-0.018000,1.002000,192.000000,0.000000,0.000000,0.000000,0.000000,0.000000,0.000000,0.000000,0.000000,0.000000,1768316196.367484,0.000000
34.000000,7208.795215,10846.943956,-18055.515654,-12768.925758,-8409.285058,-10603.824032,-2286.091719,-281.274352,6696.604991,8423.836043,1270.204934,-136.144475,8319.274583,11951.723629,-2336.070220,-1136.027412,0.002000,-0.018000,1.002000,192.000000,0.000000,0.000000,0.000000,0.000000,0.000000,0.000000,0.000000,0.000000,0.000000,1768316196.367500,0.000000
36.000000,7311.277963,10821.753540,-17855.311078,-12610.206021,-8294.106519,-10453.486199,-2159.267921,-126.265004,6707.959677,8458.280082,1318.752923,-65.848239,8345.560234,11983.708976,-2287.633990,-1149.214941,0.002000,-0.016000,1.010000,192.000000,0.000000,8.000000,127.500000,64.000000,15.500000,72.000000,0.000000,0.000000,0.000000,1768316196.367516,0.000000
38.000000,7211.544479,10814.332761,-18035.086159,-12744.025915,-8400.478470,-10579.371223,-2268.210324,-265.896352,6601.319504,8449.942881,1346.670252,-42.602425,8333.512644,12006.038368,-2262.175353,-1137.770848,0.002000,-0.016000,1.010000,192.000000,0.000000,0.000000,0.000000,0.000000,0.000000,0.000000,0.000000,0.000000,0.000000,1768316196.367532,0.000000
40.000000,7255.286843,10830.381314,-17960.878368,-12694.449746,-8355.484409,-10529.482130,-2224.155036,-218.041267,6735.921709,8404.144156,1224.383858,-170.275589,8284.338806,11910.372902,-2362.400575,-1137.681441,0.002000,-0.016000,1.010000,192.000000,0.000000,0.000000,0.000000,0.000000,0.000000,0.000000,0.000000,0.000000,0.000000,1768316196.367548,0.000000
42.000000,7288.054501,10807.984866,-17913.984408,-12638.860957,-8328.885833,-10479.637740,-2195.276582,-183.351360,6607.935620,8466.013785,1362.160011,-12.807550,8348.533016,12026.534918,-2233.945100,-1142.330604,0.002000,-0.016000,1.010000,192.000000,0.000000,0.000000,0.000000,0.000000,0.000000,0.000000,0.000000,0.000000,0.000000,1768316196.367579,0.000000
44.000000,7177.525124,10829.733113,-18074.782857,-12772.099706,-8421.533814,-10602.393520,-2296.887612,-306.867100,6681.517563,8410.045017,1239.963024,-154.808182,8292.206620,11935.697429,-2338.640671,-1120.939984,0.002000,-0.016000,1.010000,192.000000,0.000000,0.000000,0.000000,0.000000,0.000000,0.000000,0.000000,0.000000,0.000000,1768316196.845753,0.000000
46.000000,7293.776547,10811.225869,-17864.207073,-12611.010684,-8293.055987,-10448.501760,-2166.174610,-141.777115,6698.549592,8448.691183,1299.128091,-80.242763,8329.288164,11978.299854,-2286.069368,-1135.289804,0.002000,-0.024000,1.008000,192.000000,0.000000,8.000000,127.500000,32.000000,15.500000,64.000000,0.000000,0.000000,0.000000,1768316196.845822,0.000000
48.000000,7208.906973,10821.820595,-18036.427264,-12741.857796,-8389.839040,-10571.369299,-2271.853658,-268.176230,6596.715045,8452.602738,1341.842275,-41.909521,8333.222071,12009.212316,-2253.145248,-1127.891377,0.002000,-0.024000,1.008000,192.000000,0.000000,0.000000,0.000000,0.000000,0.000000,0.000000,0.000000,0.000000,0.000000,1768316196.845876,0.000000
50.000000,7254.571587,10835.142235,-17955.849225,-12694.941484,-8339.525263,-10520.787301,-2224.177387,-209.368790,6744.080096,8413.375427,1233.011631,-162.184258,8297.615742,11920.542946,-2350.710613,-1131.087676,0.002000,-0.024000,1.008000,192.000000,0.000000,0.000000,0.000000,0.000000,0.000000,0.000000,0.000000,0.000000,0.000000,1768316196.845926,0.000000
52.000000,7292.837774,10813.326933,-17903.881419,-12640.716152,-8304.142452,-10471.904036,-2189.666294,-169.381519,6619.647934,8473.702785,1373.559400,-1.206994,8363.039298,12034.961526,-2220.981088,-1141.615348,0.002000,-0.024000,1.008000,192.000000,0.000000,0.000000,0.000000,0.000000,0.000000,0.000000,0.000000,0.000000,0.000000,1768316196.845981,0.000000
54.000000,7204.548383,10840.886634,-18066.870340,-12774.357232,-8403.205383,-10602.929962,-2291.970228,-294.283067,6689.228915,8417.018761,1255.095155,-145.152228,8298.800385,11942.514711,-2329.409400,-1124.851540,0.002000,-0.024000,1.008000,192.000000,0.000000,0.000000,0.000000,0.000000,0.000000,0.000000,0.000000,0.000000,0.000000,1768316196.846033,0.000000
56.000000,7321.291545,10818.333723,-17860.273166,-12609.244896,-8288.853859,-10447.361821,-2163.984139,-135.988013,6703.712845,8452.289814,1304.738379,-75.124213,8364.425107,11983.731328,-2284.594153,-1142.531770,0.006000,-0.020000,1.008000,192.000000,0.000000,24.000000,127.500000,48.000000,15.500000,64.000000,0.000000,0.000000,0.000000,1768316196.846061,0.000000
58.000000,7214.919593,10817.350247,-18033.879165,-12738.214462,-8390.509592,-10568.620034,-2271.093699,-267.528029,6607.890917,8460.805829,1344.278615,-40.613120,8339.078228,12015.783729,-2252.742917,-1131.355897,0.006000,-0.020000,1.008000,192.000000,0.000000,0.000000,0.000000,0.000000,0.000000,0.000000,0.000000,0.000000,0.000000,1768316196.846079,0.000000
60.000000,7243.373363,10829.554299,-17961.146588,-12692.818069,-8359.798295,-10529.549185,-2222.791579,-211.693372,6738.805084,8414.068331,1230.016497,-163.167735,8288.987969,11919.380655,-2355.918569,-1137.279110,0.006000,-0.020000,1.008000,192.000000,0.000000,0.000000,0.000000,0.000000,0.000000,0.000000,0.000000,0.000000,0.000000,1768316196.846096,0.000000
62.000000,7279.314969,10803.112185,-17911.905695,-12639.375048,-8327.231804,-10481.671748,-2186.090015,-167.839249,6598.033798,8467.913683,1370.407804,-5.230308,8346.588415,12024.612668,-2230.234710,-1141.660052,0.006000,-0.020000,1.008000,192.000000,0.000000,0.000000,0.000000,0.000000,0.000000,0.000000,0.000000,0.000000,0.000000,1768316196.846113,0.000000
64.000000,7189.103328,10831.275383,-18077.777991,-12773.597273,-8422.494939,-10608.383788,-2287.991618,-293.344294,6666.899522,8407.720436,1249.194294,-144.727545,8288.786803,11931.830577,-2339.177112,-1129.299537,0.006000,-0.020000,1.008000,192.000000,0.000000,0.000000,0.000000,0.000000,0.000000,0.000000,0.000000,0.000000,0.000000,1768316196.846130,0.000000
66.000000,7300.258553,10817.663171,-17870.331451,-12609.781338,-8296.967542,-10449.798161,-2160.832543,-138.893740,6684.803269,8446.880692,1297.384655,-78.946361,8312.099673,11971.437868,-2290.159737,-1142.777639,0.005000,-0.017000,1.006000,192.000000,0.000000,16.000000,127.500000,72.000000,15.500000,48.000000,0.000000,0.000000,0.000000,1768316196.846148,0.000000
68.000000,7212.952639,10809.482433,-18039.288287,-12735.420494,-8389.526116,-10567.211874,-2268.232676,-268.064471,6584.287475,8450.680488,1337.483685,-43.898826,8323.387304,12006.977142,-2253.882856,-1124.918595,0.005000,-0.017000,1.006000,192.000000,0.000000,0.000000,0.000000,0.000000,0.000000,0.000000,0.000000,0.000000,0.000000,1768316196.846165,0.000000
70.000000,7258.505494,10826.112130,-17963.873501,-12690.359377,-8347.862464,-10524.073008,-2222.948041,-210.709895,6737.151055,8414.582421,1226.328460,-163.793583,8290.552591,11919.380655,-2354.085726,-1129.634813,0.005000,-0.017000,1.006000,192.000000,0.000000,0.000000,0.000000,0.000000,0.000000,0.000000,0.000000,0.000000,0.000000,1768316196.846182,0.000000
72.000000,7291.988408,10802.687502,-17907.167126,-12632.669524,-8314.468958,-10472.172257,-2184.905372,-163.324197,6612.987115,8476.072070,1372.508868,3.799797,8357.987804,12034.156863,-2226.725486,-1139.760153,0.005000,-0.017000,1.006000,192.000000,0.000000,0.000000,0.000000,0.000000,0.000000,0.000000,0.000000,0.000000,0.000000,1768316196.846200,0.000000
74.000000,7188.611590,10828.704933,-18067.809113,-12772.524389,-8409.106244,-10601.275933,-2287.544583,-289.857422,6684.803269,8422.830215,1258.805544,-134.512798,8303.807176,11946.046286,-2330.415229,-1125.879720,0.005000,-0.017000,1.006000,192.000000,0.000000,0.000000,0.000000,0.000000,0.000000,0.000000,0.000000,0.000000,0.000000,1768316196.846227,0.000000
76.000000,7299.632704,10821.574726,-17860.809608,-12613.312914,-8292.854821,-10448.792332,-2159.223218,-133.171693,6694.839203,8453.653270,1307.353533,-75.079510,8332.842092,11977.428136,-2285.152946,-1146.689194,0.004500,-0.016500,1.008000,192.000000,0.000000,16.000000,127.500000,64.000000,15.500000,72.000000,0.000000,0.000000,0.000000,1768316196.846244,0.000000
78.000000,7209.801043,10805.146194,-18030.928735,-12741.053133,-8387.559162,-10567.904778,-2266.757460,-267.125698,6594.770443,8461.409326,1346.357327,-41.440134,8353.293938,12007.982970,-2249.904245,-1137.524979,0.004500,-0.016500,1.008000,192.000000,0.000000,0.000000,0.000000,0.000000,0.000000,0.000000,0.000000,0.000000,0.000000,1768316196.846261,0.000000
80.000000,7256.940872,10828.548471,-17960.163112,-12693.578028,-8346.029621,-10524.497691,-2223.708001,-217.124846,6741.241424,8417.398741,1226.440218,-168.688615,8306.779958,11920.162966,-2349.816543,-1135.088639,0.004500,-0.016500,1.008000,192.000000,0.000000,0.000000,0.000000,0.000000,0.000000,0.000000,0.000000,0.000000,0.000000,1768316196.846278,0.000000
82.000000,7299.342132,10806.822575,-17906.921256,-12636.558728,-8305.237687,-10472.082850,-2189.263962,-174.902400,6611.623658,8481.615303,1368.306740,-7.487834,8355.909092,12039.521282,-2220.534053,-1138.977842,0.004500,-0.016500,1.008000,192.000000,0.000000,0.000000,0.000000,0.000000,0.000000,0.000000,0.000000,0.000000,0.000000,1768316196.846296,0.000000
84.000000,7180.587313,10823.161700,-18070.021936,-12776.100668,-8414.694180,-10605.545116,-2294.406568,-300.407445,6679.550610,8419.410398,1251.898855,-144.392269,8301.616705,11942.849987,-2326.637784,-1124.717429,0.004500,-0.016500,1.008000,192.000000,0.000000,0.000000,0.000000,0.000000,0.000000,0.000000,0.000000,0.000000,0.000000,1768316196.846313,0.000000
86.000000,7301.219678,10812.343456,-17863.782390,-12609.535469,-8290.284370,-10449.261719,-2161.100764,-136.010365,6701.723540,8455.463762,1303.084350,-79.035768,8335.189025,11978.433964,-2282.806013,-1142.241197,0.004250,-0.016250,1.011000,192.000000,0.000000,16.000000,127.500000,64.000000,15.500000,88.000000,0.000000,0.000000,0.000000,1768316196.846330,0.000000
88.000000,7226.967183,10829.621354,-18038.170700,-12731.106607,-8387.536810,-10564.484962,-2266.802164,-263.795288,6600.313675,8471.489963,1344.479781,-36.053364,8345.694345,12020.052912,-2250.127763,-1126.840845,0.004250,-0.016250,1.011000,192.000000,0.000000,0.000000,0.000000,0.000000,0.000000,0.000000,0.000000,0.000000,0.000000,1768316196.846347,0.000000
90.000000,7252.381116,10817.283191,-17964.253481,-12686.939560,-8351.125819,-10522.173109,-2222.255137,-213.794436,6739.185064,8418.583383,1228.295413,-162.474830,8299.046254,11927.360228,-2354.085726,-1129.232482,0.004250,-0.016250,1.011000,192.000000,0.000000,0.000000,0.000000,0.000000,0.000000,0.000000,0.000000,0.000000,0.000000,1768316196.846364,0.000000
92.000000,7287.585114,10803.447462,-17903.076756,-12631.529585,-8311.965562,-10466.338452,-2187.654637,-166.878124,6614.663495,8483.850477,1373.045310,3.777445,8362.525208,12042.114084,-2226.412562,-1143.761116,0.004250,-0.016250,1.011000,192.000000,0.000000,0.000000,0.000000,0.000000,0.000000,0.000000,0.000000,0.000000,0.000000,1768316196.846381,0.000000
94.000000,7212.371494,10837.086837,-18063.539930,-12770.937415,-8409.150947,-10598.347854,-2290.785586,-291.466748,6692.246400,8428.373447,1262.225361,-131.808237,8310.713865,11953.176493,-2331.041077,-1126.282051,0.004250,-0.016250,1.011000,192.000000,0.000000,0.000000,0.000000,0.000000,0.000000,0.000000,0.000000,0.000000,0.000000,1768316196.846398,0.000000
96.000000,7322.655001,10822.178223,-17857.836826,-12614.005818,-8286.149297,-10456.995422,-2162.464221,-132.478789,6720.387247,8463.912721,1310.594536,-70.296236,8347.169560,11988.939284,-2285.443519,-1148.030299,0.003125,-0.017125,1.012500,192.000000,0.000000,8.000000,127.500000,56.000000,15.500000,88.000000,0.000000,0.000000,0.000000,1768316196.846415,0.000000
98.000000,7221.759227,10822.021761,-18030.280534,-12742.483645,-8385.614560,-10573.358604,-2267.383309,-263.616474,6607.577992,8462.795134,1352.280540,-38.020317,8350.723487,12014.397921,-2250.217170,-1133.836941,0.003125,-0.017125,1.012500,192.000000,0.000000,0.000000,0.000000,0.000000,0.000000,0.000000,0.000000,0.000000,0.000000,1768316196.846432,0.000000
100.000000,7244.714468,10817.171433,-17962.621804,-12699.188316,-8346.074324,-10527.045790,-2224.199739,-216.990735,6745.443552,8418.181052,1230.552939,-167.548676,8306.265868,11919.581821,-2349.458915,-1133.546368,0.003125,-0.017125,1.012500,192.000000,0.000000,0.000000,0.000000,0.000000,0.000000,0.000000,0.000000,0.000000,0.000000,1768316196.846449,0.000000
102.000000,7282.555971,10797.658360,-17909.022320,-12641.476112,-8302.644885,-10470.406469,-2191.700303,-181.183241,6614.484681,8477.815506,1363.903447,-12.315811,8368.180200,12032.212261,-2221.651640,-1140.117781,0.003125,-0.017125,1.012500,192.000000,0.000000,0.000000,0.000000,0.000000,0.000000,0.000000,0.000000,0.000000,0.000000,1768316196.846466,0.000000
104.000000,7195.048892,10817.014970,-18069.194921,-12779.654596,-8412.280191,-10601.253581,-2296.284115,-308.521129,6678.902409,8420.527985,1244.947463,-149.041432,8321.621516,11944.705182,-2327.911833,-1126.974955,0.003125,-0.017125,1.012500,192.000000,0.000000,0.000000,0.000000,0.000000,0.000000,0.000000,0.000000,0.000000,0.000000,1768316196.846483,0.000000
106.000000,7306.204117,10805.593229,-17863.938852,-12617.000951,-8292.698359,-10453.821475,-2167.716881,-147.946197,6703.779901,8451.351041,1294.009542,-85.651885,8342.140417,11977.674005,-2283.878897,-1143.492895,0.003563,-0.018563,1.012250,192.000000,0.000000,16.000000,127.500000,48.000000,15.500000,80.000000,0.000000,0.000000,0.000000,1768316196.846502,0.000000
108.000000,7223.413256,10821.440616,-18030.906383,-12739.019124,-8383.111165,-10570.296415,-2267.517420,-267.349215,6617.368056,8461.185808,1344.725650,-40.344899,8344.263833,12015.448453,-2247.244388,-1130.953566,0.003563,-0.018563,1.012250,192.000000,0.000000,0.000000,0.000000,0.000000,0.000000,0.000000,0.000000,0.000000,0.000000,1768316196.846519,0.000000
110.000000,7248.983651,10829.353133,-17957.369144,-12699.970627,-8345.850807,-10533.706609,-2223.819759,-220.812883,6754.473657,8420.080950,1232.184617,-171.460232,8302.510774,11917.927792,-2352.409345,-1133.546368,0.003563,-0.018563,1.012250,192.000000,0.000000,0.000000,0.000000,0.000000,0.000000,0.000000,0.000000,0.000000,0.000000,1768316196.846536,0.000000
112.000000,7279.247913,10787.980054,-17906.585980,-12637.653963,-8309.797443,-10475.994405,-2187.252305,-185.251258,6610.662533,8468.338367,1366.429194,-13.969840,8361.631139,12030.982915,-2221.092847,-1142.911749,0.003563,-0.018563,1.012250,192.000000,0.000000,0.000000,0.000000,0.000000,0.000000,0.000000,0.000000,0.000000,0.000000,1768316196.846580,0.000000
114.000000,7187.114023,10808.253087,-18073.464104,-12772.055003,-8403.026569,-10603.041721,-2291.769062,-313.438512,6670.207580,8406.960476,1241.438239,-156.261045,8301.482594,11941.061847,-2328.291813,-1127.421990,0.003563,-0.018563,1.012250,192.000000,0.000000,0.000000,0.000000,0.000000,0.000000,0.000000,0.000000,0.000000,0.000000,1768316196.846598,0.000000
116.000000,7303.365446,10793.679749,-17862.888320,-12613.067044,-8286.305760,-10452.279204,-2165.280541,-151.857752,6696.537935,8444.131427,1291.662609,-89.854013,8334.831397,11981.920836,-2281.822536,-1145.303386,0.002781,-0.019281,1.009125,192.000000,0.000000,8.000000,127.500000,48.000000,15.500000,56.000000,0.000000,0.000000,0.000000,1768316196.846615,0.000000
118.000000,7218.518224,10816.344418,-18027.128938,-12736.023991,-8379.423127,-10570.519933,-2266.802164,-267.528029,6602.571202,8455.508465,1345.105630,-44.569378,8348.085981,12016.789558,-2242.975204,-1136.653261,0.002781,-0.019281,1.009125,192.000000,0.000000,0.000000,0.000000,0.000000,0.000000,0.000000,0.000000,0.000000,0.000000,1768316196.846632,0.000000
120.000000,7267.692061,10843.099456,-17959.671373,-12695.209705,-8344.308537,-10527.314011,-2225.160864,-208.251203,6755.121858,8420.930317,1237.012593,-159.949083,8307.092882,11928.701333,-2348.609549,-1136.921482,0.002781,-0.019281,1.009125,192.000000,0.000000,0.000000,0.000000,0.000000,0.000000,0.000000,0.000000,0.000000,0.000000,1768316196.846649,0.000000
122.000000,7316.217699,10824.905136,-17896.773564,-12633.340077,-8300.633228,-10462.605710,-2182.245515,-153.489429,6637.126999,8490.623056,1390.412616,6.906689,8380.093679,12046.159750,-2220.355239,-1146.175104,0.002781,-0.019281,1.009125,192.000000,0.000000,0.000000,0.000000,0.000000,0.000000,0.000000,0.000000,0.000000,0.000000,1768316196.846666,0.000000
124.000000,7202.648485,10831.700067,-18063.383468,-12772.814962,-8407.139290,-10595.643293,-2285.756443,-286.191736,6697.476709,8428.753427,1271.702501,-130.310670,8312.904336,11954.025859,-2329.252938,-1126.796141,0.002781,-0.019281,1.009125,192.000000,0.000000,0.000000,0.000000,0.000000,0.000000,0.000000,0.000000,0.000000,0.000000,1768316196.846683,0.000000
126.000000,7305.757082,10815.584459,-17856.696887,-12611.122443,-8285.277579,-10444.634908,-2158.418555,-140.100734,6709.300781,8455.888445,1310.616888,-72.978446,8370.124801,11986.391185,-2288.997446,-1143.425839,0.003391,-0.022641,1.006563,192.000000,0.000000,16.000000,127.500000,24.000000,15.500000,48.000000,0.000000,0.000000,0.000000,1768316196.846700,0.000000
128.000000,7210.471596,10804.542697,-18031.711046,-12734.571127,-8382.552371,-10562.428601,-2267.740937,-278.905067,6598.704350,8461.252864,1342.602234,-42.647128,8343.906205,12023.226860,-2249.725431,-1133.032278,0.003391,-0.022641,1.006563,192.000000,0.000000,0.000000,0.000000,0.000000,0.000000,0.000000,0.000000,0.000000,0.000000,1768316196.846717,0.000000
130.000000,7249.497741,10825.776854,-17966.399248,-12695.902609,-8353.539807,-10528.476301,-2229.251233,-227.876035,6742.761343,8418.002238,1219.779398,-173.605999,8298.196888,11928.768388,-2351.023537,-1126.930252,0.003391,-0.022641,1.006563,192.000000,0.000000,0.000000,0.000000,0.000000,0.000000,0.000000,0.000000,0.000000,0.000000,1768316196.846734,0.000000
132.000000,7296.168184,10799.915886,-17904.015530,-12636.581080,-8309.953905,-10475.212094,-2188.235782,-170.946142,6626.286402,8485.549210,1368.418499,-4.582108,8370.527133,12042.739933,-2220.891681,-1139.737802,0.003391,-0.022641,1.006563,192.000000,0.000000,0.000000,0.000000,0.000000,0.000000,0.000000,0.000000,0.000000,0.000000,1768316196.846751,0.000000
134.000000,7204.056645,10829.911927,-18073.464104,-12772.814962,-8410.961439,-10602.818203,-2290.092682,-295.087730,6696.046197,8427.948764,1261.577161,-136.926787,8310.915030,11951.969499,-2325.341383,-1124.717429,0.003391,-0.022641,1.006563,192.000000,0.000000,0.000000,0.000000,0.000000,0.000000,0.000000,0.000000,0.000000,0.000000,1768316196.846768,0.000000
136.000000,7315.368332,10811.158813,-17866.419895,-12608.909620,-8289.658521,-10446.445399,-2158.776183,-137.932615,6716.229822,8457.967157,1303.598440,-77.404091,8340.486388,11987.039386,-2285.041187,-1135.222749,0.003391,-0.022641,1.006563,192.000000,0.000000,0.000000,0.000000,0.000000,0.000000,0.000000,0.000000,0.000000,0.000000,1768316196.846785,0.000000
138.000000,7223.860291,10812.946953,-18032.359246,-12733.945278,-8385.592209,-10564.216741,-2263.561161,-268.936189,6600.291324,8457.676584,1344.412725,-40.255492,8345.806103,12018.980029,-2247.177332,-1128.181950,0.003391,-0.022641,1.006563,192.000000,0.000000,0.000000,127.500000,48.000000,15.500000,56.000000,0.000000,0.000000,0.000000,1768316196.846812,0.000000
140.000000,7245.429724,10826.335648,-17963.493522,-12692.125165,-8347.907167,-10522.731903,-2223.976222,-219.717648,6743.767171,8412.704875,1228.027192,-166.788717,8305.349446,11926.756731,-2352.007014,-1130.484179,0.003391,-0.022641,1.006563,192.000000,0.000000,0.000000,0.000000,0.000000,0.000000,0.000000,0.000000,0.000000,0.000000,1768316196.846830,0.000000
142.000000,7291.317855,10810.085930,-17902.540315,-12626.791015,-8302.108443,-10458.537693,-2184.570096,-167.481621,6620.720818,8482.643483,1372.821793,-0.692904,8371.957644,12038.426046,-2222.366896,-1136.832075,0.003391,-0.022641,1.006563,192.000000,0.000000,0.000000,0.000000,0.000000,0.000000,0.000000,0.000000,0.000000,0.000000,1768316196.846846,0.000000
144.000000,7201.083863,10825.665096,-18071.385392,-12767.070564,-8410.223831,-10596.313846,-2290.182089,-296.384131,6686.725520,8427.054695,1260.034890,-135.228054,8313.798405,11961.066659,-2327.084819,-1116.715505,0.003391,-0.022641,1.006563,192.000000,0.000000,0.000000,0.000000,0.000000,0.000000,0.000000,0.000000,0.000000,0.000000,1768316196.846863,0.000000
146.000000,7335.462551,10814.221002,-17864.140018,-12609.937800,-8285.143469,-10443.718486,-2159.402032,-135.429220,6713.324095,8458.570654,1304.872490,-73.537239,8348.555368,11989.453374,-2289.980923,-1131.847636,0.003391,-0.022641,1.006563,192.000000,0.000000,0.000000,0.000000,0.000000,0.000000,0.000000,0.000000,0.000000,0.000000,1768316196.846880,0.000000
148.000000,7222.183910,10814.511575,-18029.028836,-12738.795607,-8379.758403,-10559.992261,-2263.807030,-265.538724,6609.835519,8463.845666,1353.576941,-38.512056,8365.542694,12022.846880,-2246.953815,-1127.064362,0.003391,-0.022641,1.006563,192.000000,0.000000,0.000000,127.500000,72.000000,15.500000,64.000000,0.000000,0.000000,0.000000,1768316196.846897,0.000000
150.000000,7253.118724,10838.919680,-17965.862807,-12697.936618,-8349.292976,-10525.972906,-2224.535015,-219.270613,6747.052878,8420.840910,1231.759933,-165.425261,8303.136623,11926.868490,-2350.911778,-1132.071153,0.003391,-0.022641,1.006563,192.000000,0.000000,0.000000,0.000000,0.000000,0.000000,0.000000,0.000000,0.000000,0.000000,1768316196.846914,0.000000
152.000000,7281.773660,10799.446499,-17905.200172,-12631.618992,-8308.590449,-10466.383155,-2183.653675,-167.861601,6614.864661,8483.582256,1372.508868,-0.245869,8380.384252,12042.069381,-2225.160864,-1137.726145,0.003391,-0.022641,1.006563,192.000000,0.000000,0.000000,0.000000,0.000000,0.000000,0.000000,0.000000,0.000000,0.000000,1768316196.846931,0.000000
154.000000,7198.602819,10832.683543,-18074.447581,-12768.366965,-8407.139290,-10601.097119,-2289.712702,-297.032332,6680.064700,8427.814654,1257.553847,-131.137685,8307.674027,11954.986984,-2325.699011,-1118.347182,0.003391,-0.022641,1.006563,192.000000,0.000000,0.000000,0.000000,0.000000,0.000000,0.000000,0.000000,0.000000,0.000000,1768316196.846948,0.000000
156.000000,7316.396513,10812.634029,-17865.168198,-12604.483975,-8289.479707,-10442.802065,-2160.452564,-139.072554,6705.232764,8462.102230,1303.486681,-71.816155,8333.959679,11990.123926,-2283.677731,-1135.580377,0.003391,-0.022641,1.006563,192.000000,0.000000,0.000000,0.000000,0.000000,0.000000,0.000000,0.000000,0.000000,0.000000,1768316196.846965,0.000000
158.000000,7231.325773,10804.699159,-18028.045360,-12727.440921,-8383.647607,-10559.008784,-2262.130649,-265.203448,6600.604248,8463.644500,1350.738269,-30.241910,8347.571891,12025.149110,-2246.327966,-1126.214996,0.003391,-0.022641,1.006563,192.000000,0.000000,0.000000,127.500000,72.000000,15.500000,56.000000,0.000000,0.000000,0.000000,1768316196.846982,0.000000
160.000000,7253.856332,10820.166566,-17967.226263,-12692.259275,-8350.812894,-10525.212947,-2223.819759,-223.383334,6750.919730,8415.700008,1230.955271,-163.279493,8301.974333,11925.683847,-2349.905950,-1130.841807,0.003391,-0.022641,1.006563,192.000000,0.000000,0.000000,0.000000,0.000000,0.000000,0.000000,0.000000,0.000000,0.000000,1768316196.846999,0.000000
162.000000,7282.153640,10802.486337,-17905.155469,-12628.288582,-8307.517565,-10467.165466,-2181.463204,-171.348473,6614.194109,8475.513277,1366.406842,-5.364419,8364.514514,12037.062590,-2221.875158,-1138.307290,0.003391,-0.022641,1.006563,192.000000,0.000000,0.000000,0.000000,0.000000,0.000000,0.000000,0.000000,0.000000,0.000000,1768316196.847017,0.000000
164.000000,7194.400691,10827.185014,-18070.960709,-12767.003508,-8402.221906,-10594.950389,-2285.711740,-293.925440,6677.181325,8422.383180,1258.604379,-135.295109,8313.887812,11952.818865,-2326.906005,-1123.421028,0.003391,-0.022641,1.006563,192.000000,0.000000,0.000000,0.000000,0.000000,0.000000,0.000000,0.000000,0.000000,0.000000,1768316197.326833,0.000000
166.000000,7316.128292,10832.996468,-17857.032163,-12609.088434,-8284.092937,-10445.819550,-2156.652767,-132.255272,6713.257040,8459.196503,1304.291344,-72.598466,8348.644775,11984.871266,-2283.856545,-1141.391831,0.003391,-0.022641,1.006563,192.000000,0.000000,0.000000,0.000000,0.000000,0.000000,0.000000,0.000000,0.000000,0.000000,1768316197.326954,0.000000
168.000000,7232.890395,10809.728302,-18021.473947,-12732.782988,-8376.360938,-10560.416944,-2259.739013,-257.357986,6613.434149,8468.986567,1360.908313,-28.453771,8360.155923,12022.131624,-2244.204550,-1134.015755,-0.004000,-0.014000,1.014000,192.000000,127.500000,112.000000,127.500000,72.000000,15.500000,88.000000,0.000000,0.000000,0.000000,1768316197.327057,0.000000
170.000000,7268.519076,10827.497939,-17956.497426,-12699.747109,-8337.714772,-10522.776606,-2221.651640,-213.369753,6762.252064,8424.283078,1237.616090,-161.960740,8310.445644,11925.594440,-2347.447258,-1129.768923,-0.004000,-0.014000,1.014000,192.000000,0.000000,0.000000,0.000000,0.000000,0.000000,0.000000,0.000000,0.000000,0.000000,1768316197.327161,0.000000
172.000000,7307.746387,10808.521308,-17889.621006,-12635.396437,-8300.789690,-10470.898208,-2177.238724,-159.434993,6624.230042,8483.179925,1382.880078,-1.609326,8382.217095,12037.867253,-2219.125893,-1143.358784,-0.004000,-0.014000,1.014000,192.000000,0.000000,0.000000,0.000000,0.000000,0.000000,0.000000,0.000000,0.000000,0.000000,1768316197.327266,0.000000
174.000000,7201.352084,10830.291907,-18061.349459,-12771.406802,-8403.875936,-10594.212782,-2282.828365,-289.276277,6684.691511,8427.904061,1270.562562,-129.036621,8322.247365,11948.795551,-2323.642650,-1127.131418,-0.004000,-0.014000,1.014000,192.000000,0.000000,0.000000,0.000000,0.000000,0.000000,0.000000,0.000000,0.000000,0.000000,1768316197.327369,0.000000
176.000000,7315.949478,10815.405645,-17860.764904,-12609.133137,-8285.948132,-10443.874948,-2155.423421,-131.428257,6711.893584,8458.905930,1310.147501,-72.397300,8345.224958,11981.540857,-2286.941086,-1144.722241,-0.004000,-0.014000,1.014000,192.000000,0.000000,0.000000,0.000000,0.000000,0.000000,0.000000,0.000000,0.000000,0.000000,1768316197.327410,0.000000
178.000000,7225.044933,10820.770063,-18027.106586,-12728.446749,-8378.126726,-10560.998089,-2258.844943,-260.666044,6606.661571,8466.796096,1352.906388,-30.241910,8363.866313,12020.745816,-2246.909111,-1126.349107,-0.004000,-0.014000,1.014000,192.000000,0.000000,0.000000,127.500000,48.000000,15.500000,88.000000,0.000000,0.000000,0.000000,1768316197.327439,0.000000
180.000000,7262.662919,10842.563014,-17963.448818,-12691.633426,-8347.013098,-10526.486996,-2222.053972,-218.376543,6745.085924,8423.254898,1229.971794,-162.541886,8309.618629,11928.254298,-2350.956482,-1125.008002,-0.004000,-0.014000,1.014000,192.000000,0.000000,0.000000,0.000000,0.000000,0.000000,0.000000,0.000000,0.000000,0.000000,1768316197.327456,0.000000
182.000000,7293.351864,10790.483450,-17898.539352,-12626.500443,-8306.690551,-10471.166428,-2178.356311,-168.688615,6625.928775,8482.509373,1371.503040,-1.966954,8384.496973,12038.917785,-2223.372724,-1137.726145,-0.004000,-0.014000,1.014000,192.000000,0.000000,0.000000,0.000000,0.000000,0.000000,0.000000,0.000000,0.000000,0.000000,1768316197.327474,0.000000
184.000000,7202.581430,10813.461043,-18071.295985,-12764.969500,-8408.748616,-10603.600514,-2286.181126,-303.626097,6678.231857,8420.304468,1256.458611,-138.357298,8317.151167,11946.940356,-2325.430790,-1123.152807,-0.004000,-0.014000,1.014000,192.000000,0.000000,0.000000,0.000000,0.000000,0.000000,0.000000,0.000000,0.000000,0.000000,1768316197.327492,0.000000
186.000000,7303.566611,10800.228810,-17867.828055,-12602.271152,-8289.546763,-10449.217015,-2159.156163,-147.722679,6706.707979,8448.490017,1293.763673,-83.841393,8338.094752,11975.192961,-2288.259839,-1139.603691,-0.004000,-0.014000,1.014000,192.000000,0.000000,0.000000,0.000000,0.000000,0.000000,0.000000,0.000000,0.000000,0.000000,1768316197.327508,0.000000
188.000000,7222.698000,10812.075235,-18031.286363,-12723.082331,-8386.843906,-10561.579235,-2258.800239,-266.186925,6597.497356,8458.145971,1344.166856,-34.265224,8346.409601,12019.248249,-2249.568969,-1125.320926,-0.002000,-0.022000,1.010000,192.000000,127.500000,120.000000,127.500000,40.000000,15.500000,72.000000,0.000000,0.000000,0.000000,1768316197.327525,0.000000
190.000000,7255.867989,10826.425055,-17969.439086,-12690.269970,-8352.913958,-10526.486996,-2220.377591,-219.158854,6744.437724,8415.878822,1227.021364,-162.161906,8299.605048,11926.801434,-2355.248017,-1130.037144,-0.002000,-0.022000,1.010000,192.000000,0.000000,0.000000,0.000000,0.000000,0.000000,0.000000,0.000000,0.000000,0.000000,1768316197.327552,0.000000
192.000000,7298.872745,10799.379444,-17900.707471,-12626.791015,-8306.869365,-10468.081888,-2176.903448,-165.492316,6621.592536,8478.150782,1369.089051,1.005829,8366.794391,12038.336639,-2225.362030,-1137.994365,-0.002000,-0.022000,1.010000,192.000000,0.000000,0.000000,0.000000,0.000000,0.000000,0.000000,0.000000,0.000000,0.000000,1768316197.327569,0.000000
194.000000,7203.877831,10827.788511,-18066.847988,-12774.670157,-8405.015875,-10599.331331,-2286.136423,-298.596954,6683.640979,8424.305430,1259.811373,-135.585682,8311.406769,11943.364077,-2326.257804,-1124.136284,-0.002000,-0.022000,1.010000,192.000000,0.000000,0.000000,0.000000,0.000000,0.000000,0.000000,0.000000,0.000000,0.000000,1768316197.327587,0.000000
196.000000,7314.988353,10810.152985,-17856.026334,-12613.648190,-8281.433079,-10451.295728,-2155.110497,-137.284414,6711.066569,8448.288852,1304.157234,-78.342864,8342.386287,11982.792554,-2281.599019,-1142.330604,-0.002000,-0.022000,1.010000,192.000000,0.000000,0.000000,0.000000,0.000000,0.000000,0.000000,0.000000,0.000000,0.000000,1768316197.327604,0.000000
198.000000,7233.695058,10818.534889,-18016.042473,-12729.698447,-8371.510610,-10558.025307,-2253.614635,-255.011052,6603.062940,8463.242169,1360.505982,-28.453771,8361.295862,12022.846880,-2237.767248,-1135.625081,0.002000,-0.022000,1.012000,192.000000,0.000000,8.000000,127.500000,40.000000,15.500000,80.000000,0.000000,0.000000,0.000000,1768316197.327621,0.000000
200.000000,7268.116745,10828.906098,-17961.615975,-12696.841383,-8345.582586,-10528.521005,-2220.690515,-214.643802,6753.691346,8419.253936,1238.353698,-155.724604,8310.400940,11926.242641,-2348.386031,-1133.903996,0.002000,-0.022000,1.012000,192.000000,0.000000,0.000000,0.000000,0.000000,0.000000,0.000000,0.000000,0.000000,0.000000,1768316197.327639,0.000000
202.000000,7300.906754,10808.208383,-17891.811477,-12625.561670,-8302.175498,-10462.002213,-2173.126003,-155.143458,6632.209615,8481.682358,1378.074453,6.034971,8382.909999,12038.649564,-2218.120065,-1135.401563,0.002000,-0.022000,1.012000,192.000000,0.000000,0.000000,0.000000,0.000000,0.000000,0.000000,0.000000,0.000000,0.000000,1768316197.327656,0.000000
204.000000,7222.072151,10836.684506,-18060.634203,-12767.003508,-8401.640761,-10596.179735,-2281.688426,-287.018751,6693.319284,8434.386067,1269.646140,-124.566272,8332.082132,11956.909234,-2320.535758,-1124.762133,0.002000,-0.022000,1.012000,192.000000,0.000000,0.000000,0.000000,0.000000,0.000000,0.000000,0.000000,0.000000,0.000000,1768316197.327673,0.000000
206.000000,7315.100111,10817.372598,-17855.445189,-12608.127309,-8282.640074,-10450.178140,-2153.747040,-132.389382,6720.923689,8460.649366,1310.013391,-72.509059,8342.989784,11984.200714,-2282.269571,-1139.022546,0.002000,-0.022000,1.012000,192.000000,0.000000,0.000000,0.000000,0.000000,0.000000,0.000000,0.000000,0.000000,0.000000,1768316197.327690,0.000000
208.000000,7247.374326,10820.837119,-18015.640141,-12722.992924,-8374.304578,-10556.304223,-2252.899379,-255.279273,6607.130957,8472.294625,1363.277598,-26.643279,8351.528150,12024.635020,-2241.187065,-1128.539578,0.002000,-0.022000,1.012000,192.000000,0.000000,0.000000,127.500000,40.000000,15.500000,64.000000,0.000000,0.000000,0.000000,1768316197.327707,0.000000
210.000000,7264.384003,10834.829311,-17960.856016,-12690.158211,-8345.470827,-10528.476301,-2219.528224,-217.393067,6754.473657,8429.915718,1239.091306,-154.830534,8309.640981,11933.484606,-2347.715479,-1128.137246,0.002000,-0.022000,1.012000,192.000000,0.000000,0.000000,0.000000,0.000000,0.000000,0.000000,0.000000,0.000000,0.000000,1768316197.327724,0.000000
212.000000,7309.489824,10813.930430,-17890.157448,-12620.621934,-8298.107481,-10464.505609,-2174.511811,-158.719737,6627.985135,8488.633751,1379.527316,4.090369,8375.802145,12043.566947,-2221.986916,-1140.006022,0.002000,-0.022000,1.012000,192.000000,0.000000,0.000000,0.000000,0.000000,0.000000,0.000000,0.000000,0.000000,0.000000,1768316197.327741,0.000000
214.000000,7213.891412,10824.703971,-18062.020011,-12766.735288,-8402.311313,-10597.789061,-2283.878897,-289.455091,6691.575848,8434.944860,1274.630579,-127.516702,8318.671086,11958.183284,-2323.463836,-1123.644546,0.002000,-0.022000,1.012000,192.000000,0.000000,0.000000,0.000000,0.000000,0.000000,0.000000,0.000000,0.000000,0.000000,1768316197.327758,0.000000
216.000000,7329.896966,10825.933316,-17853.768808,-12609.468414,-8279.533181,-10446.758324,-2155.915160,-131.048278,6728.366819,8461.409326,1309.074618,-77.001760,8354.076249,11988.224028,-2285.376464,-1139.447229,0.002000,-0.022000,1.012000,192.000000,0.000000,0.000000,0.000000,0.000000,0.000000,0.000000,0.000000,0.000000,0.000000,1768316197.327775,0.000000
218.000000,7251.129419,10826.872090,-18010.409833,-12725.518671,-8372.494086,-10557.600624,-2250.418335,-244.528084,6621.100798,8473.702785,1368.664368,-22.642317,8367.017909,12029.731218,-2238.817780,-1131.914691,-0.002000,-0.021000,1.011000,192.000000,127.500000,104.000000,127.500000,48.000000,15.500000,72.000000,0.000000,0.000000,0.000000,1768316197.327793,0.000000
