Sample_index,EXG Channel 0,EXG Channel 1,EXG Channel 2,EXG Channel 3,EXG Channel 4,EXG Channel 5,EXG Channel 6,EXG Channel 7,EXG Channel 8,EXG Channel 9,EXG Channel 10,EXG Channel 11,EXG Channel 12,EXG Channel 13,EXG Channel 14,EXG Channel 15,Accel Channel 0,Accel Channel 1,Accel Channel 2,Not Used,Digital Channel 0 (D11),Digital Channel 1 (D12),Digital Channel 2 (D13),Digital Channel 3 (D17),Not Used,Digital Channel 4 (D18),Analog Channel 0,Analog Channel 1,Analog Channel 2,Timestamp,Marker Channel
210.000000,15603.573990,14558.674640,2683.215163,-3532.402638,7347.510141,-9285.629903,618.293955,-17312.744834,13687.783621,11709.967161,-8715.481605,308.699943,21879.496798,13112.762643,-375.665769,3426.008335,0.002000,-0.016000,1.000000,192.000000,0.000000,0.000000,0.000000,0.000000,0.000000,0.000000,0.000000,0.000000,0.000000,1769523337.899414,101.000000
212.000000,15620.404854,14567.369469,2773.225638,-3434.054963,7363.066955,-9221.525099,707.231546,-17194.392347,13626.964525,11725.836900,-8664.206703,339.053612,21915.170183,13149.128932,-334.203283,3470.354196,0.002000,-0.016000,1.000000,192.000000,0.000000,0.000000,0.000000,0.000000,0.000000,0.000000,0.000000,0.000000,0.000000,1769523337.899469,0.000000
214.000000,15595.929694,14552.393800,2684.355102,-3520.109179,7335.507254,-9282.970045,624.530092,-17299.557304,13581.299911,11711.509432,-8659.714003,345.714431,21896.618235,13147.877234,-333.085696,3466.464992,0.002000,-0.016000,1.000000,192.000000,0.000000,0.000000,0.000000,0.000000,0.000000,0.000000,0.000000,0.000000,0.000000,1769523337.899510,0.000000
216.000000,15637.548642,14593.588065,2735.898225,-3463.425155,7369.951292,-9229.638783,676.520249,-17228.746978,13736.957459,11725.859252,-8731.016067,301.793254,21885.241197,13118.037655,-394.105958,3431.462161,0.008000,-0.020000,1.006000,192.000000,0.000000,32.000000,127.500000,48.000000,15.500000,56.000000,0.000000,0.000000,0.000000,1769523337.899550,0.000000
218.000000,15608.245505,14557.311184,2733.439533,-3462.821658,7347.465437,-9232.432751,675.134441,-17231.093911,13545.358306,11735.604612,-8613.825871,379.040882,21930.011741,13179.907284,-310.398675,3491.007208,0.008000,-0.020000,1.006000,192.000000,0.000000,0.000000,0.000000,0.000000,0.000000,0.000000,0.000000,0.000000,0.000000,1769523337.899588,0.000000
220.000000,15605.943275,14566.296585,2670.675834,-3529.295746,7348.828894,-9283.551190,613.354220,-17313.929476,13680.809877,11708.201374,-8727.976230,303.536690,21879.720316,13116.361274,-381.946609,3439.061754,0.008000,-0.020000,1.006000,192.000000,0.000000,0.000000,0.000000,0.000000,0.000000,0.000000,0.000000,0.000000,0.000000,1769523337.899626,0.000000
222.000000,15621.723607,14570.476362,2765.558990,-3431.260995,7367.134972,-9215.646591,703.007067,-17195.532286,13632.954792,11735.716371,-8664.027889,346.362632,21912.331511,13159.835417,-338.248949,3465.123888,0.008000,-0.020000,1.006000,192.000000,0.000000,0.000000,0.000000,0.000000,0.000000,0.000000,0.000000,0.000000,0.000000,1769523337.899639,0.000000
224.000000,15590.922903,14545.487111,2685.137413,-3520.891490,7335.730772,-9270.162495,621.020868,-17305.435813,13574.236759,11707.284952,-8664.072593,339.992385,21893.488990,13147.251385,-328.056553,3472.187039,0.008000,-0.020000,1.006000,192.000000,0.000000,0.000000,0.000000,0.000000,0.000000,0.000000,0.000000,0.000000,0.000000,1769523337.899651,0.000000
226.000000,15627.780930,14583.865056,2737.909882,-3471.360024,7374.667510,-9244.055658,671.848735,-17237.218289,13732.174186,11718.080845,-8736.402838,294.618344,21897.758174,13118.171766,-385.187612,3429.338745,0.004000,-0.024000,1.004000,192.000000,0.000000,16.000000,127.500000,32.000000,15.500000,48.000000,0.000000,0.000000,0.000000,1769523337.899662,0.000000
228.000000,15597.583723,14550.404495,2733.975975,-3467.694338,7347.934824,-9237.439542,672.340473,-17234.223155,13536.328201,11724.026409,-8623.839453,369.161411,21913.985540,13177.940330,-296.205318,3482.826469,0.004000,-0.024000,1.004000,192.000000,0.000000,0.000000,0.000000,0.000000,0.000000,0.000000,0.000000,0.000000,0.000000,1769523337.899674,0.000000
230.000000,15602.724624,14570.766934,2672.575733,-3526.568833,7350.706440,-9271.816524,615.321173,-17308.945037,13680.496953,11711.509432,-8727.998582,306.889451,21869.974955,13127.447740,-385.634647,3436.781876,0.004000,-0.024000,1.004000,192.000000,0.000000,0.000000,0.000000,0.000000,0.000000,0.000000,0.000000,0.000000,0.000000,1769523337.899685,0.000000
232.000000,15619.890764,14575.885484,2765.246065,-3429.763428,7366.330310,-9215.579535,705.756331,-17188.759707,13633.334772,11740.164368,-8665.816029,350.564760,21914.454927,13155.342717,-338.785391,3465.257998,0.004000,-0.024000,1.004000,192.000000,0.000000,0.000000,0.000000,0.000000,0.000000,0.000000,0.000000,0.000000,0.000000,1769523337.899696,0.000000
234.000000,15591.079365,14556.551225,2680.577657,-3515.147092,7339.284699,-9272.285911,625.625327,-17292.717671,13573.230931,11717.767920,-8660.496314,353.269321,21891.879665,13147.005516,-327.721277,3470.801231,0.004000,-0.024000,1.004000,192.000000,0.000000,0.000000,0.000000,0.000000,0.000000,0.000000,0.000000,0.000000,0.000000,1769523337.899708,0.000000
236.000000,15628.876165,14595.979702,2733.081905,-3465.012129,7374.980435,-9235.964326,674.754462,-17228.098777,13734.096436,11731.894223,-8731.865434,311.784483,21888.705717,13118.529393,-388.898002,3438.614719,0.002000,-0.020000,1.004000,192.000000,0.000000,8.000000,127.500000,48.000000,15.500000,48.000000,0.000000,0.000000,0.000000,1769523337.899719,0.000000
238.000000,15600.869429,14558.317013,2740.279167,-3462.352271,7355.892045,-9235.159664,678.889534,-17224.656609,13542.586689,11736.811607,-8616.373970,383.332417,21929.631761,13182.589493,-298.462844,3487.766205,0.002000,-0.020000,1.004000,192.000000,0.000000,0.000000,0.000000,0.000000,0.000000,0.000000,0.000000,0.000000,0.000000,1769523337.899730,0.000000
240.000000,15597.762537,14563.189693,2679.370663,-3534.816627,7355.109734,-9273.425850,613.980068,-17309.727348,13682.083926,11706.435586,-8722.276535,306.531823,21889.264511,13110.572172,-384.897040,3441.676908,0.002000,-0.020000,1.004000,192.000000,0.000000,0.000000,0.000000,0.000000,0.000000,0.000000,0.000000,0.000000,0.000000,1769523337.899741,0.000000
242.000000,15610.324217,14565.156646,2774.946722,-3436.200730,7376.612112,-9213.545527,704.437578,-17194.369995,13638.699190,11733.816473,-8660.317500,341.914635,21923.082700,13153.398115,-327.855388,3461.234684,0.002000,-0.020000,1.004000,192.000000,0.000000,0.000000,0.000000,0.000000,0.000000,0.000000,0.000000,0.000000,0.000000,1769523337.899752,0.000000
244.000000,15578.875313,14543.743675,2690.568887,-3520.444455,7348.068934,-9273.001167,623.144284,-17302.127755,13569.162913,11707.173193,-8660.652776,338.651280,21903.591979,13148.212510,-322.580376,3475.450394,0.002000,-0.020000,1.004000,192.000000,0.000000,0.000000,0.000000,0.000000,0.000000,0.000000,0.000000,0.000000,0.000000,1769523337.899763,0.000000
246.000000,15611.307694,14579.931149,2733.931271,-3471.896466,7379.249618,-9238.713591,668.183049,-17243.700295,13726.228622,11716.695036,-8737.363963,291.623210,21899.792182,13107.174707,-381.231353,3434.010259,0.002000,-0.022000,1.006000,192.000000,0.000000,8.000000,127.500000,40.000000,15.500000,56.000000,0.000000,0.000000,0.000000,1769523337.899774,0.000000
248.000000,15584.865580,14548.146969,2733.193664,-3462.955768,7346.906644,-9233.952669,670.351168,-17237.799434,13530.516747,11721.634772,-8628.041581,365.205153,21918.590000,13168.083211,-295.735931,3496.438682,0.002000,-0.022000,1.006000,192.000000,0.000000,0.000000,0.000000,0.000000,0.000000,0.000000,0.000000,0.000000,0.000000,1769523337.899786,0.000000
250.000000,15588.106583,14562.474437,2668.708881,-3527.172330,7345.744353,-9276.264522,610.493196,-17317.483403,13672.875008,11703.865135,-8730.680791,303.871966,21881.307290,13111.376835,-380.471394,3445.230835,0.002000,-0.022000,1.006000,192.000000,0.000000,0.000000,0.000000,0.000000,0.000000,0.000000,0.000000,0.000000,0.000000,1769523337.899796,0.000000
252.000000,15603.842211,14566.117771,2764.933141,-3429.741076,7366.196199,-9214.707817,703.029418,-17197.342777,13628.953830,11728.474406,-8673.549732,342.004042,21919.171145,13149.687725,-334.695021,3470.912989,0.002000,-0.022000,1.006000,192.000000,0.000000,0.000000,0.000000,0.000000,0.000000,0.000000,0.000000,0.000000,0.000000,1769523337.899807,0.000000
254.000000,15578.093002,14548.906928,2684.466861,-3511.995496,7337.407152,-9261.445315,625.871196,-17297.858572,13565.564283,11706.189717,-8666.173657,344.775658,21896.975863,13151.989955,-324.815550,3469.661292,0.002000,-0.022000,1.006000,192.000000,0.000000,0.000000,0.000000,0.000000,0.000000,0.000000,0.000000,0.000000,0.000000,1769523337.899818,0.000000
0.000000,15609.318389,14581.585179,2732.098428,-3470.108327,7372.454688,-9240.412324,669.457098,-17242.582708,13728.106168,11720.651295,-8738.548605,299.736893,21885.241197,13124.206737,-394.351827,3438.525312,0.002000,-0.022000,1.006000,192.000000,0.000000,0.000000,127.500000,40.000000,15.500000,80.000000,0.000000,0.000000,0.000000,1769523337.899829,0.000000
2.000000,15588.374804,14551.544434,2738.803952,-3466.710862,7352.405173,-9236.567823,672.116956,-17233.865527,13531.388465,11718.192603,-8627.572194,364.668711,21923.641494,13159.500141,-295.244193,3498.360932,0.002000,-0.022000,1.006000,192.000000,0.000000,0.000000,0.000000,0.000000,0.000000,0.000000,0.000000,0.000000,0.000000,1769523337.899840,0.000000
4.000000,15596.197915,14569.559940,2679.571829,-3531.419162,7358.417792,-9266.496809,613.175406,-17308.922685,13677.568874,11702.725196,-8723.908213,304.564870,21888.415144,13109.320475,-372.514173,3440.693431,0.002000,-0.022000,1.006000,192.000000,0.000000,0.000000,0.000000,0.000000,0.000000,0.000000,0.000000,0.000000,0.000000,1769523337.899852,0.000000
6.000000,15615.286304,14576.779554,2771.795126,-3428.757599,7374.131068,-9204.336608,703.364695,-17188.960873,13644.577699,11734.576432,-8662.373860,349.693042,21924.334398,13157.153208,-340.372365,3469.705995,0.002000,-0.022000,1.006000,192.000000,0.000000,0.000000,0.000000,0.000000,0.000000,0.000000,0.000000,0.000000,0.000000,1769523337.899863,0.000000
8.000000,15577.020118,14543.520158,2689.205431,-3520.936194,7342.570405,-9278.678510,620.529130,-17302.060700,13574.750850,11707.374359,-8661.479790,349.156600,21906.698871,13152.928728,-321.507492,3482.245324,0.002000,-0.022000,1.006000,192.000000,0.000000,0.000000,0.000000,0.000000,0.000000,0.000000,0.000000,0.000000,0.000000,1769523337.899874,0.000000
10.000000,15616.225078,14585.228513,2736.836998,-3472.142335,7382.065938,-9243.943899,666.663130,-17241.420417,13729.760197,11710.995342,-8743.980079,294.953620,21892.684328,13109.320475,-365.965112,3434.054963,0.006000,-0.021000,1.008000,192.000000,0.000000,40.000000,127.500000,48.000000,15.500000,72.000000,0.000000,0.000000,0.000000,1769523337.899886,0.000000
12.000000,15590.274702,14550.672716,2747.834056,-3462.419327,7361.390574,-9220.943954,675.112090,-17230.915097,13544.866567,11723.065284,-8621.984258,370.658978,21926.390758,13181.158981,-285.409425,3490.783690,0.006000,-0.021000,1.008000,192.000000,0.000000,0.000000,0.000000,0.000000,0.000000,0.000000,0.000000,0.000000,0.000000,1769523337.899897,0.000000
14.000000,15590.677034,14564.351984,2685.696207,-3527.440551,7361.479981,-9268.262597,615.969374,-17307.693339,13679.915807,11701.182926,-8722.365942,305.302478,21891.566740,13129.437045,-363.417013,3446.102553,0.006000,-0.021000,1.008000,192.000000,0.000000,0.000000,0.000000,0.000000,0.000000,0.000000,0.000000,0.000000,0.000000,1769523337.899909,0.000000
16.000000,15597.360205,14560.686297,2777.494821,-3429.383448,7377.953217,-9210.840966,706.382180,-17190.279626,13644.108313,11728.764979,-8662.731488,345.468562,21925.586096,13159.298975,-332.862178,3468.633112,0.006000,-0.021000,1.008000,192.000000,0.000000,0.000000,0.000000,0.000000,0.000000,0.000000,0.000000,0.000000,0.000000,1769523337.899920,0.000000
18.000000,15543.693667,14514.954628,2691.552364,-3512.017848,7347.912472,-9265.558036,623.881891,-17302.284217,13567.732402,11694.790327,-8659.937520,343.188684,21895.567703,13149.397153,-319.629946,3478.289065,0.006000,-0.021000,1.008000,192.000000,0.000000,0.000000,0.000000,0.000000,0.000000,0.000000,0.000000,0.000000,0.000000,1769523337.899932,0.000000
20.000000,15560.837455,14529.259745,2732.210187,-3463.983949,7375.762746,-9231.784550,667.020758,-17249.310583,13722.473529,11692.555152,-8747.019916,286.906992,21891.253816,13118.283524,-387.154566,3446.080201,0.007000,-0.017500,1.006000,192.000000,0.000000,32.000000,127.500000,72.000000,15.500000,48.000000,0.000000,0.000000,0.000000,1769523337.899943,0.000000
22.000000,15507.707358,14468.395945,2738.982766,-3458.954806,7364.206894,-9208.091701,672.809860,-17245.644897,13527.499262,11686.386071,-8633.026020,356.778545,21933.565668,13181.226037,-304.810739,3501.780749,0.007000,-0.017500,1.006000,192.000000,0.000000,0.000000,0.000000,0.000000,0.000000,0.000000,0.000000,0.000000,0.000000,1769523337.899955,0.000000
24.000000,15484.238027,14456.638927,2674.386224,-3532.424990,7366.240903,-9259.903045,608.146263,-17333.643715,13652.154941,11657.552321,-8741.007297,278.838012,21888.415144,13114.930763,-369.183763,3449.187094,0.007000,-0.017500,1.006000,192.000000,0.000000,0.000000,0.000000,0.000000,0.000000,0.000000,0.000000,0.000000,0.000000,1769523337.899966,0.000000
26.000000,15485.020338,14439.651601,2774.231467,-3436.670117,7391.856002,-9198.614561,700.973058,-17214.911248,13615.095748,11668.169399,-8686.960779,308.029390,21931.531660,13151.386458,-330.336431,3470.756527,0.007000,-0.017500,1.006000,192.000000,0.000000,0.000000,0.000000,0.000000,0.000000,0.000000,0.000000,0.000000,0.000000,1769523337.899977,0.000000
28.000000,15427.710465,14389.404880,2687.193774,-3525.183025,7351.756972,-9262.048812,617.578699,-17330.134491,13537.177567,11629.210309,-8683.295093,304.386056,21918.835869,13138.824777,-315.696039,3483.094690,0.007000,-0.017500,1.006000,192.000000,0.000000,0.000000,0.000000,0.000000,0.000000,0.000000,0.000000,0.000000,0.000000,1769523337.899988,0.000000
30.000000,15451.448018,14414.952924,2731.629042,-3476.769147,7392.906534,-9225.928393,662.461002,-17274.746868,13692.902171,11633.501844,-8770.086917,250.004262,21914.410223,13102.257324,-380.829022,3444.739097,0.006500,-0.012750,1.005000,192.000000,0.000000,24.000000,127.500000,96.000000,15.500000,48.000000,0.000000,0.000000,0.000000,1769523337.899999,0.000000
32.000000,15414.053549,14365.957900,2739.116876,-3465.615626,7374.265179,-9219.647553,669.032415,-17268.734249,13499.112546,11642.151969,-8655.824799,325.419048,21926.793090,13171.413621,-293.612515,3500.014961,0.006500,-0.012750,1.005000,192.000000,0.000000,0.000000,0.000000,0.000000,0.000000,0.000000,0.000000,0.000000,0.000000,1769523337.900011,0.000000
34.000000,15404.419947,14364.907368,2670.474669,-3540.873950,7369.660720,-9268.530818,600.032580,-17362.209244,13625.645772,11606.411529,-8763.716670,249.423116,21878.334508,13111.220373,-354.945702,3452.048117,0.006500,-0.012750,1.005000,192.000000,0.000000,0.000000,0.000000,0.000000,0.000000,0.000000,0.000000,0.000000,0.000000,1769523337.900022,0.000000
36.000000,15435.488872,14380.084202,2772.219810,-3436.938338,7398.047435,-9195.977056,696.323895,-17236.324219,13598.443699,11636.072294,-8712.777044,282.704864,21931.554011,13145.060914,-315.383114,3473.058757,0.006500,-0.012750,1.005000,192.000000,0.000000,0.000000,0.000000,0.000000,0.000000,0.000000,0.000000,0.000000,0.000000,1769523337.900033,0.000000
38.000000,15398.854363,14349.216443,2686.813794,-3520.533862,7358.529551,-9246.290832,616.729333,-17343.344372,13526.001695,11613.094701,-8697.801375,291.086768,21909.403433,13141.395228,-308.185853,3482.535897,0.006500,-0.012750,1.005000,192.000000,0.000000,0.000000,0.000000,0.000000,0.000000,0.000000,0.000000,0.000000,0.000000,1769523337.900043,0.000000
40.000000,15447.111779,14396.333921,2731.360821,-3472.745833,7394.739377,-9212.830271,659.354110,-17285.810981,13686.263703,11620.359018,-8780.122850,238.180189,21891.879665,13098.993969,-377.878592,3443.129771,0.005250,-0.013375,1.004500,192.000000,0.000000,16.000000,127.500000,72.000000,15.500000,48.000000,0.000000,0.000000,0.000000,1769523337.900055,0.000000
42.000000,15435.801796,14378.787801,2737.373440,-3458.194847,7360.697670,-9203.554297,669.278284,-17269.248339,13504.052282,11643.269556,-8655.489523,322.356859,21951.178843,13167.166789,-296.987629,3501.892507,0.005250,-0.013375,1.004500,192.000000,0.000000,0.000000,0.000000,0.000000,0.000000,0.000000,0.000000,0.000000,0.000000,1769523337.900066,0.000000
44.000000,15437.165253,14391.170668,2665.557285,-3533.497874,7349.097115,-9268.664929,600.703132,-17357.761247,13626.070455,11620.649591,-8764.007242,252.328843,21870.645508,13104.492498,-371.620103,3460.586484,0.005250,-0.013375,1.004500,192.000000,0.000000,0.000000,0.000000,0.000000,0.000000,0.000000,0.000000,0.000000,0.000000,1769523337.900077,0.000000
46.000000,15483.723937,14427.291087,2768.509420,-3428.958765,7384.256409,-9202.973152,697.575593,-17225.058940,13605.685664,11655.853588,-8706.697369,291.690265,21917.204191,13144.077437,-326.760152,3481.954751,0.005250,-0.013375,1.004500,192.000000,0.000000,0.000000,0.000000,0.000000,0.000000,0.000000,0.000000,0.000000,0.000000,1769523337.900095,0.000000
48.000000,15468.256529,14417.188098,2688.937210,-3507.636906,7351.578158,-9239.071219,621.400848,-17321.283200,13542.474931,11650.466818,-8683.496259,310.733951,21922.814479,13157.108504,-315.852501,3486.849783,0.005250,-0.013375,1.004500,192.000000,0.000000,0.000000,0.000000,0.000000,0.000000,0.000000,0.000000,0.000000,0.000000,1769523337.900106,0.000000
50.000000,15518.659713,14471.122857,2731.316117,-3466.219123,7389.285551,-9223.849681,660.806973,-17264.353307,13713.108148,11666.381260,-8759.402783,266.253980,21899.479258,13113.343789,-389.702665,3449.768239,0.004625,-0.016688,1.002250,192.000000,0.000000,16.000000,127.500000,48.000000,15.500000,32.000000,0.000000,0.000000,0.000000,1769523337.900117,0.000000
52.000000,15506.880344,14452.794427,2746.895283,-3455.333824,7375.315711,-9219.580498,675.760290,-17241.599231,13528.393332,11683.010958,-8637.541072,345.110934,21953.637535,13182.410679,-289.946829,3500.551403,0.004625,-0.016688,1.002250,192.000000,0.000000,0.000000,0.000000,0.000000,0.000000,0.000000,0.000000,0.000000,0.000000,1769523337.900129,0.000000
54.000000,15508.668483,14472.441610,2677.761337,-3529.005173,7364.117487,-9273.492905,609.196795,-17324.568906,13660.313327,11662.626167,-8732.714800,286.258791,21904.307235,13117.925896,-362.969978,3449.321204,0.004625,-0.016688,1.002250,192.000000,0.000000,0.000000,0.000000,0.000000,0.000000,0.000000,0.000000,0.000000,0.000000,1769523337.900140,0.000000
56.000000,15545.906490,14498.481393,2779.059443,-3425.047210,7390.134918,-9197.698140,705.823386,-17193.811201,13634.608821,11694.857382,-8680.791698,325.039068,21931.419901,13149.508911,-331.990460,3477.462051,0.004625,-0.016688,1.002250,192.000000,0.000000,0.000000,0.000000,0.000000,0.000000,0.000000,0.000000,0.000000,0.000000,1769523337.900151,0.000000
58.000000,15520.403149,14477.113125,2701.409483,-3510.028542,7355.355603,-9251.521141,629.916862,-17294.818735,13556.668288,11682.027481,-8661.546846,339.724164,21925.809613,13153.487522,-311.091579,3481.887696,0.004625,-0.016688,1.002250,192.000000,0.000000,0.000000,0.000000,0.000000,0.000000,0.000000,0.000000,0.000000,0.000000,1769523337.900162,0.000000
60.000000,15558.669336,14520.006123,2738.491027,-3473.416385,7390.358435,-9232.611565,664.874991,-17249.265879,13725.133386,11690.945827,-8742.996602,286.214088,21903.167296,13112.136795,-372.737691,3437.899463,0.006313,-0.017344,1.002125,192.000000,0.000000,32.000000,127.500000,56.000000,15.500000,40.000000,0.000000,0.000000,0.000000,1769523337.900173,0.000000
62.000000,15546.375876,14498.391986,2750.471562,-3455.490286,7372.119411,-9210.773910,679.873011,-17227.852908,13533.131901,11703.775728,-8629.159168,361.785336,21946.619087,13175.660452,-285.342370,3501.668990,0.006313,-0.017344,1.002125,192.000000,0.000000,0.000000,0.000000,0.000000,0.000000,0.000000,0.000000,0.000000,0.000000,1769523337.900185,0.000000
64.000000,15544.498330,14508.226753,2672.463974,-3529.563967,7359.222455,-9263.322862,608.258022,-17320.277371,13662.503798,11686.900161,-8726.925698,301.882661,21911.191572,13121.189251,-362.791164,3452.741021,0.006313,-0.017344,1.002125,192.000000,0.000000,0.000000,0.000000,0.000000,0.000000,0.000000,0.000000,0.000000,0.000000,1769523337.900196,0.000000
66.000000,15568.392345,14521.861317,2768.822344,-3427.282384,7378.713176,-9198.100471,702.291811,-17195.264065,13633.804158,11709.318961,-8682.445727,329.576472,21929.877630,13150.827664,-339.433591,3488.012074,0.006313,-0.017344,1.002125,192.000000,0.000000,0.000000,0.000000,0.000000,0.000000,0.000000,0.000000,0.000000,0.000000,1769523337.900208,0.000000
68.000000,15542.307859,14504.516364,2692.424082,-3505.737007,7350.035888,-9253.018707,627.458170,-17294.282293,13553.606099,11691.772841,-8663.647910,341.132324,21908.531715,13155.230958,-320.054629,3489.129661,0.006313,-0.017344,1.002125,192.000000,0.000000,0.000000,0.000000,0.000000,0.000000,0.000000,0.000000,0.000000,0.000000,1769523337.900219,0.000000
70.000000,15584.262083,14547.655230,2730.399696,-3466.040309,7382.490621,-9229.169396,663.310368,-17246.851891,13724.060503,11703.574562,-8743.465989,292.405521,21900.730956,13116.942420,-390.440272,3444.426172,0.007156,-0.016672,1.002063,192.000000,0.000000,32.000000,127.500000,64.000000,15.500000,40.000000,0.000000,0.000000,0.000000,1769523337.900230,0.000000
72.000000,15565.576025,14517.614486,2743.229597,-3449.142390,7360.384746,-9217.479434,675.492069,-17231.295077,13532.997791,11713.811661,-8630.075589,364.691063,21941.254668,13183.640025,-294.439530,3499.523222,0.007156,-0.016672,1.002063,192.000000,0.000000,0.000000,0.000000,0.000000,0.000000,0.000000,0.000000,0.000000,0.000000,1769523337.900242,0.000000
74.000000,15572.415659,14535.384123,2675.995550,-3519.684496,7354.886217,-9264.932187,610.470845,-17314.644732,13665.789505,11695.326769,-8726.076332,304.296649,21888.638662,13121.904507,-370.368406,3459.468896,0.007156,-0.016672,1.002063,192.000000,0.000000,0.000000,0.000000,0.000000,0.000000,0.000000,0.000000,0.000000,0.000000,1769523338.380295,0.000000
76.000000,15595.549714,14547.454065,2779.148850,-3419.906309,7384.457574,-9204.180146,706.650401,-17189.005576,13649.986821,11726.775673,-8673.035642,340.126495,21935.934953,13152.615804,-333.510379,3475.852725,0.007156,-0.016672,1.002063,192.000000,0.000000,0.000000,0.000000,0.000000,0.000000,0.000000,0.000000,0.000000,0.000000,1769523338.380356,0.000000
78.000000,15564.369031,14521.123710,2699.464881,-3503.725350,7346.817237,-9256.818504,630.296842,-17290.840124,13564.893730,11700.512374,-8655.891854,347.882551,21915.840735,13152.124065,-307.180024,3481.932400,0.007156,-0.016672,1.002063,192.000000,0.000000,0.000000,0.000000,0.000000,0.000000,0.000000,0.000000,0.000000,0.000000,1769523338.380403,0.000000
80.000000,15604.848040,14564.731963,2742.939024,-3467.537876,7386.469231,-9233.907966,669.770023,-17237.598269,13737.471549,11710.861231,-8736.827521,300.452149,21902.675557,13115.735425,-382.483051,3442.347460,0.007156,-0.016672,1.002063,192.000000,0.000000,0.000000,0.000000,0.000000,0.000000,0.000000,0.000000,0.000000,0.000000,1769523338.380466,0.000000
82.000000,15588.598322,14540.346210,2763.055594,-3450.259978,7369.101926,-9218.038227,686.489127,-17214.464213,13556.042439,11725.836900,-8610.495461,381.924258,21958.331401,13183.707080,-287.465785,3491.297780,0.007156,-0.016672,1.002063,192.000000,0.000000,0.000000,127.500000,48.000000,15.500000,56.000000,0.000000,0.000000,0.000000,1769523338.380519,0.000000
84.000000,15578.651795,14544.257765,2685.495041,-3527.597013,7345.297318,-9277.985606,611.901356,-17313.147165,13679.736993,11701.048815,-8713.492300,313.393809,21907.570589,13123.245612,-360.176010,3452.338690,0.007156,-0.016672,1.002063,192.000000,0.000000,0.000000,0.000000,0.000000,0.000000,0.000000,0.000000,0.000000,0.000000,1769523338.380543,0.000000
86.000000,15607.552601,14563.569673,2783.418034,-3420.532157,7379.316673,-9191.126727,706.896270,-17184.535227,13658.279319,11726.976839,-8671.962759,342.339318,21950.552994,13157.443781,-332.057516,3485.106347,0.007156,-0.016672,1.002063,192.000000,0.000000,0.000000,0.000000,0.000000,0.000000,0.000000,0.000000,0.000000,0.000000,1769523338.380553,0.000000
88.000000,15575.410792,14538.468664,2698.771977,-3500.171423,7345.051449,-9244.301527,628.888682,-17286.839162,13573.566207,11712.425853,-8649.655718,359.639568,21916.064252,13167.211493,-311.650373,3491.700112,0.007156,-0.016672,1.002063,192.000000,0.000000,0.000000,0.000000,0.000000,0.000000,0.000000,0.000000,0.000000,0.000000,1769523338.380565,0.000000
90.000000,15614.079310,14579.797039,2734.825341,-3458.775992,7380.568371,-9225.704876,666.461964,-17239.162891,13744.087666,11721.500662,-8736.067562,307.425893,21907.771755,13124.407902,-394.284772,3454.171533,0.007156,-0.016672,1.002063,192.000000,0.000000,0.000000,0.000000,0.000000,0.000000,0.000000,0.000000,0.000000,0.000000,1769523338.380576,0.000000
92.000000,15591.280531,14546.314126,2752.729088,-3439.844065,7363.022251,-9207.644666,682.599924,-17219.426300,13553.740210,11731.983630,-8618.989124,381.231353,21944.450968,13190.479659,-299.066341,3508.419217,0.007156,-0.016672,1.002063,192.000000,0.000000,0.000000,127.500000,32.000000,15.500000,72.000000,0.000000,0.000000,0.000000,1769523338.380588,0.000000
94.000000,15585.178505,14552.572614,2682.946942,-3516.577603,7356.249673,-9255.879731,611.968411,-17312.811889,13678.038261,11708.961333,-8717.068579,317.081847,21906.788278,13135.583775,-360.354824,3460.519428,0.007156,-0.016672,1.002063,192.000000,0.000000,0.000000,0.000000,0.000000,0.000000,0.000000,0.000000,0.000000,0.000000,1769523338.380599,0.000000
96.000000,15620.762482,14576.667795,2783.708606,-3410.406817,7386.893915,-9184.108279,709.377314,-17179.729602,13665.789505,11740.074961,-8669.034680,347.055536,21943.959229,13169.983109,-332.839827,3482.625304,0.007156,-0.016672,1.002063,192.000000,0.000000,0.000000,0.000000,0.000000,0.000000,0.000000,0.000000,0.000000,0.000000,1769523338.380609,0.000000
98.000000,15590.945255,14552.214986,2703.845823,-3490.224897,7353.142780,-9238.423018,632.464961,-17278.278444,13584.786783,11724.786368,-8643.330174,366.389795,21938.438349,13176.308653,-313.349106,3494.739949,0.007156,-0.016672,1.002063,192.000000,0.000000,0.000000,0.000000,0.000000,0.000000,0.000000,0.000000,0.000000,0.000000,1769523338.380620,0.000000
100.000000,15628.786758,14592.492830,2740.860312,-3456.384356,7388.994979,-9219.558146,666.685482,-17230.803338,13754.771799,11734.911708,-8729.697314,315.316059,21928.089491,13135.874347,-378.795013,3448.874169,0.007156,-0.016672,1.002063,192.000000,0.000000,0.000000,0.000000,0.000000,0.000000,0.000000,0.000000,0.000000,0.000000,1769523338.380630,0.000000
102.000000,15606.882048,14561.960347,2757.177086,-3437.251262,7366.419717,-9206.080044,683.583401,-17207.758690,13565.988966,11744.858235,-8611.143662,390.954362,21966.579195,13198.459232,-286.124681,3503.837109,0.004000,-0.026000,1.008000,192.000000,0.000000,16.000000,127.500000,24.000000,15.500000,64.000000,0.000000,0.000000,0.000000,1769523338.380641,0.000000
104.000000,15606.502069,14574.857303,2686.925553,-3513.291897,7362.597568,-9250.738829,612.840129,-17299.222028,13692.566895,11727.088598,-8705.579782,330.269376,21904.262531,13146.223205,-361.427708,3463.849838,0.004000,-0.026000,1.008000,192.000000,0.000000,0.000000,0.000000,0.000000,0.000000,0.000000,0.000000,0.000000,0.000000,1769523338.380651,0.000000
106.000000,15636.766331,14594.549190,2789.296542,-3411.636163,7398.382711,-9174.541733,707.767988,-17173.024079,13682.419203,11754.514188,-8661.613901,359.684272,21941.187613,13181.740127,-332.750420,3484.167574,0.004000,-0.026000,1.008000,192.000000,0.000000,0.000000,0.000000,0.000000,0.000000,0.000000,0.000000,0.000000,0.000000,1769523338.380661,0.000000
108.000000,15606.725586,14569.470533,2712.741818,-3491.118966,7373.639330,-9226.598945,633.023755,-17270.634147,13600.276542,11742.667764,-8634.501235,376.761005,21947.535509,13191.060804,-314.667858,3497.600972,0.004000,-0.026000,1.008000,192.000000,0.000000,0.000000,0.000000,0.000000,0.000000,0.000000,0.000000,0.000000,0.000000,1769523338.380672,0.000000
110.000000,15645.081180,14607.781423,2748.191684,-3460.117097,7397.578048,-9208.426977,665.880819,-17226.645914,13766.014727,11747.831017,-8721.203652,319.451132,21927.173069,13142.512815,-378.660903,3451.444620,0.004000,-0.026000,1.008000,192.000000,0.000000,0.000000,0.000000,0.000000,0.000000,0.000000,0.000000,0.000000,0.000000,1769523338.380682,0.000000
112.000000,15617.588534,14570.968100,2764.329644,-3441.274576,7374.868676,-9200.670922,682.622276,-17205.612922,13578.505943,11756.503493,-8601.912391,392.541336,21975.005803,13210.328008,-282.302532,3504.552365,0.004000,-0.026000,1.006000,192.000000,0.000000,16.000000,127.500000,24.000000,15.500000,56.000000,0.000000,0.000000,0.000000,1769523338.380692,0.000000
114.000000,15612.715854,14577.852437,2690.412425,-3516.711714,7371.381804,-9248.391896,611.476673,-17300.004339,13699.607694,11732.162444,-8697.957837,329.464713,21919.171145,13147.407847,-362.031205,3465.190943,0.004000,-0.026000,1.006000,192.000000,0.000000,0.000000,0.000000,0.000000,0.000000,0.000000,0.000000,0.000000,0.000000,1769523338.380704,0.000000
116.000000,15629.434959,14585.697900,2785.295580,-3415.123035,7397.376883,-9183.951817,703.901136,-17180.757783,13676.317176,11752.904863,-8665.257235,350.140077,21939.824157,13171.503028,-330.135266,3488.794385,0.004000,-0.026000,1.006000,192.000000,0.000000,0.000000,0.000000,0.000000,0.000000,0.000000,0.000000,0.000000,0.000000,1769523338.380714,0.000000
118.000000,15602.881086,14561.222739,2708.785559,-3494.225859,7369.593664,-9229.974059,629.000441,-17277.563188,13590.821754,11736.945717,-8637.541072,367.485031,21944.383913,13194.681787,-309.504605,3501.378417,0.004000,-0.026000,1.006000,192.000000,0.000000,0.000000,0.000000,0.000000,0.000000,0.000000,0.000000,0.000000,0.000000,1769523338.380724,0.000000
120.000000,15639.828520,14600.494754,2743.117838,-3458.552475,7400.595534,-9209.499861,663.288017,-17231.876222,13763.064297,11743.025391,-8724.265841,313.013829,21926.658979,13136.254327,-371.977731,3450.371736,0.004000,-0.026000,1.006000,192.000000,0.000000,0.000000,0.000000,0.000000,0.000000,0.000000,0.000000,0.000000,0.000000,1769523338.380735,0.000000
122.000000,15617.230906,14568.688222,2760.351033,-3436.111323,7374.019310,-9197.340512,683.739863,-17205.367053,13568.872341,11752.234310,-8608.886136,389.255630,21970.088419,13203.488374,-286.929344,3511.459054,0.006000,-0.024000,1.008000,192.000000,0.000000,24.000000,127.500000,32.000000,15.500000,64.000000,0.000000,0.000000,0.000000,1769523338.380745,0.000000
124.000000,15613.721682,14575.729022,2687.014960,-3515.325906,7367.313786,-9253.979832,612.951888,-17297.858572,13687.917732,11729.569641,-8701.400006,330.202321,21917.785337,13148.368972,-358.834905,3460.541780,0.006000,-0.024000,1.008000,192.000000,0.000000,0.000000,0.000000,0.000000,0.000000,0.000000,0.000000,0.000000,0.000000,1769523338.380755,0.000000
126.000000,15638.219194,14590.794097,2784.267400,-3418.744018,7389.978455,-9189.159773,705.175186,-17175.594530,13674.216112,11752.122551,-8663.513799,353.068155,21940.271192,13176.800391,-332.415144,3474.243399,0.006000,-0.024000,1.008000,192.000000,0.000000,0.000000,0.000000,0.000000,0.000000,0.000000,0.000000,0.000000,0.000000,1769523338.380766,0.000000
128.000000,15602.232886,14556.975908,2708.919669,-3497.131586,7361.345871,-9241.664021,631.459133,-17275.171551,13581.054042,11730.374304,-8637.630479,370.033129,21948.228413,13182.388327,-314.198472,3490.806042,0.006000,-0.024000,1.008000,192.000000,0.000000,0.000000,0.000000,0.000000,0.000000,0.000000,0.000000,0.000000,0.000000,1769523338.380776,0.000000
130.000000,15635.000543,14594.750356,2742.179065,-3465.995606,7388.078557,-9219.178166,662.885685,-17234.401969,13749.653250,11732.408313,-8727.842120,313.818492,21916.600694,13137.975411,-385.768758,3444.806152,0.006000,-0.024000,1.008000,192.000000,0.000000,0.000000,0.000000,0.000000,0.000000,0.000000,0.000000,0.000000,0.000000,1769523338.380786,0.000000
132.000000,15615.286304,14568.777629,2764.620216,-3439.441733,7375.338063,-9200.089777,685.125671,-17203.556562,13562.367983,11748.166293,-8608.796729,392.474281,21965.171035,13202.639008,-294.841861,3502.585411,0.008000,-0.026000,1.010000,192.000000,0.000000,32.000000,127.500000,24.000000,15.500000,72.000000,0.000000,0.000000,0.000000,1769523338.380796,0.000000
134.000000,15610.145403,14576.712498,2687.774919,-3517.404618,7372.298225,-9249.040097,611.409618,-17299.467897,13678.127668,11727.736798,-8701.869393,332.951585,21920.087566,13151.855844,-359.393699,3459.513600,0.008000,-0.026000,1.010000,192.000000,0.000000,0.000000,0.000000,0.000000,0.000000,0.000000,0.000000,0.000000,0.000000,1769523338.380807,0.000000
136.000000,15638.867395,14594.549190,2786.368464,-3416.419437,7399.634409,-9186.432861,705.376352,-17174.543998,13670.952758,11754.894168,-8664.631386,358.544333,21949.748331,13175.749859,-336.080830,3479.719577,0.008000,-0.026000,1.010000,192.000000,0.000000,0.000000,0.000000,0.000000,0.000000,0.000000,0.000000,0.000000,0.000000,1769523338.380817,0.000000
138.000000,15598.164868,14561.379202,2706.170405,-3498.740911,7361.792906,-9242.736905,629.670993,-17276.557359,13572.716841,11734.017638,-8639.552729,371.441289,21956.811483,13181.516609,-305.235422,3495.566964,0.008000,-0.026000,1.010000,192.000000,0.000000,0.000000,0.000000,0.000000,0.000000,0.000000,0.000000,0.000000,0.000000,1769523338.380828,0.000000
140.000000,15631.759540,14598.460746,2736.814646,-3466.219123,7392.459499,-9217.837062,660.382290,-17236.793606,13737.851529,11732.564775,-8732.513634,312.253870,21921.361616,13131.582812,-373.318836,3448.784762,0.008000,-0.026000,1.010000,192.000000,0.000000,0.000000,0.000000,0.000000,0.000000,0.000000,0.000000,0.000000,0.000000,1769523338.380838,0.000000
142.000000,15612.537040,14567.145952,2759.747536,-3440.760486,7372.454688,-9198.547506,681.907020,-17207.512821,13556.824751,11745.171159,-8611.322476,388.808595,21956.923241,13198.816860,-290.818547,3507.301629,0.008000,-0.022000,1.012000,192.000000,0.000000,32.000000,127.500000,40.000000,15.500000,80.000000,0.000000,0.000000,0.000000,1769523338.380870,0.000000
144.000000,15607.574953,14573.560902,2683.103404,-3518.097522,7361.345871,-9253.599853,608.705057,-17304.854668,13678.999386,11728.116778,-8701.735282,329.732934,21912.577380,13148.436028,-366.881533,3464.878018,0.008000,-0.022000,1.012000,192.000000,0.000000,0.000000,0.000000,0.000000,0.000000,0.000000,0.000000,0.000000,0.000000,1769523338.380880,0.000000
146.000000,15629.636124,14582.434545,2784.893249,-3422.432056,7390.805470,-9193.920695,702.984715,-17183.864675,13664.873083,11746.042877,-8674.712023,345.669728,21935.018532,13168.217321,-335.253815,3481.641827,0.008000,-0.022000,1.012000,192.000000,0.000000,0.000000,0.000000,0.000000,0.000000,0.000000,0.000000,0.000000,0.000000,1769523338.380892,0.000000
148.000000,15599.327159,14555.031306,2710.417236,-3501.847804,7356.942577,-9241.619318,630.877987,-17278.144333,13575.711975,11728.407351,-8637.988107,368.021472,21942.752235,13181.494258,-296.518242,3480.725405,0.008000,-0.022000,1.012000,192.000000,0.000000,0.000000,0.000000,0.000000,0.000000,0.000000,0.000000,0.000000,0.000000,1769523338.380902,0.000000
150.000000,15637.101607,14595.063280,2740.502684,-3470.935341,7384.614037,-9230.286983,661.455174,-17235.810129,13743.707686,11723.780539,-8733.787684,305.861271,21917.114784,13125.860766,-378.213868,3444.247358,0.008000,-0.022000,1.012000,192.000000,0.000000,0.000000,0.000000,0.000000,0.000000,0.000000,0.000000,0.000000,0.000000,1769523338.380912,0.000000
152.000000,15618.817880,14567.704745,2765.514286,-3443.710916,7373.862848,-9219.669905,684.052787,-17203.333044,13566.905387,11741.371362,-8607.165051,387.847470,21958.398456,13194.480621,-291.980838,3501.221955,0.006000,-0.022000,1.010000,192.000000,0.000000,16.000000,127.500000,40.000000,15.500000,64.000000,0.000000,0.000000,0.000000,1769523338.380923,0.000000
154.000000,15617.767348,14577.763030,2687.014960,-3519.572737,7364.497467,-9259.523065,610.403789,-17297.947979,13680.161676,11720.405426,-8699.142480,330.738763,21926.346055,13140.545862,-364.176972,3460.631187,0.006000,-0.022000,1.010000,192.000000,0.000000,0.000000,0.000000,0.000000,0.000000,0.000000,0.000000,0.000000,0.000000,1769523338.380933,0.000000
156.000000,15640.767293,14589.698862,2781.339321,-3421.269765,7383.742319,-9188.176297,702.627087,-17176.600358,13675.624272,11746.400505,-8665.771325,353.783411,21930.950514,13173.425278,-341.847580,3478.423176,0.006000,-0.022000,1.010000,192.000000,0.000000,0.000000,0.000000,0.000000,0.000000,0.000000,0.000000,0.000000,0.000000,1769523338.380943,0.000000
158.000000,15604.892743,14557.802922,2709.322001,-3496.617496,7356.048507,-9234.042076,630.520359,-17273.137542,13571.263977,11720.874813,-8638.390438,366.903885,21929.631761,13178.208551,-308.565832,3492.728292,0.006000,-0.022000,1.010000,192.000000,0.000000,0.000000,0.000000,0.000000,0.000000,0.000000,0.000000,0.000000,0.000000,1769523338.380953,0.000000
160.000000,15633.815901,14588.067184,2736.322908,-3471.583542,7388.033854,-9225.570765,656.202514,-17242.448597,13744.512349,11723.981705,-8732.625393,308.610536,21921.473375,13127.403036,-375.397548,3443.062716,0.006000,-0.022000,1.010000,192.000000,0.000000,0.000000,0.000000,0.000000,0.000000,0.000000,0.000000,0.000000,0.000000,1769523338.380964,0.000000
162.000000,15609.698368,14557.713515,2758.629949,-3444.895559,7368.453725,-9206.348265,680.610619,-17211.759652,13553.941375,11727.714447,-8619.838490,377.208039,21940.070026,13194.346511,-290.237402,3508.396865,0.007000,-0.021000,1.011000,192.000000,0.000000,32.000000,127.500000,48.000000,15.500000,80.000000,0.000000,0.000000,0.000000,1769523338.380974,0.000000
164.000000,15607.574953,14565.558978,2685.763262,-3523.260775,7356.696708,-9261.601777,608.772112,-17305.212296,13670.639833,11708.670760,-8706.943239,320.144036,21909.694005,13135.293202,-362.657054,3462.732251,0.007000,-0.021000,1.011000,192.000000,0.000000,0.000000,0.000000,0.000000,0.000000,0.000000,0.000000,0.000000,0.000000,1769523338.380984,0.000000
166.000000,15631.714837,14577.070126,2785.429691,-3422.767332,7387.340949,-9200.693274,702.537680,-17182.590626,13669.701060,11729.435531,-8673.035642,339.411240,21918.947627,13158.539016,-338.606577,3467.470821,0.007000,-0.021000,1.011000,192.000000,0.000000,0.000000,0.000000,0.000000,0.000000,0.000000,0.000000,0.000000,0.000000,1769523338.380994,0.000000
168.000000,15596.555543,14546.135312,2711.914803,-3497.735083,7353.992147,-9249.375373,630.788580,-17276.736173,13566.391297,11709.900106,-8641.363220,358.186705,21925.250819,13169.066688,-313.393809,3489.755510,0.007000,-0.021000,1.011000,192.000000,0.000000,0.000000,0.000000,0.000000,0.000000,0.000000,0.000000,0.000000,0.000000,1769523338.381004,0.000000
170.000000,15636.274592,14588.782440,2741.597920,-3472.567019,7382.580028,-9234.600870,656.984825,-17239.520519,13741.696029,11714.459862,-8731.753675,302.284992,21906.229485,13124.229088,-382.952438,3437.430076,0.007000,-0.021000,1.011000,192.000000,0.000000,0.000000,0.000000,0.000000,0.000000,0.000000,0.000000,0.000000,0.000000,1769523338.381014,0.000000
172.000000,15617.744996,14560.887463,2768.017682,-3440.469914,7372.141763,-9207.041169,684.455119,-17204.361225,13562.569149,11730.977801,-8608.550860,384.450005,21948.764855,13194.502973,-285.588239,3494.471728,0.005500,-0.022500,1.010500,192.000000,0.000000,16.000000,127.500000,32.000000,15.500000,72.000000,0.000000,0.000000,0.000000,1769523338.381024,0.000000
174.000000,15610.279514,14567.883559,2691.082977,-3518.566909,7363.022251,-9262.361737,611.744894,-17302.127755,13675.825438,11709.028388,-8698.181355,326.514283,21911.973883,13147.832530,-363.528772,3455.534989,0.005500,-0.022500,1.010500,192.000000,0.000000,0.000000,0.000000,0.000000,0.000000,0.000000,0.000000,0.000000,0.000000,1769523338.381034,0.000000
176.000000,15642.644840,14591.084670,2789.430653,-3413.379599,7387.810336,-9188.444518,708.349134,-17172.644099,13682.821534,11738.532691,-8664.631386,350.609464,21939.980619,13170.519551,-341.489952,3471.471783,0.005500,-0.022500,1.010500,192.000000,0.000000,0.000000,0.000000,0.000000,0.000000,0.000000,0.000000,0.000000,0.000000,1769523338.381045,0.000000
178.000000,15602.232886,14555.880672,2714.798178,-3495.790481,7356.316728,-9246.737867,635.616557,-17270.030650,13578.058908,11719.801929,-8631.059066,373.430595,21925.094357,13182.522438,-311.136283,3482.468841,0.005500,-0.022500,1.010500,192.000000,0.000000,0.000000,0.000000,0.000000,0.000000,0.000000,0.000000,0.000000,0.000000,1769523338.381056,0.000000
180.000000,15633.570031,14589.967083,2738.893359,-3471.427080,7379.339025,-9232.276289,658.795316,-17238.984077,13747.999221,11718.326714,-8726.746884,310.666896,21895.455944,13126.933649,-377.543316,3428.489379,0.005500,-0.022500,1.010500,192.000000,0.000000,0.000000,0.000000,0.000000,0.000000,0.000000,0.000000,0.000000,0.000000,1769523338.381067,0.000000
182.000000,15610.480679,14558.071143,2765.156658,-3443.755620,7362.686975,-9218.105283,684.186898,-17204.674149,13557.562358,11725.568679,-8610.249592,383.332417,21936.449043,13190.524362,-287.085806,3499.746740,0.007750,-0.020250,1.007250,192.000000,0.000000,40.000000,127.500000,56.000000,15.500000,48.000000,0.000000,0.000000,0.000000,1769523338.381077,0.000000
184.000000,15608.759595,14566.564806,2690.926515,-3522.925499,7354.774458,-9273.939940,611.834301,-17299.222028,13668.024679,11704.133356,-8694.895648,326.246062,21898.741650,13134.712056,-355.035109,3456.563170,0.007750,-0.020250,1.007250,192.000000,0.000000,0.000000,0.000000,0.000000,0.000000,0.000000,0.000000,0.000000,0.000000,1769523338.381087,0.000000
186.000000,15637.235717,14584.334443,2790.302371,-3422.186187,7386.022197,-9205.118919,707.209195,-17173.962852,13676.116011,11731.693057,-8661.904474,348.284882,21930.548183,13157.890815,-333.845655,3470.890638,0.007750,-0.020250,1.007250,192.000000,0.000000,0.000000,0.000000,0.000000,0.000000,0.000000,0.000000,0.000000,0.000000,1769523338.381098,0.000000
188.000000,15604.691578,14555.008954,2716.608669,-3497.735083,7350.773496,-9256.282062,635.348336,-17266.029688,13573.856780,11711.151804,-8628.130988,370.748385,21920.489898,13169.871351,-303.670800,3483.407615,0.007750,-0.020250,1.007250,192.000000,0.000000,0.000000,0.000000,0.000000,0.000000,0.000000,0.000000,0.000000,0.000000,1769523338.381108,0.000000
190.000000,15641.639011,14596.180868,2744.213074,-3472.119984,7384.055243,-9236.210196,661.544581,-17231.093911,13750.815541,11716.382112,-8720.019009,313.773789,21906.274188,13122.575059,-380.381987,3438.502960,0.007750,-0.020250,1.007250,192.000000,0.000000,0.000000,0.000000,0.000000,0.000000,0.000000,0.000000,0.000000,0.000000,1769523338.381118,0.000000
192.000000,15623.847023,14567.861207,2769.537600,-3437.452428,7364.564522,-9208.784605,688.836061,-17195.219361,13574.080297,11737.169234,-8598.224354,393.524813,21950.307125,13198.168659,-296.428835,3495.924592,0.006875,-0.021125,1.005625,192.000000,0.000000,24.000000,127.500000,40.000000,15.500000,48.000000,0.000000,0.000000,0.000000,1769523338.381128,0.000000
194.000000,15612.358226,14568.554112,2692.401730,-3524.356010,7361.658795,-9262.026460,610.381438,-17298.551476,13678.887627,11718.170252,-8689.508878,335.499684,21888.415144,13152.481693,-365.071042,3459.245379,0.006875,-0.021125,1.005625,192.000000,0.000000,0.000000,0.000000,0.000000,0.000000,0.000000,0.000000,0.000000,0.000000,1769523338.862101,0.000000
196.000000,15640.655534,14591.017615,2795.487976,-3422.923794,7394.180583,-9197.653436,706.002200,-17170.766553,13684.632025,11741.371362,-8661.904474,351.503533,21930.347017,13175.414583,-336.013774,3464.319225,0.006875,-0.021125,1.005625,192.000000,0.000000,0.000000,0.000000,0.000000,0.000000,0.000000,0.000000,0.000000,0.000000,1769523338.862154,0.000000
198.000000,15604.982150,14559.412248,2722.598937,-3496.751606,7359.356565,-9248.369545,636.331813,-17265.470894,13581.009338,11728.630868,-8620.441988,378.347978,21928.603581,13180.287263,-298.909879,3482.580600,0.006875,-0.021125,1.005625,192.000000,0.000000,0.000000,0.000000,0.000000,0.000000,0.000000,0.000000,0.000000,0.000000,1769523338.862195,0.000000
200.000000,15632.318334,14590.190600,2742.156713,-3477.439699,7387.408005,-9241.529911,655.151982,-17242.113321,13746.211081,11720.293667,-8726.009277,310.018696,21896.081793,13125.234917,-376.135156,3444.336765,0.006875,-0.021125,1.005625,192.000000,0.000000,0.000000,0.000000,0.000000,0.000000,0.000000,0.000000,0.000000,0.000000,1769523338.862232,0.000000
202.000000,15615.219249,14565.670737,2771.482202,-3442.481571,7372.722909,-9199.598038,684.298656,-17203.020120,13563.150294,11737.348048,-8608.126176,388.473319,21951.514119,13193.541848,-275.686416,3503.412426,0.006438,-0.020562,1.006813,192.000000,0.000000,24.000000,127.500000,48.000000,15.500000,64.000000,0.000000,0.000000,0.000000,1769523338.862269,0.000000
204.000000,15610.793604,14574.387917,2692.558192,-3524.713638,7364.743336,-9259.612472,608.190967,-17303.468860,13671.332737,11717.566755,-8696.080291,332.191626,21888.482200,13144.837397,-345.513266,3458.083088,0.006438,-0.020562,1.006813,192.000000,0.000000,0.000000,0.000000,0.000000,0.000000,0.000000,0.000000,0.000000,0.000000,1769523338.862307,0.000000
206.000000,15638.845043,14593.342196,2791.643475,-3421.403876,7396.952200,-9196.289980,703.878785,-17177.114448,13684.229694,11739.940851,-8669.615825,348.195475,21920.646360,13168.105563,-329.509417,3470.488306,0.006438,-0.020562,1.006813,192.000000,0.000000,0.000000,0.000000,0.000000,0.000000,0.000000,0.000000,0.000000,0.000000,1769523338.862327,0.000000
208.000000,15601.428223,14559.524007,2717.681553,-3496.706903,7360.116525,-9253.532798,632.464961,-17271.192941,13579.936454,11723.981705,-8628.421560,372.916504,21941.232317,13184.712909,-300.943887,3490.917801,0.006438,-0.020562,1.006813,192.000000,0.000000,0.000000,0.000000,0.000000,0.000000,0.000000,0.000000,0.000000,0.000000,1769523338.862338,0.000000
210.000000,15632.161871,14593.833935,2739.340393,-3473.930475,7389.352606,-9232.656268,653.229732,-17243.543833,13750.033230,11720.405426,-8727.171567,308.096446,21890.091525,13133.393304,-378.459737,3442.705088,0.006438,-0.020562,1.006813,192.000000,0.000000,0.000000,0.000000,0.000000,0.000000,0.000000,0.000000,0.000000,0.000000,1769523338.862357,0.000000
212.000000,15611.866487,14562.340327,2769.358786,-3441.051059,7370.420679,-9214.618410,682.666979,-17206.417585,13568.380602,11733.503548,-8609.422578,383.533583,21933.744482,13190.077327,-287.152861,3500.014961,0.007219,-0.018281,1.006406,192.000000,0.000000,32.000000,127.500000,64.000000,15.500000,56.000000,0.000000,0.000000,0.000000,1769523338.862368,0.000000
214.000000,15606.032682,14570.677527,2689.674817,-3523.081961,7358.104868,-9261.490019,606.603993,-17304.452336,13671.422144,11713.141109,-8697.756672,329.643527,21897.177028,13141.372876,-351.816458,3459.267731,0.007219,-0.018281,1.006406,192.000000,0.000000,0.000000,0.000000,0.000000,0.000000,0.000000,0.000000,0.000000,0.000000,1769523338.862380,0.000000
216.000000,15630.709008,14588.961254,2788.827156,-3422.633221,7392.347740,-9192.378425,702.090645,-17179.975471,13684.676729,11741.080790,-8671.091041,348.642510,21930.123500,13168.954929,-335.477333,3472.187039,0.007219,-0.018281,1.006406,192.000000,0.000000,0.000000,0.000000,0.000000,0.000000,0.000000,0.000000,0.000000,0.000000,1769523338.862391,0.000000
218.000000,15593.269836,14557.154722,2716.295745,-3494.807004,7357.926054,-9240.702896,632.733182,-17270.880016,13569.811114,11720.003095,-8632.243709,372.983560,21908.554066,13183.662377,-302.195585,3493.376493,0.007219,-0.018281,1.006406,192.000000,0.000000,0.000000,0.000000,0.000000,0.000000,0.000000,0.000000,0.000000,0.000000,1769523338.862402,0.000000
220.000000,15622.371807,14589.363586,2738.379268,-3473.036405,7384.837554,-9236.679582,654.369671,-17245.019048,13741.181939,11713.811661,-8733.586518,309.594012,21874.132380,13131.582812,-374.257609,3444.359117,0.007219,-0.018281,1.006406,192.000000,0.000000,0.000000,0.000000,0.000000,0.000000,0.000000,0.000000,0.000000,0.000000,1769523338.862413,0.000000
222.000000,15606.993807,14563.904949,2767.995330,-3437.944166,7373.996958,-9205.565954,685.282133,-17203.355396,13564.312585,11732.877699,-8610.204889,390.306162,21926.033130,13202.504897,-279.329750,3495.656371,0.007219,-0.018281,1.006406,192.000000,0.000000,0.000000,0.000000,0.000000,0.000000,0.000000,0.000000,0.000000,0.000000,1769523338.862426,0.000000
224.000000,15592.062842,14562.049754,2682.365797,-3524.534824,7351.466400,-9263.926359,604.257060,-17311.426081,13659.151037,11706.189717,-8702.674055,330.761114,21885.732935,13142.021077,-350.117725,3463.313396,0.006000,-0.018000,1.012000,192.000000,0.000000,24.000000,127.500000,56.000000,15.500000,80.000000,0.000000,0.000000,0.000000,1769523338.862437,0.000000
226.000000,15619.331970,14578.545341,2778.858278,-3425.114265,7380.478964,-9202.347303,697.173261,-17188.022099,13669.097563,11725.747493,-8684.703253,343.903940,21911.504497,13166.809162,-338.405411,3480.390129,0.006000,-0.018000,1.012000,192.000000,0.000000,0.000000,0.000000,0.000000,0.000000,0.000000,0.000000,0.000000,0.000000,1769523338.862449,0.000000
228.000000,15583.859752,14543.922489,2710.126663,-3497.355103,7348.247748,-9246.469646,629.693345,-17277.898464,13557.294137,11708.469595,-8642.793732,368.446156,21898.987520,13171.592435,-301.525033,3496.617496,0.006000,-0.018000,1.012000,192.000000,0.000000,0.000000,0.000000,0.000000,0.000000,0.000000,0.000000,0.000000,0.000000,1769523338.862460,0.000000
230.000000,15618.639066,14580.020556,2731.584338,-3475.875077,7378.132031,-9232.589213,650.681633,-17249.176472,13736.577479,11709.140147,-8737.095742,307.560004,21865.594013,13120.094016,-378.526792,3447.488361,0.006000,-0.018000,1.012000,192.000000,0.000000,0.000000,0.000000,0.000000,0.000000,0.000000,0.000000,0.000000,0.000000,1769523338.862471,0.000000
232.000000,15613.565220,14562.295623,2770.074042,-3437.564187,7363.223417,-9205.230678,688.657247,-17197.141611,13562.837370,11727.781502,-8611.948325,389.032112,21916.578343,13194.771194,-290.259753,3503.278315,0.006000,-0.018000,1.012000,192.000000,0.000000,0.000000,0.000000,0.000000,0.000000,0.000000,0.000000,0.000000,0.000000,1769523338.862482,0.000000
234.000000,15606.658531,14565.894254,2690.077149,-3523.394885,7350.527626,-9262.853475,610.381438,-17298.998511,13666.929444,11705.362702,-8694.403910,335.477333,21887.364613,13141.752856,-355.191571,3460.206504,0.004000,-0.016000,1.014000,192.000000,0.000000,16.000000,127.500000,64.000000,15.500000,88.000000,0.000000,0.000000,0.000000,1769523338.862494,0.000000
236.000000,15632.027761,14583.909760,2788.290714,-3422.275594,7389.218496,-9194.278323,702.962363,-17177.092096,13683.246217,11729.212013,-8672.342738,350.654167,21898.987520,13162.785848,-335.097353,3470.041271,0.004000,-0.016000,1.014000,192.000000,0.000000,0.000000,0.000000,0.000000,0.000000,0.000000,0.000000,0.000000,0.000000,1769523338.862510,0.000000
238.000000,15598.254275,14556.819446,2718.374457,-3490.314304,7354.640347,-9232.924489,634.074287,-17266.297909,13566.167780,11715.666856,-8631.751970,376.917467,21912.487973,13183.930598,-304.207242,3493.331789,0.004000,-0.016000,1.014000,192.000000,0.000000,0.000000,0.000000,0.000000,0.000000,0.000000,0.000000,0.000000,0.000000,1769523338.862532,0.000000
240.000000,15625.925735,14586.971949,2736.389963,-3474.824545,7386.536287,-9224.184957,649.988729,-17246.516615,13741.763084,11715.644505,-8731.552509,313.214995,21880.659089,13132.231013,-382.013664,3445.409649,0.004000,-0.016000,1.014000,192.000000,0.000000,0.000000,0.000000,0.000000,0.000000,0.000000,0.000000,0.000000,0.000000,1769523338.862548,0.000000
242.000000,15617.610886,14569.671699,2774.410281,-3431.462161,7380.031929,-9192.668997,686.869107,-17194.414698,13563.262053,11735.805778,-8610.003723,392.809557,21933.498613,13208.539868,-283.777748,3503.613592,0.004000,-0.016000,1.014000,192.000000,0.000000,0.000000,0.000000,0.000000,0.000000,0.000000,0.000000,0.000000,0.000000,1769523338.862565,0.000000
244.000000,15615.062787,14577.964196,2696.357989,-3518.455150,7370.264217,-9249.643594,607.319249,-17296.472764,13671.243330,11718.237307,-8689.017140,343.099277,21886.068211,13162.159999,-352.196437,3461.525257,0.006000,-0.020000,1.010000,192.000000,0.000000,24.000000,127.500000,48.000000,15.500000,72.000000,0.000000,0.000000,0.000000,1769523338.862579,0.000000
246.000000,15636.654572,14592.023443,2787.463699,-3420.956841,7391.833650,-9200.067425,698.201442,-17179.707251,13695.807898,11745.372325,-8668.498238,354.990405,21911.616255,13171.033641,-324.077943,3468.186077,0.006000,-0.020000,1.010000,192.000000,0.000000,0.000000,0.000000,0.000000,0.000000,0.000000,0.000000,0.000000,0.000000,1769523338.862594,0.000000
248.000000,15593.515705,14552.103228,2716.072227,-3492.638885,7353.567464,-9234.220890,630.922691,-17270.410630,13564.245530,11718.594935,-8631.193177,375.531659,21899.479258,13179.616711,-294.350123,3499.031484,0.006000,-0.020000,1.010000,192.000000,0.000000,0.000000,0.000000,0.000000,0.000000,0.000000,0.000000,0.000000,0.000000,1769523338.862608,0.000000
250.000000,15623.109415,14589.207123,2727.516321,-3479.585466,7375.226304,-9233.684448,644.490200,-17253.959746,13729.648439,11713.185813,-8739.062695,304.542518,21862.621231,13125.369027,-371.463641,3450.237626,0.006000,-0.020000,1.010000,192.000000,0.000000,0.000000,0.000000,0.000000,0.000000,0.000000,0.000000,0.000000,0.000000,1769523338.862623,0.000000
252.000000,15620.158985,14575.483152,2768.554123,-3432.311527,7366.106792,-9197.631085,684.231601,-17197.163963,13560.289271,11739.493816,-8614.988162,390.619086,21911.035110,13205.835307,-291.422044,3508.240403,0.006000,-0.020000,1.010000,192.000000,0.000000,0.000000,0.000000,0.000000,0.000000,0.000000,0.000000,0.000000,0.000000,1769523338.862639,0.000000
254.000000,15605.742110,14573.247978,2690.859460,-3519.080999,7359.311862,-9255.522103,604.167653,-17302.954769,13660.670955,11717.454996,-8696.147346,338.830094,21873.595938,13148.100751,-351.548237,3469.169553,0.002000,-0.018000,1.008000,192.000000,0.000000,8.000000,127.500000,56.000000,15.500000,64.000000,0.000000,0.000000,0.000000,1769523338.862653,0.000000
0.000000,15633.838252,14590.727042,2788.357769,-3421.225062,7392.727720,-9189.427994,698.492014,-17181.070707,13683.983825,11741.952508,-8673.907360,351.145905,21903.256703,13173.917016,-330.917577,3471.471783,0.002000,-0.018000,1.008000,192.000000,0.000000,0.000000,0.000000,0.000000,0.000000,0.000000,0.000000,0.000000,0.000000,1769523338.862668,0.000000
2.000000,15600.936484,14556.774742,2721.570757,-3493.309437,7360.407097,-9237.014858,631.727354,-17270.544740,13560.490437,11717.119720,-8633.160130,370.547220,21897.579360,13174.028775,-292.003190,3498.293876,0.002000,-0.018000,1.008000,192.000000,0.000000,0.000000,0.000000,0.000000,0.000000,0.000000,0.000000,0.000000,0.000000,1769523338.862683,0.000000
4.000000,15632.944183,14590.570580,2737.239329,-3481.910048,7385.575162,-9237.014858,646.255987,-17252.663344,13745.071142,11719.176080,-8728.177396,307.381190,21889.979767,13131.068722,-369.295522,3441.609853,0.002000,-0.018000,1.008000,192.000000,0.000000,0.000000,0.000000,0.000000,0.000000,0.000000,0.000000,0.000000,0.000000,1769523338.862699,0.000000
6.000000,15618.460252,14568.844684,2771.683368,-3438.838236,7372.007653,-9202.928448,682.443462,-17203.668321,13564.826675,11732.318906,-8613.401188,380.538449,21900.127459,13192.513668,-280.223820,3502.607763,0.002000,-0.018000,1.008000,192.000000,0.000000,0.000000,0.000000,0.000000,0.000000,0.000000,0.000000,0.000000,0.000000,1769523338.862715,0.000000
8.000000,15601.450575,14569.716402,2685.964428,-3525.317135,7361.681147,-9260.998280,599.317324,-17312.923648,13657.832284,11716.180946,-8697.935486,331.319908,21870.265528,13147.519606,-345.177990,3464.073356,0.006000,-0.016000,1.010000,192.000000,0.000000,24.000000,127.500000,64.000000,15.500000,72.000000,0.000000,0.000000,0.000000,1769523338.862730,0.000000
10.000000,15632.340685,14594.973873,2781.138156,-3421.403876,7389.106737,-9184.778832,693.775796,-17189.005576,13674.909016,11740.253775,-8688.212477,341.892283,21886.850522,13170.027813,-330.224673,3475.964484,0.006000,-0.016000,1.010000,192.000000,0.000000,0.000000,0.000000,0.000000,0.000000,0.000000,0.000000,0.000000,0.000000,1769523338.862744,0.000000
12.000000,15601.450575,14563.480266,2714.060570,-3490.627228,7355.646176,-9222.620335,628.709868,-17275.685641,13558.232910,11727.915612,-8641.296165,372.603580,21887.208150,13194.279455,-298.105216,3499.545574,0.006000,-0.016000,1.010000,192.000000,0.000000,0.000000,0.000000,0.000000,0.000000,0.000000,0.000000,0.000000,0.000000,1769523338.862759,0.000000
14.000000,15632.295982,14596.113812,2729.840902,-3477.976141,7381.484792,-9219.647553,642.635005,-17258.988888,13737.560956,11725.568679,-8739.956765,308.409370,21857.390923,13148.681897,-371.664807,3449.321204,0.006000,-0.016000,1.010000,192.000000,0.000000,0.000000,0.000000,0.000000,0.000000,0.000000,0.000000,0.000000,0.000000,1769523338.862774,0.000000
16.000000,15616.582706,14569.738754,2767.324778,-3437.497132,7363.648100,-9198.078120,680.208287,-17211.536135,13562.211521,11740.790217,-8624.174729,383.198307,21918.545296,13206.729377,-280.268524,3504.127682,0.006000,-0.016000,1.010000,192.000000,0.000000,0.000000,0.000000,0.000000,0.000000,0.000000,0.000000,0.000000,0.000000,1769523338.862789,0.000000
18.000000,15620.024874,14583.239208,2689.674817,-3515.571775,7361.748202,-9241.708725,606.536938,-17306.173421,13658.547540,11718.729045,-8701.847041,332.593957,21851.646525,13162.897606,-352.017623,3470.376548,0.004000,-0.022000,1.006000,192.000000,0.000000,16.000000,127.500000,40.000000,15.500000,56.000000,0.000000,0.000000,0.000000,1769523338.862806,0.000000
20.000000,15642.913061,14599.310112,2786.279057,-3421.895614,7391.833650,-9191.417300,698.626125,-17185.474001,13694.846773,11749.507397,-8678.243599,350.631815,21907.727052,13183.885894,-345.803838,3470.711824,0.004000,-0.022000,1.006000,192.000000,0.000000,0.000000,0.000000,0.000000,0.000000,0.000000,0.000000,0.000000,0.000000,1769523338.862822,0.000000
22.000000,15605.987979,14566.564806,2716.228690,-3492.191850,7361.010594,-9245.776742,632.241444,-17270.455333,13557.562358,11718.304362,-8640.893834,371.396586,21883.833037,13185.025833,-281.654332,3492.862403,0.004000,-0.022000,1.006000,192.000000,0.000000,0.000000,0.000000,0.000000,0.000000,0.000000,0.000000,0.000000,0.000000,1769523338.862836,0.000000
24.000000,15645.036476,14607.647313,2730.891434,-3473.639902,7382.132993,-9230.331687,648.357051,-17246.762484,13748.245090,11731.402484,-8729.853777,319.272318,21859.089656,13145.932632,-371.195420,3444.537931,0.004000,-0.022000,1.006000,192.000000,0.000000,0.000000,0.000000,0.000000,0.000000,0.000000,0.000000,0.000000,0.000000,1769523338.862852,0.000000
26.000000,15624.808148,14578.232417,2769.783469,-3433.898501,7368.945464,-9204.001332,684.991561,-17197.521591,13568.358251,11744.478255,-8611.277772,393.457758,21905.089546,13211.914982,-284.515355,3509.357990,0.004000,-0.022000,1.006000,192.000000,0.000000,0.000000,0.000000,0.000000,0.000000,0.000000,0.000000,0.000000,0.000000,1769523338.862866,0.000000
28.000000,15621.209517,14586.748432,2692.915820,-3516.018810,7358.596606,-9256.907911,608.526243,-17296.092784,13657.988746,11722.238269,-8689.441823,342.272263,21870.511397,13161.668260,-344.686251,3462.128754,0.004000,-0.022000,1.006000,192.000000,0.000000,0.000000,127.500000,24.000000,15.500000,80.000000,0.000000,0.000000,0.000000,1769523338.862877,0.000000
30.000000,15652.345497,14608.407272,2792.001103,-3414.452483,7388.659702,-9193.451308,704.102302,-17170.900663,13694.869124,11751.720220,-8666.710099,357.069118,21897.266435,13181.538961,-338.114838,3463.693376,0.004000,-0.022000,1.006000,192.000000,0.000000,0.000000,0.000000,0.000000,0.000000,0.000000,0.000000,0.000000,0.000000,1769523338.862888,0.000000
32.000000,15616.582706,14574.410269,2722.509530,-3489.017902,7347.688955,-9242.871015,634.946005,-17260.374696,13563.105591,11732.676534,-8619.637325,384.807633,21885.040031,13197.855735,-300.452149,3494.516432,0.004000,-0.022000,1.006000,192.000000,0.000000,0.000000,0.000000,0.000000,0.000000,0.000000,0.000000,0.000000,0.000000,1769523338.862914,0.000000
34.000000,15645.528215,14605.278028,2731.785504,-3481.105385,7378.959045,-9237.238376,642.500894,-17251.188129,13738.723247,11726.887432,-8725.964573,315.472521,21854.775769,13139.025943,-369.451984,3443.152123,0.004000,-0.022000,1.006000,192.000000,0.000000,0.000000,0.000000,0.000000,0.000000,0.000000,0.000000,0.000000,0.000000,1769523338.862925,0.000000
36.000000,15637.615697,14585.295568,2774.678501,-3431.998602,7367.246731,-9194.077157,684.723340,-17196.225190,13565.631338,11746.780485,-8608.304990,392.362522,21906.922389,13208.584572,-278.592143,3504.172385,0.004000,-0.022000,1.006000,192.000000,0.000000,0.000000,0.000000,0.000000,0.000000,0.000000,0.000000,0.000000,0.000000,1769523338.862936,0.000000
38.000000,15625.255182,14581.696937,2689.339541,-3519.550385,7358.350737,-9255.835027,602.312458,-17306.933380,13653.160769,11718.192603,-8689.017140,336.125533,21862.710638,13158.069629,-342.540484,3471.784708,0.004000,-0.019000,1.007000,192.000000,0.000000,16.000000,127.500000,64.000000,15.500000,64.000000,0.000000,0.000000,0.000000,1769523338.862947,0.000000
40.000000,15657.352287,14606.037987,2787.754272,-3416.441788,7388.257371,-9185.851715,698.044979,-17181.785963,13691.784584,11746.713429,-8671.113392,349.156600,21902.809668,13178.767345,-347.077888,3481.753586,0.004000,-0.019000,1.007000,192.000000,0.000000,0.000000,0.000000,0.000000,0.000000,0.000000,0.000000,0.000000,0.000000,1769523338.862958,0.000000
42.000000,15615.331008,14566.654213,2719.693210,-3489.554344,7352.896911,-9238.244204,630.766229,-17271.796438,13559.574015,11726.418045,-8626.700476,374.570534,21888.884531,13192.603075,-292.070245,3502.943039,0.004000,-0.019000,1.007000,192.000000,0.000000,0.000000,0.000000,0.000000,0.000000,0.000000,0.000000,0.000000,0.000000,1769523338.862968,0.000000
44.000000,15649.350363,14607.490850,2731.673745,-3477.529106,7382.915304,-9230.823425,641.539769,-17254.451484,13743.104189,11725.903955,-8730.345515,309.817530,21855.200452,13143.764513,-365.182801,3449.902350,0.004000,-0.019000,1.007000,192.000000,0.000000,0.000000,0.000000,0.000000,0.000000,0.000000,0.000000,0.000000,0.000000,1769523338.862979,0.000000
46.000000,15632.899479,14581.719289,2770.185801,-3430.299870,7374.265179,-9195.082986,682.130537,-17201.924885,13572.135695,11744.969993,-8612.350656,389.680313,21908.218790,13209.053959,-280.134413,3503.904164,0.004000,-0.019000,1.007000,192.000000,0.000000,0.000000,0.000000,0.000000,0.000000,0.000000,0.000000,0.000000,0.000000,1769523338.862990,0.000000
48.000000,15621.187165,14581.071088,2687.841974,-3517.874005,7356.272025,-9252.012879,601.217222,-17309.682645,13656.111199,11719.287839,-8695.007407,337.868969,21860.386057,13160.036583,-343.680423,3471.561190,0.004000,-0.019500,1.006500,192.000000,0.000000,16.000000,127.500000,48.000000,15.500000,56.000000,0.000000,0.000000,0.000000,1769523338.863001,0.000000
50.000000,15660.146256,14612.452938,2790.525888,-3414.385428,7395.633447,-9175.994596,699.229622,-17179.394326,13697.596037,11749.462694,-8677.081308,350.788277,21895.657110,13181.963644,-336.818437,3468.141373,0.004000,-0.019500,1.006500,192.000000,0.000000,0.000000,0.000000,0.000000,0.000000,0.000000,0.000000,0.000000,0.000000,1769523338.863014,0.000000
52.000000,15615.442767,14570.744583,2718.553271,-3485.396920,7352.114600,-9230.912832,632.286147,-17269.002470,13569.118210,11739.292650,-8623.526528,388.272153,21908.017624,13210.797395,-294.864213,3491.834222,0.004000,-0.019500,1.006500,192.000000,0.000000,0.000000,0.000000,0.000000,0.000000,0.000000,0.000000,0.000000,0.000000,1769523338.863025,0.000000
54.000000,15645.438808,14605.367435,2728.835074,-3475.450394,7384.234057,-9230.555204,642.165618,-17254.742057,13733.068256,11725.591031,-8739.509730,316.791274,21862.576528,13145.440894,-368.066176,3449.835294,0.004000,-0.019500,1.006500,192.000000,0.000000,0.000000,0.000000,0.000000,0.000000,0.000000,0.000000,0.000000,0.000000,1769523338.863036,0.000000
56.000000,15633.659438,14582.993338,2768.263551,-3428.869358,7361.703499,-9204.247201,682.734034,-17199.555600,13566.950091,11751.407296,-8616.530432,399.023342,21894.271302,13215.848889,-281.766091,3505.088807,0.004000,-0.019500,1.006500,192.000000,0.000000,0.000000,0.000000,0.000000,0.000000,0.000000,0.000000,0.000000,0.000000,1769523338.863061,0.000000
58.000000,15625.545755,14584.021519,2684.936247,-3517.091694,7355.981452,-9265.558036,600.993705,-17305.256999,13651.350278,11727.021542,-8694.828593,346.407336,21857.994420,13165.602167,-347.390812,3470.309492,0.005000,-0.018750,1.010250,192.000000,0.000000,24.000000,127.500000,56.000000,15.500000,88.000000,0.000000,0.000000,0.000000,1769523339.341519,0.000000
60.000000,15662.403782,14610.441281,2783.663903,-3413.334896,7384.703444,-9183.773003,696.659171,-17178.813181,13689.012967,11749.976784,-8682.669244,355.482144,21885.665880,13178.856752,-342.853408,3475.025710,0.005000,-0.018750,1.010250,192.000000,0.000000,0.000000,0.000000,0.000000,0.000000,0.000000,0.000000,0.000000,0.000000,1769523339.341630,0.000000
62.000000,15622.863546,14574.522027,2720.922556,-3478.356120,7349.812371,-9232.253937,635.549502,-17261.626394,13560.646899,11739.382057,-8626.655773,392.273115,21893.332528,13204.471851,-303.223765,3499.813795,0.005000,-0.018750,1.010250,192.000000,0.000000,0.000000,0.000000,0.000000,0.000000,0.000000,0.000000,0.000000,0.000000,1769523339.341716,0.000000
64.000000,15646.914023,14604.361606,2729.572681,-3475.025710,7374.443993,-9239.317088,643.417316,-17252.931565,13736.644535,11729.770807,-8732.603041,324.547329,21876.233444,13155.812103,-378.660903,3451.444620,0.005000,-0.018750,1.010250,192.000000,0.000000,0.000000,0.000000,0.000000,0.000000,0.000000,0.000000,0.000000,0.000000,1769523339.341802,0.000000
66.000000,15641.862529,14586.480211,2776.667807,-3424.577823,7365.950330,-9199.285114,688.925468,-17191.263102,13566.726573,11746.333450,-8614.563479,398.039865,21887.878703,13205.008293,-275.731120,3499.612629,0.005000,-0.018750,1.010250,192.000000,0.000000,0.000000,0.000000,0.000000,0.000000,0.000000,0.000000,0.000000,0.000000,1769523339.341890,0.000000
68.000000,15628.697351,14585.027347,2689.384245,-3514.118912,7345.789057,-9260.707707,605.754626,-17300.227857,13658.681650,11727.937964,-8685.373805,351.995272,21877.462790,13161.824723,-343.412202,3465.034481,0.005500,-0.019375,1.011125,192.000000,0.000000,24.000000,127.500000,48.000000,15.500000,80.000000,0.000000,0.000000,0.000000,1769523339.341991,0.000000
70.000000,15663.409610,14610.843612,2788.044845,-3414.519538,7377.372071,-9195.574724,700.369561,-17175.281605,13692.477488,11745.685249,-8680.299959,355.593903,21881.463752,13171.145400,-338.092487,3469.013091,0.005500,-0.019375,1.011125,192.000000,0.000000,0.000000,0.000000,0.000000,0.000000,0.000000,0.000000,0.000000,0.000000,1769523339.342079,0.000000
72.000000,15636.252241,14585.653196,2728.365687,-3474.913952,7350.527626,-9234.287946,641.763287,-17249.645859,13570.012280,11737.035124,-8616.619839,394.575345,21887.409316,13200.560296,-296.607649,3497.109234,0.005500,-0.019375,1.011125,192.000000,0.000000,0.000000,0.000000,0.000000,0.000000,0.000000,0.000000,0.000000,0.000000,1769523339.342126,0.000000
74.000000,15666.292985,14621.550098,2737.574606,-3469.683644,7373.013481,-9231.471626,647.910017,-17239.341705,13755.107076,11739.784389,-8713.849928,333.756248,21876.211092,13152.347583,-372.715339,3444.247358,0.005500,-0.019375,1.011125,192.000000,0.000000,0.000000,0.000000,0.000000,0.000000,0.000000,0.000000,0.000000,0.000000,1769523339.342182,0.000000
76.000000,15652.323145,14593.990397,2786.904906,-3420.465102,7361.614092,-9198.480451,693.462872,-17183.797620,13583.333919,11752.368421,-8598.716092,404.790092,21897.177028,13212.898459,-288.136338,3500.529051,0.005500,-0.019375,1.011125,192.000000,0.000000,0.000000,0.000000,0.000000,0.000000,0.000000,0.000000,0.000000,0.000000,1769523339.342205,0.000000
78.000000,15640.253203,14592.179905,2699.286067,-3508.933307,7346.906644,-9254.292757,610.202624,-17296.361005,13665.543636,11729.100255,-8675.069651,356.487972,21860.810740,13169.513723,-345.692080,3467.448469,0.005750,-0.019688,1.011563,192.000000,0.000000,24.000000,127.500000,48.000000,15.500000,80.000000,0.000000,0.000000,0.000000,1769523339.342228,0.000000
80.000000,15665.913006,14610.709502,2788.201307,-3412.172605,7371.247693,-9195.239448,700.414264,-17178.366146,13699.406528,11747.205168,-8675.404927,354.878647,21879.630909,13176.286301,-343.345147,3472.499963,0.005750,-0.019688,1.011563,192.000000,0.000000,0.000000,0.000000,0.000000,0.000000,0.000000,0.000000,0.000000,0.000000,1769523339.342250,0.000000
82.000000,15629.569069,14575.818428,2722.196605,-3477.238533,7337.518911,-9243.698030,638.790505,-17257.424266,13560.848065,11730.106083,-8622.118368,388.518022,21885.420011,13196.984017,-293.143129,3496.215164,0.005750,-0.019688,1.011563,192.000000,0.000000,0.000000,0.000000,0.000000,0.000000,0.000000,0.000000,0.000000,0.000000,1769523339.342281,0.000000
84.000000,15663.387258,14617.996170,2732.947795,-3466.107364,7372.700557,-9238.355963,651.061612,-17241.398065,13744.557052,11731.804816,-8722.880032,327.318946,21860.721333,13147.877234,-379.398510,3445.432001,0.005750,-0.019688,1.011563,192.000000,0.000000,0.000000,0.000000,0.000000,0.000000,0.000000,0.000000,0.000000,0.000000,1769523339.342304,0.000000
86.000000,15640.208499,14584.870885,2774.946722,-3424.242547,7358.842475,-9210.326875,690.423034,-17190.860771,13577.589521,11751.049668,-8606.382740,403.761912,21916.153659,13215.446557,-285.968219,3500.797272,0.005750,-0.019688,1.011563,192.000000,0.000000,0.000000,0.000000,0.000000,0.000000,0.000000,0.000000,0.000000,0.000000,1769523339.342326,0.000000
88.000000,15632.295982,14586.971949,2694.033407,-3511.481406,7348.381859,-9265.401574,608.906222,-17295.981025,13652.244348,11720.830109,-8687.340759,351.548237,21869.282051,13162.875254,-331.409315,3463.000472,0.006875,-0.021844,1.004781,192.000000,0.000000,32.000000,127.500000,32.000000,15.500000,24.000000,0.000000,0.000000,0.000000,1769523339.342349,0.000000
90.000000,15658.268709,14605.814470,2790.056502,-3415.592422,7382.289455,-9193.160736,698.112035,-17179.170809,13700.233543,11742.958336,-8678.042433,356.555028,21882.961319,13178.722641,-340.282958,3467.560228,0.006875,-0.021844,1.004781,192.000000,0.000000,0.000000,0.000000,0.000000,0.000000,0.000000,0.000000,0.000000,0.000000,1769523339.342372,0.000000
92.000000,15619.644895,14568.330594,2729.505626,-3481.373606,7345.207911,-9238.735943,637.807028,-17261.134656,13558.590538,11722.730007,-8623.370066,386.774586,21875.786409,13192.983054,-292.182004,3494.114100,0.006875,-0.021844,1.004781,192.000000,0.000000,0.000000,0.000000,0.000000,0.000000,0.000000,0.000000,0.000000,0.000000,1769523339.342394,0.000000
94.000000,15646.265822,14599.377167,2734.758286,-3479.339597,7374.332234,-9239.495902,643.506723,-17257.200749,13737.158625,11717.834975,-8730.457274,317.260661,21862.464769,13137.684838,-368.669673,3438.949995,0.006875,-0.021844,1.004781,192.000000,0.000000,0.000000,0.000000,0.000000,0.000000,0.000000,0.000000,0.000000,0.000000,1769523339.342416,0.000000
96.000000,15631.960706,14574.477324,2777.137193,-3428.377620,7357.411964,-9208.315218,686.712645,-17198.728585,13566.726573,11733.235327,-8620.039656,387.512194,21896.931159,13202.884877,-277.474556,3503.255964,0.006875,-0.021844,1.004781,192.000000,0.000000,0.000000,0.000000,0.000000,0.000000,0.000000,0.000000,0.000000,0.000000,1769523339.342438,0.000000
98.000000,15626.395121,14579.305301,2691.530012,-3514.051856,7342.101019,-9255.946786,605.709923,-17303.245342,13649.450380,11717.946734,-8691.006445,346.250873,21861.883624,13157.935519,-345.580321,3469.370719,0.006438,-0.022922,1.002391,192.000000,0.000000,24.000000,127.500000,32.000000,15.500000,32.000000,0.000000,0.000000,0.000000,1769523339.342461,0.000000
100.000000,15658.603985,14604.048682,2787.664865,-3413.021971,7375.405118,-9192.132556,699.587250,-17181.003652,13699.428880,11742.287784,-8684.658549,350.721222,21882.760153,13173.268816,-336.840789,3469.057795,0.006438,-0.022922,1.002391,192.000000,0.000000,0.000000,0.000000,0.000000,0.000000,0.000000,0.000000,0.000000,0.000000,1769523339.342474,0.000000
102.000000,15619.421377,14566.788324,2725.124684,-3475.405690,7343.464475,-9230.354039,640.578644,-17260.017068,13559.931643,11730.106083,-8625.314668,387.489842,21876.747534,13203.667188,-297.814643,3501.847804,0.006438,-0.022922,1.002391,192.000000,0.000000,0.000000,0.000000,0.000000,0.000000,0.000000,0.000000,0.000000,0.000000,1769523339.342484,0.000000
104.000000,15640.946107,14594.705653,2726.443437,-3476.389167,7365.078612,-9241.172283,641.852694,-17261.067600,13733.627049,11719.265487,-8736.246376,313.885547,21850.171310,13138.981240,-370.346054,3448.047155,0.006438,-0.022922,1.002391,192.000000,0.000000,0.000000,0.000000,0.000000,0.000000,0.000000,0.000000,0.000000,0.000000,1769523339.342494,0.000000
106.000000,15632.363037,14572.979757,2776.958379,-3424.376658,7358.976586,-9203.062559,689.461909,-17197.923922,13568.000623,11735.112874,-8622.140720,387.847470,21896.350014,13200.515592,-285.096501,3505.759359,0.006438,-0.022922,1.002391,192.000000,0.000000,0.000000,0.000000,0.000000,0.000000,0.000000,0.000000,0.000000,0.000000,1769523339.342504,0.000000
108.000000,15622.796491,14575.729022,2691.194736,-3511.391999,7344.425600,-9256.773800,607.006324,-17305.994607,13644.488292,11718.036141,-8691.744052,344.306272,21877.887473,13168.172618,-338.695984,3466.152068,0.006438,-0.022922,1.002391,192.000000,0.000000,0.000000,0.000000,0.000000,0.000000,0.000000,0.000000,0.000000,0.000000,1769523339.342514,0.000000
110.000000,15656.011183,14603.221667,2787.709568,-3412.351419,7385.128127,-9192.646646,699.073160,-17185.563408,13694.712662,11746.288746,-8688.614808,348.508400,21892.729031,13186.612807,-344.149809,3471.583542,0.004000,-0.022000,1.000000,192.000000,0.000000,16.000000,127.500000,40.000000,15.500000,32.000000,0.000000,0.000000,0.000000,1769523339.342524,0.000000
112.000000,15626.015142,14572.398612,2727.538672,-3474.019882,7352.271062,-9233.013896,641.204493,-17262.520464,13555.193073,11733.324734,-8630.589680,383.198307,21873.528883,13201.834345,-285.699998,3497.980952,0.004000,-0.022000,1.000000,192.000000,0.000000,0.000000,0.000000,0.000000,0.000000,0.000000,0.000000,0.000000,0.000000,1769523339.342534,0.000000
114.000000,15649.752694,14600.427699,2726.018754,-3472.209391,7373.706385,-9236.299603,641.673880,-17261.805208,13743.931203,11734.688191,-8732.804207,320.859292,21855.938060,13152.772266,-371.843621,3450.751716,0.004000,-0.022000,1.000000,192.000000,0.000000,0.000000,0.000000,0.000000,0.000000,0.000000,0.000000,0.000000,0.000000,1769523339.342546,0.000000
116.000000,15635.849909,14575.974891,2778.165374,-3423.214367,7370.644196,-9196.781718,687.629066,-17200.673187,13573.230931,11740.142016,-8624.465302,389.277981,21916.734805,13212.227906,-287.644599,3508.776845,0.004000,-0.022000,1.000000,192.000000,0.000000,0.000000,0.000000,0.000000,0.000000,0.000000,0.000000,0.000000,0.000000,1769523339.342556,0.000000
118.000000,15615.755691,14565.983661,2690.747701,-3516.041162,7353.276891,-9259.411306,601.910126,-17313.929476,13644.175368,11713.141109,-8695.588552,338.941853,21858.732028,13161.936481,-328.771809,3466.912027,0.004000,-0.022000,1.000000,192.000000,0.000000,0.000000,0.000000,0.000000,0.000000,0.000000,0.000000,0.000000,0.000000,1769523339.342566,0.000000
120.000000,15651.742000,14592.761051,2785.317932,-3415.435960,7383.407042,-9199.195707,695.340418,-17190.659605,13689.325892,11729.480234,-8694.605076,337.131362,21871.360763,13166.965624,-340.752344,3476.612684,0.004000,-0.018000,1.008000,192.000000,0.000000,16.000000,127.500000,56.000000,15.500000,64.000000,0.000000,0.000000,0.000000,1769523339.342576,0.000000
122.000000,15617.342665,14560.373373,2726.890472,-3475.696263,7350.415868,-9228.834120,638.857560,-17264.487417,13548.465198,11717.633810,-8630.567328,377.118632,21896.282959,13192.334854,-292.070245,3504.999400,0.004000,-0.018000,1.008000,192.000000,0.000000,0.000000,0.000000,0.000000,0.000000,0.000000,0.000000,0.000000,0.000000,1769523339.342587,0.000000
124.000000,15637.727456,14590.659987,2726.599899,-3479.361949,7377.282664,-9236.523120,638.544636,-17267.124923,13731.570689,11718.483176,-8734.324126,311.918594,21846.304458,13146.670240,-378.303275,3446.996623,0.004000,-0.018000,1.008000,192.000000,0.000000,0.000000,0.000000,0.000000,0.000000,0.000000,0.000000,0.000000,0.000000,1769523339.342597,0.000000
126.000000,15621.433034,14563.502617,2776.310179,-3429.741076,7365.726813,-9212.874974,685.706816,-17206.931675,13563.798495,11727.714447,-8628.309802,377.498612,21899.568665,13197.431051,-277.653370,3500.372589,0.004000,-0.018000,1.008000,192.000000,0.000000,0.000000,0.000000,0.000000,0.000000,0.000000,0.000000,0.000000,0.000000,1769523339.342607,0.000000
128.000000,15610.726549,14564.351984,2687.931381,-3519.706848,7350.706440,-9259.724231,601.507795,-17315.315284,13636.240499,11703.105176,-8700.371826,331.856350,21856.586260,13157.063801,-333.599786,3471.605894,0.004000,-0.018000,1.008000,192.000000,0.000000,0.000000,0.000000,0.000000,0.000000,0.000000,0.000000,0.000000,0.000000,1769523339.342617,0.000000
130.000000,15648.970383,14595.107984,2783.663903,-3419.012239,7382.937656,-9189.115070,695.675694,-17189.921998,13696.523153,11733.481197,-8695.320331,340.506475,21890.024470,13172.553560,-339.277129,3467.850800,0.004000,-0.018000,1.008000,192.000000,0.000000,16.000000,127.500000,56.000000,15.500000,64.000000,0.000000,0.000000,0.000000,1769523339.342627,0.000000
132.000000,15613.766386,14558.540530,2724.074152,-3474.489269,7352.852208,-9228.409437,639.997499,-17262.319298,13554.567224,11723.981705,-8629.315630,382.505403,21886.917578,13206.997598,-293.746626,3499.947906,0.004000,-0.018000,1.008000,192.000000,0.000000,0.000000,0.000000,0.000000,0.000000,0.000000,0.000000,0.000000,0.000000,1769523339.342637,0.000000
134.000000,15635.984020,14586.122583,2723.448303,-3477.663216,7369.168981,-9237.573652,637.695269,-17265.426191,13733.470587,11714.459862,-8736.782817,311.225690,21849.858385,13145.284432,-376.604542,3454.126829,0.004000,-0.018000,1.008000,192.000000,0.000000,0.000000,0.000000,0.000000,0.000000,0.000000,0.000000,0.000000,0.000000,1769523339.342647,0.000000
136.000000,15620.583668,14563.323803,2769.649359,-3422.476759,7358.797772,-9210.773910,685.438595,-17202.550733,13567.106553,11730.195490,-8627.885118,382.393644,21905.313063,13203.778947,-286.303495,3511.324943,0.004000,-0.018000,1.008000,192.000000,0.000000,0.000000,0.000000,0.000000,0.000000,0.000000,0.000000,0.000000,0.000000,1769523339.342658,0.000000
138.000000,15607.843173,14562.541492,2685.003303,-3512.531938,7346.034926,-9259.321899,601.530147,-17313.907124,13631.300763,11706.256772,-8699.209535,336.885492,21845.320981,13156.348545,-342.071097,3478.959617,0.004000,-0.018000,1.008000,192.000000,0.000000,0.000000,0.000000,0.000000,0.000000,0.000000,0.000000,0.000000,0.000000,1769523339.342668,0.000000
140.000000,15646.489340,14591.017615,2781.831060,-3415.190091,7382.960008,-9191.976093,693.909907,-17191.978358,13694.533848,11730.575470,-8696.795547,338.673632,21878.960357,13167.122086,-342.875760,3472.902295,0.002000,-0.020000,1.006000,192.000000,0.000000,8.000000,127.500000,48.000000,15.500000,56.000000,0.000000,0.000000,0.000000,1769523339.342678,0.000000
142.000000,15608.267857,14553.578443,2723.224786,-3478.333769,7350.974661,-9243.899196,636.801200,-17266.610833,13547.906404,11707.754339,-8633.651869,374.212906,21886.850522,13187.864505,-283.643637,3500.461996,0.002000,-0.020000,1.006000,192.000000,0.000000,0.000000,0.000000,0.000000,0.000000,0.000000,0.000000,0.000000,0.000000,1769523339.342688,0.000000
144.000000,15638.085084,14588.424812,2727.516321,-3481.395958,7378.601417,-9237.193672,637.091772,-17264.129789,13731.391875,11701.428795,-8737.207501,308.364667,21863.649412,13133.639173,-369.630798,3448.382431,0.002000,-0.020000,1.006000,192.000000,0.000000,0.000000,0.000000,0.000000,0.000000,0.000000,0.000000,0.000000,0.000000,1769523339.342699,0.000000
146.000000,15630.239621,14569.358774,2782.680426,-3424.376658,7369.705423,-9196.245276,691.786491,-17191.821896,13580.405841,11725.658086,-8615.636363,386.126385,21912.912656,13207.154060,-286.549364,3502.764225,0.002000,-0.020000,1.006000,192.000000,0.000000,0.000000,0.000000,0.000000,0.000000,0.000000,0.000000,0.000000,0.000000,1769523339.342710,0.000000
148.000000,15618.706121,14569.224664,2693.586373,-3516.510548,7346.951347,-9265.803905,606.805158,-17303.021825,13646.701115,11701.495850,-8683.362148,343.076926,21887.476371,13172.195932,-340.059440,3469.638940,0.002000,-0.020000,1.006000,192.000000,0.000000,0.000000,0.000000,0.000000,0.000000,0.000000,0.000000,0.000000,0.000000,1769523339.342720,0.000000
150.000000,15651.943165,14596.605551,2787.910734,-3417.917003,7387.944447,-9196.915829,699.363732,-17182.702384,13704.815651,11728.027371,-8685.016177,346.429687,21891.477333,13176.219246,-348.687214,3461.279388,0.006000,-0.018000,1.006000,192.000000,0.000000,24.000000,127.500000,56.000000,15.500000,56.000000,0.000000,0.000000,0.000000,1769523339.342730,0.000000
152.000000,15610.234810,14557.400591,2729.282108,-3472.365853,7344.894987,-9238.914757,644.244330,-17257.603080,13551.661498,11713.632848,-8623.705342,385.053502,21876.456961,13196.045243,-287.577544,3496.192812,0.006000,-0.018000,1.006000,192.000000,0.000000,0.000000,0.000000,0.000000,0.000000,0.000000,0.000000,0.000000,0.000000,1769523339.342740,0.000000
154.000000,15635.604040,14590.794097,2726.398733,-3477.752623,7362.821086,-9245.955556,640.265720,-17263.213368,13733.269421,11707.575525,-8733.452408,313.662030,21854.842824,13141.372876,-378.996179,3450.885826,0.006000,-0.018000,1.006000,192.000000,0.000000,0.000000,0.000000,0.000000,0.000000,0.000000,0.000000,0.000000,0.000000,1769523339.342750,0.000000
156.000000,15631.357209,14573.091516,2783.932124,-3415.078332,7370.241865,-9200.715625,693.418168,-17191.397213,13580.070565,11729.703752,-8618.139758,387.668656,21906.229485,13203.823650,-282.391939,3497.824490,0.006000,-0.018000,1.006000,192.000000,0.000000,0.000000,0.000000,0.000000,0.000000,0.000000,0.000000,0.000000,0.000000,1769523339.342760,0.000000
158.000000,15613.341703,14568.867036,2694.815719,-3507.815720,7354.617996,-9271.995338,606.827510,-17307.447470,13641.560214,11708.156670,-8687.117241,342.898112,21878.379211,13155.633289,-336.103181,3476.590333,0.006000,-0.018000,1.006000,192.000000,0.000000,0.000000,0.000000,0.000000,0.000000,0.000000,0.000000,0.000000,0.000000,1769523339.342770,0.000000
160.000000,15638.688581,14584.043870,2781.115804,-3417.335858,7378.668473,-9204.068387,692.032360,-17198.907399,13691.359900,11721.143034,-8697.443747,332.750420,21880.212054,13157.153208,-338.047783,3473.170516,0.004000,-0.016000,1.006000,192.000000,0.000000,16.000000,127.500000,64.000000,15.500000,56.000000,0.000000,0.000000,0.000000,1769523339.342780,0.000000
162.000000,15604.468060,14551.164454,2723.783579,-3473.014053,7346.034926,-9235.293774,640.288072,-17268.398973,13537.579899,11706.390882,-8634.411828,373.564705,21891.365575,13186.925732,-294.014847,3508.262754,0.004000,-0.016000,1.006000,192.000000,0.000000,0.000000,0.000000,0.000000,0.000000,0.000000,0.000000,0.000000,0.000000,1769523339.342790,0.000000
164.000000,15630.977229,14583.440373,2720.944908,-3479.272542,7370.957121,-9248.324841,636.376516,-17272.757563,13719.701912,11701.540554,-8740.627318,306.420065,21840.291839,13130.934612,-373.050615,3453.232760,0.004000,-0.016000,1.006000,192.000000,0.000000,0.000000,0.000000,0.000000,0.000000,0.000000,0.000000,0.000000,0.000000,1769523339.342800,0.000000
166.000000,15627.244488,14566.274234,2780.355845,-3419.056942,7362.977548,-9206.549431,691.227697,-17197.610998,13565.765448,11723.937002,-8626.566366,380.605505,21892.192589,13194.681787,-284.627114,3502.272487,0.004000,-0.016000,1.006000,192.000000,0.000000,0.000000,0.000000,0.000000,0.000000,0.000000,0.000000,0.000000,0.000000,1769523339.342810,0.000000
168.000000,15612.782909,14564.687260,2694.458091,-3507.368685,7347.890120,-9260.148914,606.983972,-17307.738043,13631.747798,11704.155708,-8688.033663,342.316966,21875.205264,13163.143475,-335.969071,3468.677815,0.004000,-0.016000,1.006000,192.000000,0.000000,0.000000,0.000000,0.000000,0.000000,0.000000,0.000000,0.000000,0.000000,1769523339.342821,0.000000
170.000000,15651.540834,14595.398557,2789.251839,-3410.585631,7385.932790,-9195.798242,696.949744,-17188.111506,13696.858430,11730.173138,-8691.364073,341.065269,21883.095429,13177.694461,-344.708603,3468.163725,0.002000,-0.020000,1.000000,192.000000,0.000000,8.000000,127.500000,48.000000,15.500000,32.000000,0.000000,0.000000,0.000000,1769523339.342831,0.000000
172.000000,15614.682807,14561.356850,2731.472579,-3463.089879,7347.867769,-9231.717495,642.970281,-17256.150217,13549.783951,11721.433606,-8621.403113,386.484013,21884.458886,13207.154060,-295.110082,3504.932345,0.002000,-0.020000,1.000000,192.000000,0.000000,0.000000,0.000000,0.000000,0.000000,0.000000,0.000000,0.000000,0.000000,1769523339.342841,0.000000
174.000000,15650.289136,14601.791156,2729.282108,-3465.794440,7378.377900,-9233.036248,640.466886,-17255.993754,13731.861261,11718.885507,-8729.071466,321.708658,21854.909880,13155.700345,-373.050615,3453.009242,0.002000,-0.020000,1.000000,192.000000,0.000000,0.000000,0.000000,0.000000,0.000000,0.000000,0.000000,0.000000,0.000000,1769523339.342851,0.000000
176.000000,15648.545700,14587.106059,2783.887420,-3407.992829,7372.074708,-9195.820593,693.932258,-17181.853018,13590.598236,11748.546272,-8605.958057,406.779397,21937.901907,13238.625316,-296.294724,3502.205432,0.002000,-0.020000,1.000000,192.000000,0.000000,0.000000,0.000000,0.000000,0.000000,0.000000,0.000000,0.000000,0.000000,1769523339.342861,0.000000
178.000000,15634.128825,14583.708594,2694.838070,-3504.060627,7345.096152,-9264.418097,606.201661,-17296.428060,13642.297821,11715.465691,-8677.327177,360.757156,21861.771865,13172.173580,-331.699888,3482.021806,0.002000,-0.020000,1.000000,192.000000,0.000000,0.000000,0.000000,0.000000,0.000000,0.000000,0.000000,0.000000,0.000000,1769523339.822548,0.000000
180.000000,15674.004337,14612.721159,2793.230449,-3408.708085,7390.269028,-9195.038282,699.162567,-17176.332137,13713.711645,11740.007906,-8679.227075,358.790202,21882.111953,13173.157057,-338.360708,3473.036405,0.005000,-0.019000,1.001000,192.000000,0.000000,32.000000,127.500000,56.000000,15.500000,40.000000,0.000000,0.000000,0.000000,1769523339.822611,0.000000
182.000000,15641.661363,14574.656138,2742.626100,-3467.470821,7363.357528,-9229.549376,648.960549,-17245.779007,13564.625509,11726.373342,-8607.343865,398.710418,21902.452040,13202.907229,-284.850631,3503.434778,0.005000,-0.019000,1.001000,192.000000,0.000000,0.000000,0.000000,0.000000,0.000000,0.000000,0.000000,0.000000,0.000000,1769523339.822655,0.000000
184.000000,15659.095724,14598.773670,2732.724277,-3478.512583,7380.546019,-9246.536702,636.711793,-17262.252243,13744.132369,11717.164423,-8717.157986,321.932175,21881.553159,13143.697458,-366.367443,3453.277463,0.005000,-0.019000,1.001000,192.000000,0.000000,0.000000,0.000000,0.000000,0.000000,0.000000,0.000000,0.000000,0.000000,1769523339.822695,0.000000
186.000000,15649.484473,14579.841742,2787.933086,-3415.570070,7375.405118,-9210.326875,691.361808,-17191.285454,13586.261998,11733.905880,-8612.060083,387.601601,21897.244084,13207.802261,-280.112062,3506.139339,0.005000,-0.019000,1.001000,192.000000,0.000000,0.000000,0.000000,0.000000,0.000000,0.000000,0.000000,0.000000,0.000000,1769523339.822733,0.000000
188.000000,15631.804244,14575.550208,2695.262753,-3504.150033,7359.401269,-9254.873902,604.614688,-17304.117060,13646.388191,11716.940906,-8675.136706,352.352900,21875.853464,13172.173580,-333.465676,3479.116080,0.005000,-0.019000,1.001000,192.000000,0.000000,0.000000,0.000000,0.000000,0.000000,0.000000,0.000000,0.000000,0.000000,1769523339.822776,0.000000
190.000000,15670.830389,14609.189583,2784.937952,-3405.310620,7400.640237,-9184.577666,694.535755,-17182.389460,13708.302523,11738.845615,-8690.067672,348.195475,21881.664918,13190.122031,-341.087620,3474.690434,0.006500,-0.020500,1.003500,192.000000,0.000000,32.000000,127.500000,40.000000,15.500000,56.000000,0.000000,0.000000,0.000000,1769523339.822802,0.000000
192.000000,15633.972363,14573.382088,2727.248100,-3457.568998,7360.474153,-9222.329762,643.417316,-17249.802321,13562.367983,11742.846578,-8611.881269,407.002915,21898.831057,13223.761406,-289.410387,3505.558193,0.006500,-0.020500,1.003500,192.000000,0.000000,0.000000,0.000000,0.000000,0.000000,0.000000,0.000000,0.000000,0.000000,1769523339.822813,0.000000
194.000000,15658.268709,14603.825164,2720.609632,-3470.175382,7378.176734,-9235.182015,634.521322,-17260.598214,13730.296639,11722.327676,-8728.624431,329.352955,21842.303496,13154.895682,-368.669673,3466.241475,0.006500,-0.020500,1.003500,192.000000,0.000000,0.000000,0.000000,0.000000,0.000000,0.000000,0.000000,0.000000,0.000000,1769523339.822823,0.000000
196.000000,15660.392125,14596.829068,2784.021531,-3403.500128,7386.782156,-9177.805087,694.803976,-17176.667413,13589.078318,11754.022450,-8608.237935,408.098150,21910.386909,13229.550508,-288.404559,3511.235536,0.006500,-0.020500,1.003500,192.000000,0.000000,0.000000,0.000000,0.000000,0.000000,0.000000,0.000000,0.000000,0.000000,1769523339.822834,0.000000
198.000000,15633.190052,14581.205199,2687.529050,-3503.099502,7351.578158,-9260.327728,604.167653,-17298.864400,13644.912975,11732.385961,-8670.576950,367.887362,21874.758229,13195.240580,-335.745553,3483.944057,0.006500,-0.020500,1.003500,192.000000,0.000000,0.000000,0.000000,0.000000,0.000000,0.000000,0.000000,0.000000,0.000000,1769523339.822845,0.000000
200.000000,15673.423192,14614.017560,2780.579362,-3406.003524,7390.470194,-9195.060634,694.491052,-17176.019213,13704.234505,11745.841711,-8687.899552,356.152696,21862.084790,13190.412604,-337.913673,3477.663216,0.006250,-0.019250,1.004750,192.000000,0.000000,24.000000,127.500000,56.000000,15.500000,56.000000,0.000000,0.000000,0.000000,1769523339.822855,0.000000
202.000000,15642.086046,14578.143010,2729.438571,-3458.664234,7365.279778,-9220.273402,645.697194,-17240.682809,13556.377716,11739.046781,-8612.037732,406.131197,21889.823304,13222.643819,-283.867155,3509.492100,0.006250,-0.019250,1.004750,192.000000,0.000000,0.000000,0.000000,0.000000,0.000000,0.000000,0.000000,0.000000,0.000000,1769523339.822865,0.000000
204.000000,15663.566072,14604.428661,2722.397771,-3472.231742,7384.301112,-9234.444408,637.248234,-17254.049153,13736.286907,11728.496758,-8722.298887,334.158580,21845.633906,13154.649813,-370.368406,3459.759469,0.006250,-0.019250,1.004750,192.000000,0.000000,0.000000,0.000000,0.000000,0.000000,0.000000,0.000000,0.000000,0.000000,1769523339.822875,0.000000
206.000000,15661.174436,14589.900028,2788.849507,-3411.055018,7384.502278,-9183.571837,696.122729,-17177.203855,13591.179382,11748.926252,-8607.455624,405.594755,21907.592941,13217.838194,-282.928381,3512.755455,0.006250,-0.019250,1.004750,192.000000,0.000000,0.000000,0.000000,0.000000,0.000000,0.000000,0.000000,0.000000,0.000000,1769523339.822886,0.000000
208.000000,15642.868357,14583.552132,2701.074207,-3508.732141,7370.957121,-9250.381202,607.989801,-17296.808040,13647.706943,11726.730970,-8667.335947,363.953455,21893.757211,13179.549656,-324.390867,3478.557286,0.006250,-0.019250,1.004750,192.000000,0.000000,0.000000,0.000000,0.000000,0.000000,0.000000,0.000000,0.000000,0.000000,1769523339.822897,0.000000
210.000000,15679.569921,14609.234286,2791.799938,-3414.988925,7411.458482,-9186.656378,696.055674,-17183.037660,13717.131462,11742.108970,-8683.451555,349.156600,21877.753362,13181.941293,-329.464713,3474.891600,0.006125,-0.016625,1.006375,192.000000,0.000000,24.000000,127.500000,72.000000,15.500000,64.000000,0.000000,0.000000,0.000000,1769523339.822914,0.000000
212.000000,15644.611793,14573.717365,2735.630004,-3464.743908,7371.672377,-9223.156777,646.747726,-17249.109417,13562.233873,11729.301420,-8609.511985,395.044732,21904.664863,13216.966476,-280.559096,3510.296763,0.006125,-0.016625,1.006375,192.000000,0.000000,0.000000,0.000000,0.000000,0.000000,0.000000,0.000000,0.000000,0.000000,1769523339.822925,0.000000
214.000000,15666.225930,14602.573467,2723.425951,-3474.042234,7394.538211,-9234.489111,636.711793,-17263.727458,13742.880671,11719.846632,-8720.153120,325.843731,21859.626098,13155.298013,-373.207077,3454.730327,0.006125,-0.016625,1.006375,192.000000,0.000000,0.000000,0.000000,0.000000,0.000000,0.000000,0.000000,0.000000,0.000000,1769523339.822935,0.000000
216.000000,15648.769218,14571.124562,2778.612408,-3413.871338,7382.647083,-9199.128652,691.048883,-17196.895742,13586.485515,11734.464673,-8616.709246,388.965057,21908.554066,13213.010217,-280.760262,3501.624286,0.006125,-0.016625,1.006375,192.000000,0.000000,0.000000,0.000000,0.000000,0.000000,0.000000,0.000000,0.000000,0.000000,1769523339.822945,0.000000
218.000000,15621.723607,14557.713515,2685.785614,-3507.838071,7354.975623,-9262.473495,601.619554,-17316.164650,13629.378513,11703.328693,-8685.060881,341.109972,21857.994420,13170.765420,-319.920518,3480.613647,0.006125,-0.016625,1.006375,192.000000,0.000000,0.000000,0.000000,0.000000,0.000000,0.000000,0.000000,0.000000,0.000000,1769523339.822955,0.000000
220.000000,15663.029631,14594.526839,2777.651283,-3412.999620,7394.582915,-9194.568896,690.467738,-17195.778155,13702.088738,11728.116778,-8698.874259,335.522036,21876.903996,13179.639063,-339.925330,3480.390129,0.005063,-0.014313,1.008188,192.000000,0.000000,16.000000,127.500000,80.000000,15.500000,72.000000,0.000000,0.000000,0.000000,1769523339.822966,0.000000
222.000000,15638.263898,14569.783457,2732.165483,-3460.921760,7361.189408,-9215.199556,646.568912,-17251.925737,13550.879186,11730.687229,-8619.547918,391.714322,21883.609519,13222.442653,-285.387073,3512.017848,0.005063,-0.014313,1.008188,192.000000,0.000000,0.000000,0.000000,0.000000,0.000000,0.000000,0.000000,0.000000,0.000000,1769523339.822976,0.000000
224.000000,15664.773067,14604.138089,2721.146073,-3474.846897,7382.870601,-9234.287946,636.331813,-17264.241548,13735.616354,11729.815510,-8725.763407,328.570643,21860.989554,13175.593397,-370.077833,3457.546646,0.005063,-0.014313,1.008188,192.000000,0.000000,0.000000,0.000000,0.000000,0.000000,0.000000,0.000000,0.000000,0.000000,1769523339.822986,0.000000
226.000000,15661.934395,14589.430641,2782.926295,-3412.954916,7380.121336,-9194.278323,696.078026,-17184.334062,13591.402899,11752.703697,-8614.697589,400.565612,21917.874744,13235.674886,-288.270448,3509.894432,0.005063,-0.014313,1.008188,192.000000,0.000000,0.000000,0.000000,0.000000,0.000000,0.000000,0.000000,0.000000,0.000000,1769523339.822997,0.000000
228.000000,15648.836273,14586.144934,2693.809890,-3504.686475,7359.043641,-9240.099399,609.688534,-17294.796383,13639.973240,11731.804816,-8673.929712,364.668711,21874.311194,13188.557409,-330.962280,3479.808984,0.005063,-0.014313,1.008188,192.000000,0.000000,0.000000,0.000000,0.000000,0.000000,0.000000,0.000000,0.000000,0.000000,1769523339.823007,0.000000
230.000000,15683.794401,14611.737682,2784.870897,-3415.391256,7398.427415,-9186.008178,693.462872,-17182.702384,13719.388988,11750.267357,-8687.050186,357.851429,21869.505569,13185.964607,-345.982652,3469.415423,0.005531,-0.014156,1.009094,192.000000,0.000000,24.000000,127.500000,72.000000,15.500000,72.000000,0.000000,0.000000,0.000000,1769523339.823017,0.000000
232.000000,15651.496130,14576.779554,2737.753420,-3463.089879,7370.241865,-9217.971172,646.099525,-17244.057923,13561.853893,11736.744551,-8611.434235,402.577269,21898.160505,13217.324104,-280.268524,3508.039237,0.005531,-0.014156,1.009094,192.000000,0.000000,0.000000,0.000000,0.000000,0.000000,0.000000,0.000000,0.000000,0.000000,1769523339.823028,0.000000
234.000000,15672.417363,14605.345083,2722.442475,-3479.071376,7392.168926,-9233.170358,632.666127,-17262.475760,13741.226642,11727.178005,-8720.778968,331.386963,21881.329642,13162.361164,-363.618179,3457.300777,0.005531,-0.014156,1.009094,192.000000,0.000000,0.000000,0.000000,0.000000,0.000000,0.000000,0.000000,0.000000,0.000000,1769523339.823038,0.000000
236.000000,15672.171494,14593.185734,2784.557972,-3412.597288,7391.721891,-9186.902247,692.635857,-17181.294224,13593.638074,11748.613328,-8614.563479,399.403322,21899.345148,13225.594249,-276.468727,3506.251097,0.005531,-0.014156,1.009094,192.000000,0.000000,0.000000,0.000000,0.000000,0.000000,0.000000,0.000000,0.000000,0.000000,1769523339.823048,0.000000
238.000000,15642.577784,14577.830085,2689.496003,-3502.764225,7370.152458,-9238.601832,604.882908,-17300.071394,13644.600051,11725.434569,-8667.939445,364.355786,21882.603691,13184.064708,-332.638661,3477.640865,0.005531,-0.014156,1.009094,192.000000,0.000000,0.000000,0.000000,0.000000,0.000000,0.000000,0.000000,0.000000,0.000000,1769523339.823058,0.000000
240.000000,15666.538854,14597.007882,2775.527868,-3411.569108,7392.683016,-9194.188916,688.836061,-17195.085251,13708.615447,11732.900051,-8696.594381,344.261568,21870.489045,13188.915037,-340.484123,3477.573809,0.005766,-0.018078,1.006547,192.000000,0.000000,24.000000,127.500000,40.000000,15.500000,48.000000,0.000000,0.000000,0.000000,1769523339.823068,0.000000
242.000000,15629.524366,14560.015745,2727.762190,-3458.440716,7355.914397,-9225.190786,644.669014,-17255.569071,13542.899614,11718.170252,-8623.727694,386.908697,21896.886456,13211.266781,-276.692245,3513.671877,0.005766,-0.018078,1.006547,192.000000,0.000000,0.000000,0.000000,0.000000,0.000000,0.000000,0.000000,0.000000,0.000000,1769523339.823080,0.000000
244.000000,15654.491264,14591.598760,2716.116931,-3477.998492,7375.271007,-9243.608623,630.565063,-17271.908196,13728.575555,11709.386016,-8729.853777,318.288841,21847.511452,13154.225129,-364.176972,3463.536914,0.005766,-0.018078,1.006547,192.000000,0.000000,0.000000,0.000000,0.000000,0.000000,0.000000,0.000000,0.000000,0.000000,1769523339.823090,0.000000
246.000000,15652.390200,14576.936016,2778.590057,-3417.335858,7373.549923,-9195.820593,689.730130,-17191.710137,13584.406803,11728.228537,-8621.447816,384.137080,21902.876723,13213.434900,-281.855498,3512.867214,0.005766,-0.018078,1.006547,192.000000,0.000000,0.000000,0.000000,0.000000,0.000000,0.000000,0.000000,0.000000,0.000000,1769523339.823100,0.000000
248.000000,15638.353305,14573.538551,2693.608724,-3511.123778,7360.630615,-9251.990527,604.882908,-17303.580618,13634.407656,11706.569696,-8674.667320,348.061365,21860.810740,13180.577836,-323.787370,3485.978065,0.005766,-0.018078,1.006547,192.000000,0.000000,0.000000,0.000000,0.000000,0.000000,0.000000,0.000000,0.000000,0.000000,1769523339.823110,0.000000
250.000000,15674.898407,14601.858211,2785.228525,-3423.795512,7397.220421,-9191.774928,691.942953,-17190.905475,13717.019703,11731.156615,-8690.604113,340.551179,21884.592996,13181.494258,-341.221731,3477.685568,0.005766,-0.018078,1.006547,192.000000,0.000000,0.000000,0.000000,0.000000,0.000000,0.000000,0.000000,0.000000,0.000000,1769523339.823121,0.000000
252.000000,15641.683715,14568.397649,2737.284033,-3470.130678,7366.419717,-9222.463873,647.954720,-17248.036533,13554.947204,11720.114853,-8613.401188,389.099167,21899.434555,13211.713816,-278.815660,3510.073246,0.002000,-0.020000,1.002000,192.000000,0.000000,8.000000,127.500000,48.000000,15.500000,40.000000,0.000000,0.000000,0.000000,1769523339.823132,0.000000
254.000000,15666.762372,14601.500583,2724.811760,-3487.207411,7387.430356,-9232.969193,633.247272,-17264.576824,13738.767950,11718.930211,-8718.521442,323.608556,21869.013830,13152.615804,-367.127403,3454.462106,0.002000,-0.020000,1.002000,192.000000,0.000000,0.000000,0.000000,0.000000,0.000000,0.000000,0.000000,0.000000,0.000000,1769523339.823142,0.000000
0.000000,15664.907177,14586.703728,2787.687217,-3422.052076,7387.184487,-9193.630122,693.373465,-17183.372937,13594.375681,11738.890319,-8613.334133,389.479147,21912.465622,13211.222078,-274.166497,3502.875984,0.002000,-0.020000,1.002000,192.000000,0.000000,0.000000,0.000000,0.000000,0.000000,0.000000,0.000000,0.000000,0.000000,1769523339.823152,0.000000
2.000000,15647.673982,14580.847571,2699.375474,-3513.493063,7370.174810,-9253.622204,608.123911,-17298.372662,13639.392095,11716.739740,-8665.011366,357.404394,21870.623156,13184.243522,-320.076981,3474.735138,0.002000,-0.020000,1.002000,192.000000,0.000000,0.000000,0.000000,0.000000,0.000000,0.000000,0.000000,0.000000,0.000000,1769523339.823163,0.000000
4.000000,15672.260901,14601.366472,2780.534658,-3425.628355,7395.119357,-9200.536811,689.216040,-17195.956969,13710.425938,11726.976839,-8694.985055,338.003080,21887.677537,13168.999632,-331.275205,3472.119984,0.002000,-0.020000,1.002000,192.000000,0.000000,0.000000,0.000000,0.000000,0.000000,0.000000,0.000000,0.000000,0.000000,1769523339.823173,0.000000
6.000000,15639.537947,14567.771800,2734.244196,-3466.442641,7362.105830,-9220.787492,647.239464,-17252.238661,13546.319431,11718.751397,-8617.916240,388.920354,21893.399584,13211.624409,-280.000303,3512.129606,0.004000,-0.020000,1.006000,192.000000,0.000000,16.000000,127.500000,48.000000,15.500000,56.000000,0.000000,0.000000,0.000000,1769523339.823183,0.000000
8.000000,15654.379505,14592.202257,2716.541614,-3485.575734,7385.396348,-9244.815617,629.782752,-17280.021880,13719.657209,11708.223725,-8733.877091,314.734914,21857.301516,13158.449609,-362.746461,3459.155972,0.004000,-0.020000,1.006000,192.000000,0.000000,0.000000,0.000000,0.000000,0.000000,0.000000,0.000000,0.000000,0.000000,1769523339.823193,0.000000
10.000000,15651.093799,14572.733888,2778.366539,-3415.659477,7380.881295,-9198.949838,690.445386,-17200.159097,13581.299911,11730.061380,-8629.069761,381.074891,21902.139116,13216.027703,-277.273390,3498.964429,0.004000,-0.020000,1.006000,192.000000,0.000000,0.000000,0.000000,0.000000,0.000000,0.000000,0.000000,0.000000,0.000000,1769523339.823203,0.000000
12.000000,15631.357209,14563.212045,2686.746739,-3507.256926,7354.997975,-9257.220835,604.614688,-17317.528107,13618.940248,11702.904010,-8687.273703,342.898112,21879.563854,13182.410679,-325.486103,3479.116080,0.004000,-0.020000,1.006000,192.000000,0.000000,0.000000,0.000000,0.000000,0.000000,0.000000,0.000000,0.000000,0.000000,1769523339.823214,0.000000
14.000000,15665.622433,14587.418984,2772.353920,-3420.554509,7386.156307,-9200.648570,687.271439,-17208.943332,13700.568819,11719.153728,-8711.145367,327.989498,21879.452095,13169.245502,-343.412202,3469.638940,0.004000,-0.020000,1.006000,192.000000,0.000000,0.000000,0.000000,0.000000,0.000000,0.000000,0.000000,0.000000,0.000000,1769523339.823246,0.000000
16.000000,15632.877127,14555.813617,2728.320983,-3464.051004,7350.594682,-9214.908983,645.473676,-17261.671097,13538.921003,11709.609534,-8629.561499,377.543316,21896.752345,13208.942200,-287.599896,3510.363818,0.008000,-0.012000,1.010000,192.000000,0.000000,32.000000,127.500000,80.000000,15.500000,72.000000,0.000000,0.000000,0.000000,1769523339.823256,0.000000
18.000000,15657.642860,14591.352891,2713.278259,-3484.391091,7370.465382,-9240.322917,628.866330,-17282.502923,13719.523098,11705.027426,-8739.509730,309.169329,21845.522147,13149.307746,-380.471394,3458.083088,0.008000,-0.012000,1.010000,192.000000,0.000000,0.000000,0.000000,0.000000,0.000000,0.000000,0.000000,0.000000,0.000000,1769523339.823274,0.000000
20.000000,15661.509712,14582.188676,2780.154679,-3415.547718,7373.907551,-9193.473660,693.082892,-17193.498277,13585.055004,11732.520072,-8628.846243,382.795976,21897.467601,13212.227906,-286.392902,3507.279278,0.008000,-0.012000,1.010000,192.000000,0.000000,0.000000,0.000000,0.000000,0.000000,0.000000,0.000000,0.000000,0.000000,1769523339.823285,0.000000
22.000000,15646.735209,14580.735812,2693.653428,-3509.380342,7353.142780,-9256.237359,608.906222,-17302.261865,13629.847900,11715.800967,-8675.539038,356.197400,21886.984633,13180.980168,-328.347126,3475.249228,0.008000,-0.012000,1.010000,192.000000,0.000000,0.000000,0.000000,0.000000,0.000000,0.000000,0.000000,0.000000,0.000000,1769523339.823295,0.000000
24.000000,15680.508695,14609.368397,2777.763042,-3421.627393,7382.222400,-9202.168489,689.707779,-17193.744146,13712.862279,11733.682362,-8698.851907,339.768867,21871.271356,13170.877179,-348.620158,3463.492210,0.008000,-0.012000,1.010000,192.000000,0.000000,0.000000,0.000000,0.000000,0.000000,0.000000,0.000000,0.000000,0.000000,1769523339.823305,0.000000
26.000000,15642.980116,14568.487056,2734.333603,-3468.677815,7352.807504,-9228.275326,645.652490,-17252.484531,13549.426323,11727.848557,-8615.591659,392.787205,21895.992386,13215.535964,-279.620323,3505.602897,0.008000,-0.026000,1.016000,192.000000,0.000000,32.000000,127.500000,24.000000,15.500000,96.000000,0.000000,0.000000,0.000000,1769523339.823315,0.000000
28.000000,15664.594253,14597.454917,2718.173291,-3490.515469,7373.572275,-9246.335536,628.642813,-17276.043269,13726.094511,11716.024484,-8726.702181,318.221786,21850.663048,13160.573025,-365.160449,3455.937321,0.008000,-0.026000,1.016000,192.000000,0.000000,0.000000,0.000000,0.000000,0.000000,0.000000,0.000000,0.000000,0.000000,1769523339.823325,0.000000
30.000000,15667.052945,14584.692071,2784.379159,-3419.638088,7374.622807,-9193.250143,692.769968,-17189.810239,13591.492306,11741.706639,-8620.173767,384.852336,21914.834906,13217.815842,-288.069283,3506.362856,0.008000,-0.026000,1.016000,192.000000,0.000000,0.000000,0.000000,0.000000,0.000000,0.000000,0.000000,0.000000,0.000000,1769523339.823336,0.000000
32.000000,15644.790607,14570.409306,2692.178213,-3516.242327,7355.668528,-9257.422001,604.167653,-17307.916857,13626.361028,11715.108063,-8673.549732,347.904902,21874.378249,13189.831458,-323.787370,3481.597123,0.008000,-0.026000,1.016000,192.000000,0.000000,0.000000,0.000000,0.000000,0.000000,0.000000,0.000000,0.000000,0.000000,1769523339.823382,0.000000
34.000000,15683.079145,14601.589990,2777.070138,-3424.041381,7391.364263,-9203.911925,687.472604,-17197.409832,13710.470642,11729.457883,-8699.455404,331.968109,21875.741705,13176.599226,-344.529789,3470.801231,0.008000,-0.026000,1.016000,192.000000,0.000000,0.000000,0.000000,0.000000,0.000000,0.000000,0.000000,0.000000,0.000000,1769523339.823393,0.000000
36.000000,15655.005354,14573.136219,2736.188797,-3464.565094,7356.897874,-9215.646591,647.932368,-17248.014182,13548.845178,11720.539537,-8614.004685,387.556897,21899.680424,13220.408645,-279.709730,3507.480443,0.006000,-0.022000,1.008000,192.000000,0.000000,24.000000,127.500000,40.000000,15.500000,64.000000,0.000000,0.000000,0.000000,1769523339.823403,0.000000
38.000000,15676.664195,14604.786289,2716.206338,-3486.290990,7376.567409,-9237.059562,627.547577,-17272.802266,13728.955535,11717.723217,-8723.796454,321.283975,21851.735932,13159.388382,-375.174031,3454.618568,0.006000,-0.022000,1.008000,192.000000,0.000000,0.000000,0.000000,0.000000,0.000000,0.000000,0.000000,0.000000,0.000000,1769523339.823414,0.000000
40.000000,15678.273520,14592.537533,2784.669731,-3416.374733,7376.388595,-9192.043149,693.351113,-17183.238826,13589.905332,11737.079827,-8621.269002,387.579249,21904.977787,13225.482491,-283.956562,3502.831281,0.006000,-0.022000,1.008000,192.000000,0.000000,0.000000,0.000000,0.000000,0.000000,0.000000,0.000000,0.000000,0.000000,1769523339.823424,0.000000
42.000000,15667.432924,14589.832972,2696.290934,-3507.368685,7357.479019,-9243.318050,607.878042,-17292.538857,13632.284240,11720.271316,-8664.184351,361.271246,21876.456961,13193.430089,-327.162484,3484.480498,0.006000,-0.022000,1.008000,192.000000,0.000000,0.000000,0.000000,0.000000,0.000000,0.000000,0.000000,0.000000,0.000000,1769523340.303171,0.000000
44.000000,15708.604837,14623.673513,2784.960304,-3416.933527,7399.142671,-9190.657340,692.837023,-17180.578969,13724.731055,11743.047743,-8687.027834,349.424821,21890.091525,13189.138554,-344.641548,3471.672949,0.006000,-0.022000,1.008000,192.000000,0.000000,0.000000,0.000000,0.000000,0.000000,0.000000,0.000000,0.000000,0.000000,1769523340.303246,0.000000
46.000000,15672.037384,14587.307225,2742.983728,-3459.915931,7367.649063,-9210.818614,652.447421,-17233.753769,13558.322317,11739.940851,-8601.241839,407.382894,21917.137136,13231.092779,-281.408463,3510.609688,0.008000,-0.016000,1.006000,192.000000,0.000000,32.000000,127.500000,64.000000,15.500000,56.000000,0.000000,0.000000,0.000000,1769523340.303298,0.000000
48.000000,15689.739965,14614.017560,2719.849672,-3482.044158,7374.533400,-9241.351097,631.682650,-17260.106475,13734.699933,11724.026409,-8714.386370,334.180931,21863.984688,13173.760554,-365.182801,3458.038385,0.008000,-0.016000,1.006000,192.000000,0.000000,0.000000,0.000000,0.000000,0.000000,0.000000,0.000000,0.000000,0.000000,1769523340.303350,0.000000
50.000000,15687.773012,14601.210010,2788.089548,-3412.016143,7378.176734,-9192.870163,698.871994,-17173.202893,13600.231838,11747.294575,-8610.629572,403.314877,21908.375252,13226.577726,-295.490062,3509.089769,0.008000,-0.016000,1.006000,192.000000,0.000000,0.000000,0.000000,0.000000,0.000000,0.000000,0.000000,0.000000,0.000000,1769523340.303409,0.000000
52.000000,15666.784724,14592.962216,2697.877908,-3507.569850,7364.363356,-9257.667870,611.208452,-17290.951883,13627.903298,11720.204260,-8664.072593,367.686196,21875.652298,13186.679862,-316.858329,3479.898391,0.008000,-0.016000,1.006000,192.000000,0.000000,0.000000,0.000000,0.000000,0.000000,0.000000,0.000000,0.000000,0.000000,1769523340.303433,0.000000
54.000000,15701.876962,14619.896069,2781.115804,-3422.074428,7395.521688,-9202.101434,692.546450,-17186.904512,13722.451177,11738.376229,-8690.604113,351.302368,21888.973938,13175.615749,-345.379155,3470.801231,0.008000,-0.016000,1.006000,192.000000,0.000000,0.000000,0.000000,0.000000,0.000000,0.000000,0.000000,0.000000,0.000000,1769523340.303457,0.000000
56.000000,15670.629224,14585.384975,2741.888492,-3463.805135,7369.168981,-9216.719474,652.693290,-17240.347533,13551.840312,11725.859252,-8609.511985,398.777473,21916.712453,13214.887764,-272.154840,3509.581507,0.006000,-0.016000,1.010000,192.000000,0.000000,24.000000,127.500000,64.000000,15.500000,72.000000,0.000000,0.000000,0.000000,1769523340.303480,0.000000
58.000000,15686.744831,14610.351874,2720.497873,-3484.122870,7390.961932,-9232.320992,631.861464,-17268.331917,13735.705761,11720.092502,-8718.096759,328.548292,21862.844749,13170.385441,-359.036071,3458.507771,0.006000,-0.016000,1.010000,192.000000,0.000000,0.000000,0.000000,0.000000,0.000000,0.000000,0.000000,0.000000,0.000000,1769523340.303504,0.000000
60.000000,15682.900331,14596.560847,2789.229487,-3409.378637,7387.385653,-9188.042186,699.922526,-17179.617844,13602.176440,11744.411200,-8615.122272,396.363484,21921.987465,13226.220098,-288.605724,3507.256926,0.006000,-0.016000,1.010000,192.000000,0.000000,0.000000,0.000000,0.000000,0.000000,0.000000,0.000000,0.000000,0.000000,1769523340.303527,0.000000
62.000000,15659.431000,14584.759126,2696.179175,-3505.222917,7361.524685,-9251.588196,609.263850,-17298.171496,13630.138472,11715.644505,-8666.754802,360.824211,21880.346165,13187.126897,-319.495835,3489.017902,0.006000,-0.016000,1.010000,192.000000,0.000000,0.000000,0.000000,0.000000,0.000000,0.000000,0.000000,0.000000,0.000000,1769523340.303551,0.000000
64.000000,15700.222933,14623.226478,2781.764004,-3414.474835,7401.981342,-9191.260837,692.457043,-17186.032794,13722.294715,11735.559909,-8695.566201,345.289748,21874.154732,13183.416508,-340.081792,3469.907161,0.006000,-0.016000,1.010000,192.000000,0.000000,0.000000,0.000000,0.000000,0.000000,0.000000,0.000000,0.000000,0.000000,1769523340.303574,0.000000
66.000000,15677.714727,14598.259580,2744.928330,-3453.344518,7374.131068,-9217.591192,656.224865,-17232.636181,13558.411724,11739.963202,-8604.482842,408.455778,21900.663900,13238.871186,-271.596047,3510.676743,0.008000,-0.016000,1.010000,192.000000,0.000000,40.000000,127.500000,64.000000,15.500000,72.000000,0.000000,0.000000,0.000000,1769523340.303598,0.000000
68.000000,15703.776861,14630.803720,2724.677649,-3477.886734,7391.990112,-9238.579480,634.476618,-17258.698315,13743.081837,11732.162444,-8713.559355,340.908806,21875.920519,13169.871351,-361.651225,3458.865399,0.008000,-0.016000,1.010000,192.000000,0.000000,0.000000,0.000000,0.000000,0.000000,0.000000,0.000000,0.000000,0.000000,1769523340.303621,0.000000
70.000000,15695.462012,14610.597743,2793.990409,-3410.160948,7393.644141,-9190.277361,698.961401,-17174.543998,13616.012170,11754.625947,-8610.607220,405.818272,21909.135212,13229.751674,-284.917687,3504.172385,0.008000,-0.016000,1.010000,192.000000,0.000000,0.000000,0.000000,0.000000,0.000000,0.000000,0.000000,0.000000,0.000000,1769523340.303660,0.000000
72.000000,15658.335764,14582.143972,2693.407559,-3512.576641,7350.684089,-9262.898178,605.888737,-17303.446508,13636.843996,11717.030313,-8666.218360,364.065214,21878.446266,13192.357205,-312.119760,3479.317245,0.008000,-0.016000,1.010000,192.000000,0.000000,0.000000,0.000000,0.000000,0.000000,0.000000,0.000000,0.000000,0.000000,1769523340.303684,0.000000
74.000000,15696.400785,14613.011731,2782.345150,-3424.980155,7398.427415,-9195.865297,690.445386,-17193.565332,13720.148947,11724.361685,-8703.344608,337.600748,21880.234406,13178.432069,-342.115801,3475.830373,0.008000,-0.016000,1.010000,192.000000,0.000000,0.000000,0.000000,0.000000,0.000000,0.000000,0.000000,0.000000,0.000000,1769523340.303707,0.000000
76.000000,15663.253148,14577.651272,2743.810742,-3462.799306,7369.370147,-9216.250088,652.939159,-17242.359190,13557.316489,11720.763054,-8607.969714,396.542298,21907.883514,13224.230793,-277.608666,3509.782673,0.009000,-0.016000,1.010000,192.000000,0.000000,40.000000,127.500000,64.000000,15.500000,72.000000,0.000000,0.000000,0.000000,1769523340.303730,0.000000
78.000000,15673.512599,14596.963179,2716.116931,-3491.275429,7377.640292,-9252.862245,626.854673,-17279.127810,13730.900136,11706.770862,-8722.991791,320.144036,21853.658182,13159.611900,-371.396586,3463.738080,0.009000,-0.016000,1.010000,192.000000,0.000000,0.000000,0.000000,0.000000,0.000000,0.000000,0.000000,0.000000,0.000000,1769523340.303754,0.000000
80.000000,15677.066526,14588.961254,2787.977789,-3413.670172,7385.329292,-9191.037320,697.575593,-17186.926864,13596.275579,11726.172176,-8626.454607,379.465566,21906.810630,13215.647723,-273.808870,3506.675781,0.009000,-0.016000,1.010000,192.000000,0.000000,0.000000,0.000000,0.000000,0.000000,0.000000,0.000000,0.000000,0.000000,1769523340.303777,0.000000
82.000000,15667.075296,14588.469516,2701.029503,-3501.713693,7371.515914,-9242.334574,613.689496,-17294.885790,13634.452359,11715.711560,-8664.050241,357.784373,21882.827208,13195.486450,-314.578451,3481.977103,0.009000,-0.016000,1.010000,192.000000,0.000000,0.000000,0.000000,0.000000,0.000000,0.000000,0.000000,0.000000,0.000000,1769523340.303803,0.000000
84.000000,15699.597084,14616.319789,2780.735824,-3416.330030,7399.433243,-9187.215172,692.859375,-17191.531323,13733.470587,11735.314040,-8693.912172,341.132324,21885.911749,13200.850868,-340.729992,3468.722519,0.009000,-0.016000,1.010000,192.000000,0.000000,0.000000,0.000000,0.000000,0.000000,0.000000,0.000000,0.000000,0.000000,1769523340.303826,0.000000
86.000000,15661.397953,14575.550208,2739.049821,-3459.759469,7362.798734,-9222.307411,652.670938,-17244.035571,13553.628451,11723.579374,-8612.373008,393.234240,21925.340226,13219.112244,-282.123719,3523.327830,0.007500,-0.017000,1.010000,192.000000,0.000000,24.000000,127.500000,56.000000,15.500000,72.000000,0.000000,0.000000,0.000000,1769523340.303850,0.000000
88.000000,15680.128715,14604.428661,2715.669896,-3491.543650,7382.557676,-9247.386068,627.502874,-17278.010223,13728.128520,11706.279124,-8724.981096,320.166388,21855.379266,13157.756705,-351.391775,3463.849838,0.007500,-0.017000,1.010000,192.000000,0.000000,0.000000,0.000000,0.000000,0.000000,0.000000,0.000000,0.000000,0.000000,1769523340.303873,0.000000
90.000000,15682.587407,14595.018577,2787.374292,-3416.106512,7392.548906,-9196.915829,695.183956,-17184.445820,13603.338731,11729.882566,-8622.543052,383.712397,21906.810630,13215.558316,-267.885657,3506.072284,0.007500,-0.017000,1.010000,192.000000,0.000000,0.000000,0.000000,0.000000,0.000000,0.000000,0.000000,0.000000,0.000000,1769523340.303897,0.000000
92.000000,15658.782799,14580.624054,2694.614553,-3509.469749,7365.346833,-9260.148914,607.967449,-17301.837182,13625.131682,11706.748510,-8667.157133,356.689138,21878.826246,13187.439822,-312.119760,3489.666103,0.007500,-0.017000,1.010000,192.000000,0.000000,0.000000,0.000000,0.000000,0.000000,0.000000,0.000000,0.000000,0.000000,1769523340.303920,0.000000
94.000000,15692.511581,14614.017560,2781.831060,-3427.416495,7404.015351,-9210.371579,687.919639,-17196.649873,13725.178090,11722.282973,-8700.952971,334.270338,21888.191627,13176.196894,-334.873835,3466.643806,0.007500,-0.017000,1.010000,192.000000,0.000000,0.000000,0.000000,0.000000,0.000000,0.000000,0.000000,0.000000,0.000000,1769523340.303944,0.000000
96.000000,15661.688526,14581.249902,2745.107144,-3462.933417,7375.069842,-9230.152873,653.363842,-17241.889804,13552.801437,11712.984647,-8612.283601,390.417920,21908.084680,13210.685636,-263.884695,3512.777807,0.008750,-0.015500,1.010000,192.000000,0.000000,40.000000,127.500000,72.000000,15.500000,72.000000,0.000000,0.000000,0.000000,1769523340.303967,0.000000
98.000000,15687.013052,14616.185679,2721.973088,-3487.028597,7393.197107,-9246.804922,631.481484,-17270.388278,13735.303430,11710.548307,-8717.090931,325.039068,21859.134359,13156.773228,-350.162429,3455.490286,0.008750,-0.015500,1.010000,192.000000,0.000000,0.000000,0.000000,0.000000,0.000000,0.000000,0.000000,0.000000,0.000000,1769523340.303990,0.000000
100.000000,15689.069413,14607.312036,2793.968057,-3407.165814,7397.823918,-9187.103413,701.420093,-17177.829704,13613.620533,11736.386923,-8617.446854,391.311990,21918.411186,13223.135558,-276.491079,3505.312324,0.008750,-0.015500,1.010000,192.000000,0.000000,0.000000,0.000000,0.000000,0.000000,0.000000,0.000000,0.000000,0.000000,1769523340.304014,0.000000
102.000000,15665.376564,14594.862115,2701.878870,-3498.740911,7369.392499,-9247.810751,613.801254,-17294.662272,13638.654487,11719.131377,-8658.439953,369.362577,21894.427764,13196.984017,-322.893300,3489.777862,0.008750,-0.015500,1.010000,192.000000,0.000000,0.000000,0.000000,0.000000,0.000000,0.000000,0.000000,0.000000,0.000000,1769523340.304037,0.000000
104.000000,15701.832259,14625.305191,2786.212002,-3418.051114,7409.536232,-9198.234582,692.188822,-17192.514800,13732.487110,11731.514243,-8695.767366,345.692080,21894.047784,13178.655586,-329.218844,3472.164687,0.008750,-0.015500,1.010000,192.000000,0.000000,0.000000,0.000000,0.000000,0.000000,0.000000,0.000000,0.000000,0.000000,1769523340.304061,0.000000
