Sample Index, EXG Channel 0, EXG Channel 1, EXG Channel 2, EXG Channel 3, EXG Channel 4, EXG Channel 5, EXG Channel 6, EXG Channel 7, EXG Channel 8, EXG Channel 9, EXG Channel 10, EXG Channel 11, EXG Channel 12, EXG Channel 13, EXG Channel 14, EXG Channel 15, Accel Channel 0, Accel Channel 1, Accel Channel 2, Not Used, Digital Channel 0 (D11), Digital Channel 1 (D12), Digital Channel 2 (D13), Digital Channel 3 (D17), Not Used, Digital Channel 4 (D18), Analog Channel 0, Analog Channel 1, Analog Channel 2, Timestamp, Marker Channel, Timestamp (Formatted)
210.000000,8031.048838,11114.807262,-17815.547325,-12129.598812,-8072.623083,-9919.011285,-2312.690295,72.821983,6395.884621,8298.442757,1335.986118,71.816155,7917.434921,11786.678348,-2178.557477,-832.803647,0.002000,-0.018000,1.012000,192.000000,0.000000,0.000000,0.000000,0.000000,0.000000,0.000000,0.000000,0.000000,0.000000,1768316585.721358,0.000000
212.000000,8125.887290,11120.261087,-17635.638134,-11997.343540,-7980.958579,-9799.831784,-2201.155090,208.362962,6484.621046,8301.616705,1310.058094,51.856047,7901.989866,11758.984537,-2201.602125,-843.934815,0.002000,-0.018000,1.012000,192.000000,0.000000,0.000000,0.000000,0.000000,0.000000,0.000000,0.000000,0.000000,0.000000,1768316585.721423,0.000000
214.000000,8083.195458,11102.737320,-17723.726359,-12053.178198,-8024.544480,-9846.636337,-2253.659338,141.531246,6351.002318,8334.496121,1414.708962,158.987958,7949.420267,11840.680163,-2109.781159,-841.766696,0.002000,-0.018000,1.012000,192.000000,0.000000,0.000000,0.000000,0.000000,0.000000,0.000000,0.000000,0.000000,0.000000,1768316585.721480,0.000000
216.000000,8050.964242,11119.434073,-17759.623260,-12096.138250,-8046.605652,-9882.890866,-2278.983865,106.640173,6482.519982,8273.900542,1270.674321,-2.078712,7877.537057,11734.822301,-2233.118085,-834.904711,0.002000,-0.014000,1.006000,192.000000,0.000000,8.000000,127.500000,72.000000,15.500000,56.000000,0.000000,0.000000,0.000000,1768316585.721528,0.000000
218.000000,8130.424694,11102.714968,-17608.972503,-11967.325147,-7953.376526,-9762.437315,-2183.921895,219.047096,6404.646504,8332.015077,1392.960714,137.843208,7941.708915,11832.789997,-2116.956069,-845.074754,0.002000,-0.014000,1.006000,192.000000,0.000000,0.000000,0.000000,0.000000,0.000000,0.000000,0.000000,0.000000,0.000000,1768316585.721572,0.000000
220.000000,8015.782597,11100.837422,-17816.776671,-12128.369466,-8065.761097,-9914.406826,-2315.216042,59.813268,6394.789385,8290.887867,1327.648917,54.448849,7900.134671,11778.519962,-2171.561381,-826.008716,0.002000,-0.014000,1.006000,192.000000,0.000000,0.000000,0.000000,0.000000,0.000000,0.000000,0.000000,0.000000,0.000000,1768316585.721616,0.000000
222.000000,8119.449987,11110.493375,-17635.995762,-11990.861534,-7975.817677,-9792.031025,-2200.506890,198.617601,6485.157488,8290.507888,1300.312734,38.042669,7901.475775,11754.067153,-2195.589506,-843.867760,0.002000,-0.014000,1.006000,192.000000,0.000000,0.000000,0.000000,0.000000,0.000000,0.000000,0.000000,0.000000,0.000000,1768316585.721655,0.000000
224.000000,8056.909806,11077.859828,-17731.460062,-12047.970241,-8028.813664,-9851.039630,-2257.503838,123.225167,6340.720515,8322.292068,1400.605011,144.906359,7944.882863,11839.249651,-2107.210709,-840.067964,0.002000,-0.014000,1.006000,192.000000,0.000000,0.000000,0.000000,0.000000,0.000000,0.000000,0.000000,0.000000,0.000000,1768316585.721671,0.000000
226.000000,8040.145998,11102.178526,-17765.837045,-12092.897247,-8054.585225,-9895.072567,-2281.934295,94.614934,6467.365499,8254.409820,1254.245788,-20.429494,7884.421394,11716.158595,-2235.956757,-835.105876,0.006000,-0.024000,1.010000,192.000000,0.000000,24.000000,127.500000,32.000000,15.500000,72.000000,0.000000,0.000000,0.000000,1768316585.721687,0.000000
228.000000,8134.112732,11102.469099,-17609.464241,-11964.799400,-7956.729288,-9773.523781,-2182.156108,220.477607,6397.091615,8319.743969,1385.919915,133.082286,7955.723459,11821.949401,-2123.035744,-851.780278,0.006000,-0.024000,1.010000,192.000000,0.000000,0.000000,0.000000,0.000000,0.000000,0.000000,0.000000,0.000000,0.000000,1768316585.721703,0.000000
230.000000,8023.516300,11109.196974,-17813.736834,-12129.710571,-8080.781469,-9924.465111,-2311.751522,68.217524,6398.566830,8290.418481,1331.091086,64.551838,7889.562296,11776.284787,-2176.054081,-839.084487,0.006000,-0.024000,1.010000,192.000000,0.000000,0.000000,0.000000,0.000000,0.000000,0.000000,0.000000,0.000000,0.000000,1768316585.721718,0.000000
232.000000,8130.044714,11119.590535,-17630.787805,-11993.610799,-7972.397861,-9795.473194,-2195.902431,212.363924,6483.458755,8297.235763,1307.599402,49.598521,7888.221191,11755.475313,-2197.645867,-845.052403,0.006000,-0.024000,1.010000,192.000000,0.000000,0.000000,0.000000,0.000000,0.000000,0.000000,0.000000,0.000000,0.000000,1768316585.721733,0.000000
234.000000,8084.134231,11106.626523,-17719.166603,-12053.133494,-8025.393847,-9853.632433,-2250.552446,148.013252,6351.203483,8338.564138,1420.855692,169.694444,7937.059753,11846.536320,-2104.796720,-846.013528,0.006000,-0.024000,1.010000,192.000000,0.000000,0.000000,0.000000,0.000000,0.000000,0.000000,0.000000,0.000000,0.000000,1768316585.721749,0.000000
236.000000,8056.574530,11130.319372,-17754.795284,-12098.105204,-8044.325774,-9891.138660,-2277.039263,114.083304,6481.447098,8275.062832,1276.083443,3.799797,7879.459307,11726.015714,-2233.565120,-844.873589,0.002000,-0.024000,1.014000,192.000000,0.000000,8.000000,127.500000,32.000000,15.500000,88.000000,0.000000,0.000000,0.000000,1768316585.721765,0.000000
238.000000,8137.331383,11106.894744,-17609.508945,-11971.683737,-7960.819657,-9768.785211,-2184.078358,221.550491,6400.399673,8329.824606,1395.151185,142.671185,7940.412514,11822.664657,-2118.833616,-847.846371,0.002000,-0.024000,1.014000,192.000000,0.000000,0.000000,0.000000,0.000000,0.000000,0.000000,0.000000,0.000000,0.000000,1768316585.721789,0.000000
240.000000,8022.175195,11112.057997,-17815.256752,-12134.158568,-8082.502554,-9919.525375,-2316.087760,60.506172,6392.174231,8285.210524,1331.091086,62.137850,7909.567107,11778.788183,-2179.250381,-833.027164,0.002000,-0.024000,1.014000,192.000000,0.000000,0.000000,0.000000,0.000000,0.000000,0.000000,0.000000,0.000000,0.000000,1768316585.721816,0.000000
242.000000,8124.613240,11117.333009,-17635.235803,-12000.249267,-7971.570846,-9793.886220,-2203.725541,197.030627,6482.967017,8284.785841,1301.162100,37.841503,7905.029703,11746.713429,-2201.043332,-838.168065,0.002000,-0.024000,1.014000,192.000000,0.000000,0.000000,0.000000,0.000000,0.000000,0.000000,0.000000,0.000000,0.000000,1768316585.721839,0.000000
244.000000,8071.594902,11093.863677,-17724.955705,-12056.128628,-8029.998306,-9859.332127,-2260.096641,128.343717,6342.419248,8324.929574,1407.645811,148.169714,7947.475666,11843.541186,-2104.036761,-839.620929,0.002000,-0.024000,1.014000,192.000000,0.000000,0.000000,0.000000,0.000000,0.000000,0.000000,0.000000,0.000000,0.000000,1768316585.721859,0.000000
246.000000,8047.656184,11114.248468,-17760.316165,-12096.607637,-8055.099315,-9895.988988,-2283.163641,98.817062,6472.618159,8263.775201,1264.035852,-12.069942,7889.785813,11723.668781,-2230.167655,-827.998022,0.004000,-0.021000,1.014000,192.000000,0.000000,24.000000,127.500000,56.000000,15.500000,88.000000,0.000000,0.000000,0.000000,1768316585.721876,0.000000
248.000000,8135.297374,11090.399157,-17614.269866,-11967.503961,-7971.839067,-9776.094231,-2186.961733,214.174415,6400.332618,8325.309554,1386.948095,133.372859,7925.816825,11820.653000,-2117.693677,-847.488743,0.004000,-0.021000,1.014000,192.000000,0.000000,0.000000,0.000000,0.000000,0.000000,0.000000,0.000000,0.000000,0.000000,1768316585.721894,0.000000
250.000000,8024.186852,11105.888916,-17818.765976,-12125.150815,-8088.202249,-9929.538957,-2314.657249,60.059137,6387.770937,8288.607989,1326.754847,56.169934,7887.438880,11772.082659,-2180.904410,-831.082562,0.004000,-0.021000,1.014000,192.000000,0.000000,0.000000,0.000000,0.000000,0.000000,0.000000,0.000000,0.000000,0.000000,1768316585.721913,0.000000
252.000000,8127.943650,11113.510861,-17635.995762,-11992.381453,-7983.350215,-9797.775423,-2201.043332,198.215270,6482.944665,8292.296027,1302.637315,38.623814,7893.250333,11754.782409,-2201.713884,-844.247740,0.004000,-0.021000,1.014000,192.000000,0.000000,0.000000,0.000000,0.000000,0.000000,0.000000,0.000000,0.000000,0.000000,1768316585.721933,0.000000
254.000000,8082.659016,11099.831593,-17722.005275,-12050.719506,-8025.460902,-9849.720877,-2256.453306,133.618728,6349.281233,8331.433932,1411.311497,153.042394,7943.541758,11842.892986,-2108.440054,-844.135981,0.004000,-0.021000,1.014000,192.000000,0.000000,0.000000,0.000000,0.000000,0.000000,0.000000,0.000000,0.000000,0.000000,1768316585.721949,0.000000
0.000000,8067.750402,11129.537061,-17755.152912,-12093.590151,-8042.962318,-9884.634302,-2280.727301,109.344734,6487.660883,8278.952036,1271.367225,-3.129244,7887.505935,11736.588089,-2237.275510,-834.770600,0.007000,-0.019500,1.012000,192.000000,0.000000,40.000000,127.500000,56.000000,15.500000,72.000000,0.000000,0.000000,0.000000,1768316585.721967,0.000000
2.000000,8156.330366,11115.567221,-17602.222276,-11970.655557,-7948.392087,-9770.595702,-2182.893715,229.530064,6418.325772,8338.944118,1400.783825,146.046298,7949.532026,11826.598564,-2119.437113,-854.462487,0.007000,-0.019500,1.012000,192.000000,0.000000,0.000000,0.000000,0.000000,0.000000,0.000000,0.000000,0.000000,0.000000,1768316585.721982,0.000000
4.000000,8045.219844,11127.056018,-17806.360758,-12130.805806,-8074.299464,-9920.687666,-2310.365714,76.152393,6411.597897,8304.343617,1342.266958,67.882248,7911.042322,11786.276017,-2175.629398,-838.436286,0.007000,-0.019500,1.012000,192.000000,0.000000,0.000000,0.000000,0.000000,0.000000,0.000000,0.000000,0.000000,0.000000,1768316585.721998,0.000000
6.000000,8147.635537,11133.068637,-17623.098805,-11993.655502,-7967.234608,-9783.984397,-2196.774149,217.929508,6506.346942,8306.556440,1316.987135,53.331262,7917.032590,11763.857217,-2200.193965,-857.859952,0.007000,-0.019500,1.012000,192.000000,0.000000,0.000000,0.000000,0.000000,0.000000,0.000000,0.000000,0.000000,0.000000,1768316585.722014,0.000000
8.000000,8094.103109,11113.421454,-17715.255048,-12051.591224,-8018.934193,-9843.931776,-2254.061670,147.253292,6369.576617,8345.783752,1424.968413,167.146345,7988.066433,11855.946404,-2106.562508,-851.914388,0.007000,-0.019500,1.012000,192.000000,0.000000,0.000000,0.000000,0.000000,0.000000,0.000000,0.000000,0.000000,0.000000,1768316585.722030,0.000000
10.000000,8059.457905,11123.993829,-17757.388086,-12093.590151,-8051.835960,-9894.916105,-2281.397853,108.070684,6484.084604,8276.046309,1273.870620,-2.503395,7897.541868,11733.056513,-2233.408658,-828.601519,0.004500,-0.018750,1.011000,192.000000,0.000000,8.000000,127.500000,56.000000,15.500000,72.000000,0.000000,0.000000,0.000000,1768316585.722052,0.000000
12.000000,8153.044659,11110.381616,-17607.743157,-11959.412630,-7959.702070,-9767.354699,-2182.133756,230.915872,6412.000228,8335.367839,1395.821738,142.648833,7926.062694,11829.481939,-2122.588709,-837.341051,0.004500,-0.018750,1.011000,192.000000,0.000000,0.000000,0.000000,0.000000,0.000000,0.000000,0.000000,0.000000,0.000000,1768316585.722069,0.000000
14.000000,8025.997344,11107.431186,-17817.782500,-12120.792225,-8079.730937,-9923.995724,-2313.539662,69.960960,6399.505603,8299.962676,1336.075525,69.156297,7890.702235,11788.578247,-2181.284390,-825.628737,0.004500,-0.018750,1.011000,192.000000,0.000000,0.000000,0.000000,0.000000,0.000000,0.000000,0.000000,0.000000,0.000000,1768316585.722090,0.000000
16.000000,8123.607412,11114.762558,-17638.253288,-11985.117136,-7987.977026,-9789.393519,-2199.523413,203.378523,6481.312988,8297.794556,1301.877356,43.652957,7890.523421,11761.711450,-2203.837300,-834.904711,0.004500,-0.018750,1.011000,192.000000,0.000000,0.000000,0.000000,0.000000,0.000000,0.000000,0.000000,0.000000,0.000000,1768316585.722108,0.000000
18.000000,8071.594902,11089.236866,-17727.034417,-12044.103389,-8031.607632,-9841.271918,-2256.520361,132.434086,6348.677736,8336.306612,1409.389247,154.808182,7929.348401,11841.797750,-2107.098950,-831.239025,0.004500,-0.018750,1.011000,192.000000,0.000000,0.000000,0.000000,0.000000,0.000000,0.000000,0.000000,0.000000,0.000000,1768316585.722124,0.000000
20.000000,8052.953548,11111.387445,-17766.395839,-12087.264608,-8052.662975,-9882.242666,-2283.409510,101.655734,6475.099203,8270.659539,1259.811373,-8.627773,7870.384499,11736.521034,-2236.917882,-821.046629,0.001250,-0.017375,1.013500,192.000000,127.500000,120.000000,127.500000,64.000000,15.500000,96.000000,0.000000,0.000000,0.000000,1768316585.722145,0.000000
22.000000,8148.462552,11101.887954,-17610.626532,-11957.892711,-7958.405669,-9761.900873,-2184.771262,224.903253,6405.451167,8333.557347,1388.579773,139.206664,7928.789607,11833.974640,-2121.672287,-838.346879,0.001250,-0.017375,1.013500,192.000000,0.000000,0.000000,0.000000,0.000000,0.000000,0.000000,0.000000,0.000000,0.000000,1768316585.722166,0.000000
24.000000,8028.478387,11111.119224,-17813.178040,-12118.713512,-8077.495763,-9916.507890,-2311.684467,72.576114,6397.136318,8302.622533,1335.986118,67.859896,7902.772177,11791.036939,-2177.171669,-822.454789,0.001250,-0.017375,1.013500,192.000000,0.000000,0.000000,0.000000,0.000000,0.000000,0.000000,0.000000,0.000000,0.000000,1768316585.722184,0.000000
26.000000,8136.794941,11122.585669,-17633.581773,-11984.513639,-7968.240436,-9785.772536,-2197.131776,209.011162,6484.106956,8305.707074,1307.889975,49.732631,7919.200709,11765.667709,-2198.405826,-836.625795,0.001250,-0.017375,1.013500,192.000000,0.000000,0.000000,0.000000,0.000000,0.000000,0.000000,0.000000,0.000000,0.000000,1768316585.722201,0.000000
28.000000,8086.369406,11107.386483,-17719.233658,-12042.784636,-8023.046914,-9840.958994,-2252.385289,143.140571,6354.377431,8343.436819,1414.686610,162.832458,7937.596194,11850.134951,-2102.472139,-833.407144,0.001250,-0.017375,1.013500,192.000000,0.000000,0.000000,0.000000,0.000000,0.000000,0.000000,0.000000,0.000000,0.000000,1768316585.722217,0.000000
30.000000,8063.369461,11128.285364,-17757.119865,-12088.650416,-8048.393792,-9883.382605,-2278.693292,113.032772,6478.474316,8281.075452,1272.149536,3.285706,7869.803354,11732.765941,-2229.675916,-826.120475,-0.000375,-0.018688,1.011750,192.000000,127.500000,120.000000,127.500000,48.000000,15.500000,72.000000,0.000000,0.000000,0.000000,1768316585.722234,0.000000
32.000000,8154.944558,11110.806300,-17605.440927,-11959.457333,-7952.303642,-9760.470362,-2180.189154,232.033459,6409.720350,8343.481522,1396.604049,147.655624,7937.372677,11837.617974,-2117.179587,-842.884283,-0.000375,-0.018688,1.011750,192.000000,0.000000,0.000000,0.000000,0.000000,0.000000,0.000000,0.000000,0.000000,0.000000,1768316585.722252,0.000000
34.000000,8043.096428,11119.143500,-17810.071148,-12124.256745,-8069.695004,-9916.373779,-2310.075141,74.207792,6402.031350,8309.618629,1337.818961,72.509059,7904.649723,11785.605465,-2172.589561,-826.522806,-0.000375,-0.018688,1.011750,192.000000,0.000000,0.000000,0.000000,0.000000,0.000000,0.000000,0.000000,0.000000,0.000000,1768316585.722270,0.000000
36.000000,8134.492711,11123.099759,-17634.833471,-11992.470860,-7968.910988,-9795.249676,-2199.903393,205.345476,6491.863011,8302.890754,1306.191242,45.329338,7896.670150,11772.395584,-2199.098730,-839.710336,-0.000375,-0.018688,1.011750,192.000000,0.000000,0.000000,0.000000,0.000000,0.000000,0.000000,0.000000,0.000000,0.000000,1768316585.722289,0.000000
38.000000,8082.189629,11098.266971,-17722.809937,-12048.909014,-8020.767036,-9847.016316,-2253.301710,136.390345,6353.058678,8335.971336,1413.054933,155.769307,7935.137503,11846.893948,-2106.696618,-842.794876,-0.000375,-0.018688,1.011750,192.000000,0.000000,0.000000,0.000000,0.000000,0.000000,0.000000,0.000000,0.000000,0.000000,1768316585.722308,0.000000
40.000000,8054.719335,11117.735340,-17761.098476,-12091.869067,-8045.108085,-9885.506020,-2278.469775,104.181481,6478.854296,8276.158068,1265.645178,-8.538366,7874.474868,11737.012772,-2234.190969,-837.229292,-0.000375,-0.018688,1.011750,192.000000,0.000000,0.000000,127.500000,32.000000,15.500000,56.000000,0.000000,0.000000,0.000000,1768316585.722325,0.000000
42.000000,8140.974717,11107.721759,-17610.648884,-11963.525351,-7957.891578,-9768.919321,-2182.558439,222.533968,6401.919592,8336.150150,1389.652656,140.391307,7938.467912,11825.302163,-2119.057133,-852.696699,-0.000375,-0.018688,1.011750,192.000000,0.000000,0.000000,0.000000,0.000000,0.000000,0.000000,0.000000,0.000000,0.000000,1768316585.722358,0.000000
44.000000,8034.535710,11113.913192,-17813.669779,-12121.887460,-8074.925312,-9922.364047,-2311.438598,70.631512,6392.151879,8298.800385,1332.096914,66.697605,7919.088950,11784.353767,-2176.143488,-832.289557,-0.000375,-0.018688,1.011750,192.000000,0.000000,0.000000,0.000000,0.000000,0.000000,0.000000,0.000000,0.000000,0.000000,1768316585.722378,0.000000
46.000000,8128.837720,11116.349532,-17632.307724,-11986.949979,-7971.012052,-9796.970760,-2199.210489,209.525253,6484.822212,8299.828565,1305.699504,46.022242,7907.309581,11761.175008,-2199.612820,-835.418801,-0.000375,-0.018688,1.011750,192.000000,0.000000,0.000000,0.000000,0.000000,0.000000,0.000000,0.000000,0.000000,0.000000,1768316585.722396,0.000000
48.000000,8079.038033,11106.760634,-17717.803147,-12043.499892,-8019.135358,-9853.341860,-2251.446515,146.426278,6358.423097,8339.860539,1417.771151,161.491354,7939.451389,11846.223396,-2103.187395,-839.777391,-0.000375,-0.018688,1.011750,192.000000,0.000000,0.000000,0.000000,0.000000,0.000000,0.000000,0.000000,0.000000,0.000000,1768316585.722409,0.000000
50.000000,8057.736821,11124.798492,-17760.807903,-12086.683462,-8049.690193,-9894.826698,-2276.547525,112.876309,6475.769755,8272.224161,1269.847306,-3.330410,7866.025909,11718.080845,-2232.514588,-825.047591,-0.001187,-0.018344,1.012875,192.000000,127.500000,120.000000,127.500000,56.000000,15.500000,88.000000,0.000000,0.000000,0.000000,1768316585.722421,0.000000
52.000000,8140.281813,11111.722721,-17608.659578,-11959.747906,-7961.870189,-9773.926112,-2182.536087,229.664174,6404.043007,8335.725467,1391.641962,146.314519,7934.444598,11832.410018,-2124.309793,-844.784182,-0.001187,-0.018344,1.012875,192.000000,0.000000,0.000000,0.000000,0.000000,0.000000,0.000000,0.000000,0.000000,0.000000,1768316585.722433,0.000000
54.000000,8032.322887,11111.879183,-17812.865116,-12122.468605,-8074.858257,-9927.080265,-2311.505653,73.134908,6392.017769,8296.364045,1331.247548,70.631512,7894.524383,11775.524828,-2175.607047,-830.702583,-0.001187,-0.018344,1.012875,192.000000,0.000000,0.000000,0.000000,0.000000,0.000000,0.000000,0.000000,0.000000,0.000000,1768316585.722444,0.000000
56.000000,8132.369296,11122.608021,-17633.470015,-11991.688549,-7977.114079,-9801.306999,-2201.110387,211.291040,6481.894133,8297.436928,1302.436149,47.676271,7901.811052,11755.162389,-2200.484538,-842.817228,-0.001187,-0.018344,1.012875,192.000000,0.000000,0.000000,0.000000,0.000000,0.000000,0.000000,0.000000,0.000000,0.000000,1768316585.722456,0.000000
58.000000,8083.977769,11108.772291,-17716.998484,-12047.858482,-8018.107178,-9856.582863,-2252.564103,147.052127,6351.315242,8335.233728,1415.983011,161.781926,7949.219102,11839.607279,-2105.042589,-839.442115,-0.001187,-0.018344,1.012875,192.000000,0.000000,0.000000,0.000000,0.000000,0.000000,0.000000,0.000000,0.000000,0.000000,1768316585.722468,0.000000
60.000000,8059.077926,11138.276593,-17754.035324,-12090.907942,-8044.728106,-9894.022035,-2277.821574,114.217414,6483.101128,8279.332015,1271.657797,0.178814,7873.893723,11725.367513,-2233.699230,-837.363403,-0.001187,-0.018344,1.012875,192.000000,0.000000,0.000000,0.000000,0.000000,0.000000,0.000000,0.000000,0.000000,0.000000,1768316585.722480,0.000000
62.000000,8145.534473,11116.729512,-17602.177573,-11960.194941,-7954.807038,-9774.350795,-2179.026863,231.564073,6412.223746,8340.575795,1394.882964,144.414621,7958.472724,11825.436273,-2119.906499,-848.539275,-0.004000,-0.016000,1.014000,192.000000,127.500000,112.000000,127.500000,64.000000,15.500000,88.000000,0.000000,0.000000,0.000000,1768316585.722492,0.000000
64.000000,8029.126588,11122.049227,-17807.165421,-12120.859280,-8071.214923,-9926.432064,-2307.661153,75.079510,6403.595972,8304.567135,1336.880188,75.079510,7901.542831,11787.527715,-2175.361177,-834.480027,-0.004000,-0.016000,1.014000,192.000000,0.000000,0.000000,0.000000,0.000000,0.000000,0.000000,0.000000,0.000000,0.000000,1768316585.722504,0.000000
66.000000,8129.128293,11118.383541,-17629.849032,-11989.989816,-7976.488230,-9795.249676,-2197.690570,206.463064,6491.237162,8301.437891,1303.196109,48.078602,7913.389255,11753.575415,-2197.578811,-847.689908,-0.004000,-0.016000,1.014000,192.000000,0.000000,0.000000,0.000000,0.000000,0.000000,0.000000,0.000000,0.000000,0.000000,1768316585.722516,0.000000
68.000000,8079.932103,11105.844212,-17717.713740,-12046.405619,-8025.393847,-9855.666441,-2253.994614,139.921920,6357.931359,8337.893586,1412.183215,159.412641,7936.880939,11850.425524,-2105.042589,-840.291481,-0.004000,-0.016000,1.014000,192.000000,0.000000,0.000000,0.000000,0.000000,0.000000,0.000000,0.000000,0.000000,0.000000,1768316585.722528,0.000000
70.000000,8057.468600,11123.792663,-17757.455141,-12090.505611,-8044.616347,-9896.771299,-2280.861411,105.701400,6479.793069,8276.135716,1264.952274,-3.173948,7875.435993,11731.201319,-2235.062687,-834.234158,-0.004000,-0.016000,1.014000,192.000000,0.000000,0.000000,0.000000,0.000000,0.000000,0.000000,0.000000,0.000000,0.000000,1768316585.722539,0.000000
72.000000,8139.790075,11106.872393,-17607.363177,-11961.111362,-7955.544645,-9770.327481,-2184.145413,222.332802,6405.540574,8333.043257,1388.646828,140.033679,7937.618546,11823.290506,-2120.040610,-852.227313,0.002000,-0.014000,1.020000,192.000000,0.000000,8.000000,127.500000,72.000000,15.500000,112.000000,0.000000,0.000000,0.000000,1768316585.722551,0.000000
74.000000,8036.525015,11120.104625,-17807.098366,-12121.239259,-8072.913655,-9922.431102,-2312.444426,69.312760,6394.498812,8295.782899,1329.526464,63.747175,7904.694427,11777.961168,-2175.204715,-832.781295,0.002000,-0.014000,1.020000,192.000000,0.000000,0.000000,0.000000,0.000000,0.000000,0.000000,0.000000,0.000000,0.000000,1768316586.202061,0.000000
76.000000,8134.783284,11131.816939,-17628.262058,-11989.632188,-7965.960558,-9795.853173,-2199.411654,206.127787,6495.416939,8298.219239,1302.749074,42.602425,7912.562241,11756.436438,-2198.003495,-844.292443,0.002000,-0.014000,1.020000,192.000000,0.000000,0.000000,0.000000,0.000000,0.000000,0.000000,0.000000,0.000000,0.000000,1768316586.202142,0.000000
78.000000,8082.346092,11109.845175,-17711.008216,-12044.192796,-8015.670838,-9850.749058,-2250.083059,148.415583,6362.379356,8337.424199,1414.083113,161.089022,7941.932433,11845.105808,-2101.712179,-837.296347,0.002000,-0.014000,1.020000,192.000000,0.000000,0.000000,0.000000,0.000000,0.000000,0.000000,0.000000,0.000000,0.000000,1768316586.202207,0.000000
80.000000,8060.173161,11131.504015,-17748.022705,-12089.857410,-8041.934138,-9892.256247,-2275.698158,118.888929,6485.023378,8282.438908,1276.910457,5.342067,7902.012217,11733.861176,-2227.284280,-839.129190,0.002000,-0.014000,1.020000,192.000000,0.000000,0.000000,0.000000,0.000000,0.000000,0.000000,0.000000,0.000000,0.000000,1768316586.202310,0.000000
82.000000,8150.205988,11121.468082,-17598.936570,-11964.911159,-7953.667099,-9775.401327,-2181.552611,232.435791,6419.175138,8345.627289,1402.706075,148.706156,7950.537854,11821.524718,-2117.403104,-857.122345,0.002000,-0.016000,1.012000,192.000000,0.000000,8.000000,127.500000,64.000000,15.500000,80.000000,0.000000,0.000000,0.000000,1768316586.202371,0.000000
84.000000,8031.786446,11119.948163,-17803.656197,-12128.123597,-8070.969054,-9926.744989,-2312.109150,73.917219,6405.674685,8302.957809,1339.182417,66.183515,7919.044247,11783.727918,-2170.533201,-835.687022,0.002000,-0.016000,1.012000,192.000000,0.000000,0.000000,0.000000,0.000000,0.000000,0.000000,0.000000,0.000000,0.000000,1768316586.202431,0.000000
86.000000,8132.011668,11118.964686,-17632.017151,-11999.489307,-7976.488230,-9809.018351,-2204.351390,201.612735,6494.656979,8296.878135,1305.185414,43.049460,7911.958744,11748.300403,-2193.331980,-847.332281,0.002000,-0.016000,1.012000,192.000000,0.000000,0.000000,0.000000,0.000000,0.000000,0.000000,0.000000,0.000000,0.000000,1768316586.202467,0.000000
88.000000,8082.368443,11105.777157,-17719.211306,-12052.731163,-8021.236422,-9855.778200,-2255.156905,138.066726,6357.372565,8328.952888,1408.361066,151.567179,7938.512616,11833.371143,-2102.181566,-841.118496,0.002000,-0.016000,1.012000,192.000000,0.000000,0.000000,0.000000,0.000000,0.000000,0.000000,0.000000,0.000000,0.000000,1768316586.202484,0.000000
90.000000,8054.160542,11117.914154,-17759.712667,-12097.345245,-8046.359783,-9897.866535,-2283.655379,103.823853,6488.622008,8270.190152,1264.795812,-8.270145,7876.307711,11724.361685,-2236.359088,-831.820170,0.002000,-0.016000,1.012000,192.000000,0.000000,0.000000,0.000000,0.000000,0.000000,0.000000,0.000000,0.000000,0.000000,1768316586.202500,0.000000
92.000000,8145.668584,11100.815070,-17605.642093,-11965.157028,-7946.268671,-9770.930978,-2184.838317,224.098590,6408.155728,8326.024810,1389.451491,135.205702,7944.480532,11821.681180,-2115.078523,-847.645205,0.002000,-0.016000,1.012000,192.000000,0.000000,8.000000,127.500000,64.000000,15.500000,80.000000,0.000000,0.000000,0.000000,1768316586.202518,0.000000
94.000000,8021.079960,11105.754805,-17811.099328,-12125.150815,-8071.952530,-9922.364047,-2314.478435,64.641245,6399.103272,8290.507888,1331.180493,59.992082,7918.306639,11775.122497,-2169.885000,-827.863911,0.002000,-0.016000,1.012000,192.000000,0.000000,0.000000,0.000000,0.000000,0.000000,0.000000,0.000000,0.000000,0.000000,1768316586.202552,0.000000
96.000000,8125.216737,11112.952067,-17633.604125,-11992.470860,-7967.636939,-9799.809432,-2202.898527,201.143348,6485.515116,8287.423347,1296.378827,33.438210,7908.583630,11752.726049,-2196.662390,-833.384792,0.002000,-0.016000,1.012000,192.000000,0.000000,0.000000,0.000000,0.000000,0.000000,0.000000,0.000000,0.000000,0.000000,1768316586.202570,0.000000
98.000000,8083.351920,11108.995808,-17715.232696,-12047.992593,-8010.149957,-9851.240796,-2253.860504,141.732412,6362.893446,8329.958717,1408.651639,152.505952,7967.256959,11835.002820,-2096.034836,-839.375060,0.002000,-0.016000,1.012000,192.000000,0.000000,0.000000,0.000000,0.000000,0.000000,0.000000,0.000000,0.000000,0.000000,1768316586.202587,0.000000
100.000000,8056.753344,11127.279535,-17758.282156,-12091.600846,-8042.090600,-9896.167802,-2281.397853,109.903527,6485.492764,8272.782954,1269.020291,-4.850329,7881.180391,11732.274202,-2226.569024,-830.143789,0.002000,-0.016000,1.012000,192.000000,0.000000,0.000000,0.000000,0.000000,0.000000,0.000000,0.000000,0.000000,0.000000,1768316586.202604,0.000000
102.000000,8144.260424,11113.622619,-17604.144526,-11962.050135,-7944.748753,-9771.266254,-2182.647846,233.285157,6411.933173,8335.501949,1394.435930,146.538037,7949.464971,11824.810424,-2117.380752,-840.090315,0.002000,-0.016000,1.012000,192.000000,0.000000,0.000000,127.500000,40.000000,15.500000,80.000000,0.000000,0.000000,0.000000,1768316586.202621,0.000000
104.000000,8033.440475,11122.943297,-17807.612456,-12121.932163,-8070.074984,-9919.681838,-2309.270478,78.722844,6403.774786,8301.057911,1338.802438,74.230143,7913.098683,11781.336281,-2172.410747,-825.896958,0.002000,-0.016000,1.012000,192.000000,0.000000,0.000000,0.000000,0.000000,0.000000,0.000000,0.000000,0.000000,0.000000,1768316586.202639,0.000000
106.000000,8148.797828,11133.068637,-17626.563326,-11989.922761,-7969.067451,-9799.407101,-2196.081244,214.420285,6497.115671,8303.941286,1307.353533,48.704451,7908.673037,11756.190569,-2196.863556,-837.944548,0.002000,-0.016000,1.012000,192.000000,0.000000,0.000000,0.000000,0.000000,0.000000,0.000000,0.000000,0.000000,0.000000,1768316586.202656,0.000000
108.000000,8095.332455,11123.278573,-17709.309484,-12042.717581,-8018.800082,-9848.111552,-2245.836228,154.092926,6366.290911,8340.441685,1419.916918,164.821764,7950.224930,11845.306974,-2097.755921,-840.984385,0.002000,-0.016000,1.012000,192.000000,0.000000,0.000000,0.000000,0.000000,0.000000,0.000000,0.000000,0.000000,0.000000,1768316586.202673,0.000000
110.000000,8073.047766,11134.588556,-17747.933298,-12084.850619,-8039.475446,-9884.768413,-2271.674844,122.800484,6498.702645,8280.963693,1280.956123,11.444093,7892.490374,11733.101217,-2229.072419,-834.010641,0.002000,-0.016000,1.012000,192.000000,0.000000,0.000000,0.000000,0.000000,0.000000,0.000000,0.000000,0.000000,0.000000,1768316586.202689,0.000000
112.000000,8154.005784,11123.971477,-17597.573113,-11956.663365,-7946.358078,-9761.655004,-2177.596352,237.196712,6429.412237,8343.213301,1400.761473,153.176505,7973.001358,11826.777378,-2114.787950,-848.405164,0.002000,-0.016000,1.012000,192.000000,0.000000,0.000000,127.500000,24.000000,15.500000,56.000000,0.000000,0.000000,0.000000,1768316586.202706,0.000000
114.000000,8043.230539,11135.147349,-17803.991473,-12116.478338,-8063.749440,-9919.458320,-2308.063484,77.605257,6417.744627,8308.411635,1341.283481,77.471146,7916.786720,11792.400395,-2165.079375,-824.466446,0.002000,-0.016000,1.012000,192.000000,0.000000,0.000000,0.000000,0.000000,0.000000,0.000000,0.000000,0.000000,0.000000,1768316586.202729,0.000000
116.000000,8129.955307,11135.504977,-17627.546802,-11986.167668,-7974.633035,-9797.283685,-2197.645867,208.340610,6494.701683,8305.282391,1305.431283,49.151486,7912.942220,11761.778505,-2190.158032,-836.983423,0.002000,-0.016000,1.012000,192.000000,0.000000,0.000000,0.000000,0.000000,0.000000,0.000000,0.000000,0.000000,0.000000,1768316586.202746,0.000000
118.000000,8079.306254,11109.688712,-17716.730263,-12041.108256,-8018.934193,-9841.294270,-2252.050013,140.503066,6355.807943,8341.559272,1412.742008,159.502048,7944.011145,11848.883253,-2097.822976,-836.625795,0.002000,-0.016000,1.012000,192.000000,0.000000,0.000000,0.000000,0.000000,0.000000,0.000000,0.000000,0.000000,0.000000,1768316586.202764,0.000000
120.000000,8058.317966,11129.715875,-17757.902176,-12089.432727,-8044.482236,-9890.602218,-2280.928466,106.081379,6481.134174,8275.487515,1265.421661,-6.482006,7882.610903,11726.328638,-2224.222091,-827.148655,0.002000,-0.016000,1.012000,192.000000,0.000000,0.000000,0.000000,0.000000,0.000000,0.000000,0.000000,0.000000,0.000000,1768316586.202780,0.000000
122.000000,8146.562653,11111.141576,-17602.848125,-11960.932548,-7951.141352,-9770.215722,-2182.759605,225.171474,6421.723237,8333.736161,1392.290162,140.413659,7952.325994,11828.476111,-2109.356476,-845.477086,-0.004000,-0.020000,1.006000,192.000000,127.500000,112.000000,127.500000,48.000000,15.500000,56.000000,0.000000,0.000000,0.000000,1768316586.202796,0.000000
124.000000,8026.958469,11113.466157,-17810.898162,-12126.111940,-8079.015682,-9924.688628,-2314.120807,63.814230,6406.300534,8290.396129,1330.532292,60.640283,7931.762389,11779.548142,-2167.359253,-823.527673,-0.004000,-0.020000,1.006000,192.000000,0.000000,0.000000,0.000000,0.000000,0.000000,0.000000,0.000000,0.000000,0.000000,1768316586.202813,0.000000
126.000000,8126.513139,11122.898593,-17631.681875,-11991.554438,-7971.168515,-9801.418758,-2200.842166,201.053941,6494.902849,8290.530239,1298.770463,34.399335,7901.341665,11753.754229,-2193.533146,-833.094219,-0.004000,-0.020000,1.006000,192.000000,0.000000,0.000000,0.000000,0.000000,0.000000,0.000000,0.000000,0.000000,0.000000,1768316586.202830,0.000000
128.000000,8086.682330,11115.790739,-17714.293923,-12046.003288,-8020.588222,-9852.827770,-2251.424164,142.604130,6359.697146,8330.741028,1407.779921,152.796525,7951.744849,11830.040733,-2099.186432,-833.854179,-0.004000,-0.020000,1.006000,192.000000,0.000000,0.000000,0.000000,0.000000,0.000000,0.000000,0.000000,0.000000,0.000000,1768316586.202847,0.000000
130.000000,8055.009908,11128.084198,-17753.409475,-12090.192686,-8042.470579,-9896.190154,-2277.910981,109.121216,6485.358654,8275.755736,1269.869658,-5.073846,7893.272685,11735.470502,-2224.669126,-830.166141,-0.004000,-0.020000,1.006000,192.000000,0.000000,0.000000,0.000000,0.000000,0.000000,0.000000,0.000000,0.000000,0.000000,1768316586.202864,0.000000
132.000000,8150.518912,11116.036608,-17596.276712,-11956.417496,-7945.374602,-9756.827027,-2177.886924,231.809942,6410.525013,8335.926632,1393.295991,141.866522,7961.289044,11830.979506,-2110.049380,-841.967862,-0.001000,-0.020000,1.005000,192.000000,0.000000,8.000000,127.500000,48.000000,15.500000,48.000000,0.000000,0.000000,0.000000,1768316586.202881,0.000000
134.000000,8035.742704,11128.553585,-17803.879714,-12117.886498,-8060.262568,-9913.065721,-2308.197595,73.336074,6411.508490,8300.990856,1338.467161,72.039672,7922.352305,11792.869782,-2164.297064,-824.131170,-0.001000,-0.020000,1.005000,192.000000,0.000000,0.000000,0.000000,0.000000,0.000000,0.000000,0.000000,0.000000,0.000000,1768316586.202899,0.000000
136.000000,8139.074819,11132.778064,-17629.022018,-11988.179325,-7967.547532,-9794.109737,-2198.584640,204.116130,6496.623933,8301.706112,1301.922059,44.703489,7932.991735,11765.600653,-2191.476785,-838.749211,-0.001000,-0.020000,1.005000,192.000000,0.000000,0.000000,0.000000,0.000000,0.000000,0.000000,0.000000,0.000000,0.000000,1768316586.202916,0.000000
138.000000,8079.954455,11110.627486,-17715.366806,-12040.996497,-8015.089692,-9838.857930,-2250.083059,141.441839,6363.251074,8338.251214,1409.791578,156.261045,7945.866340,11847.631556,-2094.269048,-829.964975,-0.001000,-0.020000,1.005000,192.000000,0.000000,0.000000,0.000000,0.000000,0.000000,0.000000,0.000000,0.000000,0.000000,1768316586.202933,0.000000
140.000000,8054.406411,11131.414608,-17760.539682,-12085.610579,-8044.996327,-9882.913218,-2279.497955,105.835510,6486.655055,8279.063795,1264.147611,-2.190471,7891.663360,11740.343182,-2222.478655,-824.555853,-0.001000,-0.020000,1.005000,192.000000,0.000000,0.000000,0.000000,0.000000,0.000000,0.000000,0.000000,0.000000,0.000000,1768316586.202951,0.000000
142.000000,8140.862959,11112.214459,-17606.871439,-11955.501074,-7950.314337,-9763.286682,-2181.083224,225.484398,6408.714522,8339.726429,1384.802328,140.458362,7944.368773,11837.260346,-2111.278726,-840.760868,0.001500,-0.019000,1.008500,192.000000,0.000000,16.000000,127.500000,56.000000,15.500000,80.000000,0.000000,0.000000,0.000000,1768316586.202968,0.000000
144.000000,8018.710675,11115.567221,-17816.262581,-12119.272306,-8073.517152,-9913.289239,-2312.712647,64.529486,6395.258772,8298.174536,1325.771371,63.836582,7910.617639,11788.980578,-2166.621645,-819.973745,0.001500,-0.019000,1.008500,192.000000,0.000000,0.000000,0.000000,0.000000,0.000000,0.000000,0.000000,0.000000,0.000000,1768316586.202986,0.000000
146.000000,8121.953383,11128.553585,-17637.046294,-11985.653578,-7965.960558,-9783.716176,-2199.076378,202.439750,6486.006854,8300.230897,1292.489623,38.445000,7911.802281,11766.204150,-2195.745968,-833.071868,0.001500,-0.019000,1.008500,192.000000,0.000000,0.000000,0.000000,0.000000,0.000000,0.000000,0.000000,0.000000,0.000000,1768316586.203008,0.000000
148.000000,8082.234333,11109.509898,-17719.211306,-12039.007192,-8016.922536,-9835.728685,-2248.518437,143.073516,6354.824466,8340.911071,1403.935421,157.937426,7948.302680,11857.622785,-2094.157290,-831.239025,0.001500,-0.019000,1.008500,192.000000,0.000000,0.000000,0.000000,0.000000,0.000000,0.000000,0.000000,0.000000,0.000000,1768316586.203023,0.000000
150.000000,8058.653242,11133.269803,-17757.522196,-12087.443422,-8041.107123,-9882.712052,-2276.592228,109.523548,6485.962151,8285.255228,1263.611169,3.799797,7895.194935,11748.389810,-2220.176425,-831.663708,0.001500,-0.019000,1.008500,192.000000,0.000000,0.000000,0.000000,0.000000,0.000000,0.000000,0.000000,0.000000,0.000000,1768316586.203058,0.000000
152.000000,8144.953328,11115.231945,-17604.077471,-11960.954900,-7946.425134,-9766.952368,-2178.848050,228.367773,6412.335505,8339.994650,1385.808156,143.677013,7954.114134,11837.774436,-2109.311773,-838.905673,0.001750,-0.019500,1.012250,192.000000,0.000000,8.000000,127.500000,48.000000,15.500000,96.000000,0.000000,0.000000,0.000000,1768316586.203075,0.000000
154.000000,8034.625117,11126.519576,-17806.137241,-12124.592021,-8063.347109,-9917.469015,-2306.923545,74.274847,6401.897240,8298.129833,1331.694583,68.530448,7936.255090,11788.377081,-2163.335939,-818.096199,0.001750,-0.019500,1.012250,192.000000,0.000000,0.000000,0.000000,0.000000,0.000000,0.000000,0.000000,0.000000,0.000000,1768316586.203094,0.000000
156.000000,8139.566557,11137.002544,-17627.703265,-11991.219162,-7957.131619,-9783.984397,-2195.030712,211.492206,6493.919372,8298.129833,1304.894841,44.345861,7918.798377,11762.404354,-2191.610896,-838.860969,0.001750,-0.019500,1.012250,192.000000,0.000000,0.000000,0.000000,0.000000,0.000000,0.000000,0.000000,0.000000,0.000000,1768316586.203112,0.000000
158.000000,8089.521002,11126.318410,-17712.863411,-12045.578604,-8000.762224,-9835.572223,-2248.205513,147.812086,6361.150010,8338.988821,1413.524319,158.898551,7949.286157,11851.543111,-2096.347761,-830.546120,0.001750,-0.019500,1.012250,192.000000,0.000000,0.000000,0.000000,0.000000,0.000000,0.000000,0.000000,0.000000,0.000000,1768316586.203130,0.000000
160.000000,8060.620196,11144.155102,-17753.811807,-12091.533791,-8033.976917,-9878.129945,-2277.732167,112.071647,6488.622008,8278.616760,1268.595608,-3.218651,7893.004464,11729.346124,-2221.405771,-824.734667,0.001750,-0.019500,1.012250,192.000000,0.000000,0.000000,0.000000,0.000000,0.000000,0.000000,0.000000,0.000000,0.000000,1768316586.203149,0.000000
162.000000,8150.384802,11121.982172,-17599.674177,-11958.451505,-7939.406686,-9758.659870,-2179.719768,232.927529,6423.466673,8342.185121,1394.838261,142.984109,7962.943073,11845.441085,-2108.395351,-837.855141,0.002875,-0.021750,1.013125,192.000000,0.000000,16.000000,127.500000,32.000000,15.500000,88.000000,0.000000,0.000000,0.000000,1768316586.203164,0.000000
164.000000,8044.705754,11129.514710,-17805.980778,-12122.222736,-8060.061402,-9913.423349,-2309.762217,74.185440,6414.078941,8304.276562,1340.657632,70.810326,7926.353267,11790.612255,-2167.739233,-818.520882,0.002875,-0.021750,1.013125,192.000000,0.000000,0.000000,0.000000,0.000000,0.000000,0.000000,0.000000,0.000000,0.000000,1768316586.203180,0.000000
166.000000,8126.177862,11130.900518,-17632.240669,-11990.503906,-7960.439677,-9792.835688,-2199.456358,207.178319,6504.648209,8297.213411,1303.084350,40.009623,7937.640898,11771.657976,-2189.398073,-832.691888,0.002875,-0.021750,1.013125,192.000000,0.000000,0.000000,0.000000,0.000000,0.000000,0.000000,0.000000,0.000000,0.000000,1768316586.203196,0.000000
168.000000,8080.490897,11114.762558,-17715.813841,-12044.125741,-8006.327809,-9847.664517,-2250.910074,143.900531,6363.251074,8335.278432,1413.367857,156.551618,7958.964462,11849.419695,-2090.625714,-834.010641,0.002875,-0.021750,1.013125,192.000000,0.000000,0.000000,0.000000,0.000000,0.000000,0.000000,0.000000,0.000000,0.000000,1768316586.203212,0.000000
170.000000,8056.194551,11133.895652,-17761.232586,-12090.617369,-8045.488065,-9891.719805,-2280.123804,106.170786,6488.890229,8275.398108,1268.394443,-5.498529,7891.350435,11740.119665,-2225.898472,-830.724934,0.002875,-0.021750,1.013125,192.000000,0.000000,0.000000,0.000000,0.000000,0.000000,0.000000,0.000000,0.000000,0.000000,1768316586.203227,0.000000
172.000000,8141.533511,11111.298038,-17607.229067,-11964.419420,-7957.489247,-9778.083536,-2183.966599,223.986831,6408.580412,8329.489330,1385.741101,134.669260,7946.581596,11831.091265,-2113.648011,-845.924121,0.002875,-0.021750,1.013125,192.000000,0.000000,0.000000,127.500000,40.000000,15.500000,56.000000,0.000000,0.000000,0.000000,1768316586.203243,0.000000
174.000000,8022.711637,11117.288305,-17814.452090,-12127.900079,-8075.797030,-9931.617669,-2313.673772,66.898771,6399.304438,8289.658521,1328.721801,60.036786,7926.956764,11773.736688,-2164.699395,-831.127266,0.002875,-0.021750,1.013125,192.000000,0.000000,0.000000,0.000000,0.000000,0.000000,0.000000,0.000000,0.000000,0.000000,1768316586.203260,0.000000
176.000000,8124.345019,11122.451558,-17637.068646,-11995.354235,-7972.531971,-9799.898839,-2200.752759,202.886784,6484.129308,8285.881077,1294.031893,32.767657,7908.918906,11760.102124,-2192.504965,-836.402278,0.002875,-0.021750,1.013125,192.000000,0.000000,0.000000,0.000000,0.000000,0.000000,0.000000,0.000000,0.000000,0.000000,1768316586.203277,0.000000
178.000000,8070.700833,11097.238791,-17723.547545,-12051.255948,-8022.868100,-9856.292290,-2254.352242,137.195007,6352.745754,8324.750760,1402.370799,147.476810,7942.848854,11843.943518,-2098.873508,-835.754077,0.002875,-0.021750,1.013125,192.000000,0.000000,0.000000,0.000000,0.000000,0.000000,0.000000,0.000000,0.000000,0.000000,1768316586.203297,0.000000
180.000000,8050.427800,11126.430169,-17765.993508,-12097.613466,-8052.595920,-9897.978294,-2283.342455,102.169824,6476.440308,8259.841294,1259.543152,-12.606384,7886.388348,11723.333505,-2231.039373,-828.825036,0.002875,-0.021750,1.013125,192.000000,0.000000,0.000000,0.000000,0.000000,0.000000,0.000000,0.000000,0.000000,0.000000,1768316586.203314,0.000000
182.000000,8145.959156,11113.935544,-17606.334997,-11965.894635,-7954.203541,-9769.969853,-2182.916067,227.585462,6409.429778,8321.465054,1384.824679,129.729525,7940.591328,11824.005762,-2116.240813,-850.707394,0.002437,-0.018875,1.008563,192.000000,0.000000,8.000000,127.500000,64.000000,15.500000,48.000000,0.000000,0.000000,0.000000,1768316586.203331,0.000000
184.000000,8034.021620,11125.871375,-17811.769880,-12125.508443,-8077.853391,-9922.252288,-2311.259784,71.726748,6405.115891,8293.860649,1335.919063,62.093146,7914.439787,11787.348901,-2166.219314,-832.535426,0.002437,-0.018875,1.008563,192.000000,0.000000,0.000000,0.000000,0.000000,0.000000,0.000000,0.000000,0.000000,0.000000,1768316586.203349,0.000000
186.000000,8131.944612,11132.934527,-17635.034637,-11993.275522,-7979.304550,-9797.686016,-2201.132739,205.412532,6496.914506,8295.805251,1302.704370,34.712259,7911.221136,11746.333450,-2196.975314,-843.353670,0.002437,-0.018875,1.008563,192.000000,0.000000,0.000000,0.000000,0.000000,0.000000,0.000000,0.000000,0.000000,0.000000,1768316586.203367,0.000000
188.000000,8086.302350,11109.487547,-17715.791490,-12044.908052,-8024.008039,-9851.732534,-2250.284225,146.582740,6360.747678,8333.534996,1413.077284,152.461249,7953.242416,11852.481884,-2100.102854,-835.798780,0.002437,-0.018875,1.008563,192.000000,0.000000,0.000000,0.000000,0.000000,0.000000,0.000000,0.000000,0.000000,0.000000,1768316586.203382,0.000000
190.000000,8058.362670,11130.341724,-17760.830255,-12091.846715,-8046.650356,-9890.311645,-2279.520307,110.708190,6486.766814,8277.208600,1273.848268,-5.006791,7899.374711,11734.419970,-2232.067553,-828.489760,0.002437,-0.018875,1.008563,192.000000,0.000000,0.000000,0.000000,0.000000,0.000000,0.000000,0.000000,0.000000,0.000000,1768316586.203400,0.000000
192.000000,8146.674412,11114.673151,-17605.463279,-11961.223121,-7963.568922,-9769.232246,-2179.675064,229.351250,6419.845691,8334.451417,1394.279467,136.278586,7957.377488,11828.654924,-2121.046438,-844.158333,0.002219,-0.017438,1.008281,192.000000,0.000000,8.000000,127.500000,64.000000,15.500000,64.000000,0.000000,0.000000,0.000000,1768316586.203416,0.000000
194.000000,8020.878794,11110.403968,-17813.714482,-12129.442350,-8090.035092,-9931.930593,-2312.757351,63.836582,6397.024560,8289.233838,1333.080391,55.857009,7928.409627,11782.252703,-2170.130869,-829.026202,0.002219,-0.017438,1.008281,192.000000,0.000000,0.000000,0.000000,0.000000,0.000000,0.000000,0.000000,0.000000,0.000000,1768316586.682897,0.000000
196.000000,8131.363467,11119.277611,-17636.800425,-11996.941208,-7986.881791,-9806.447900,-2201.468015,201.746845,6481.469450,8283.377681,1294.009542,25.056306,7889.003502,11751.519054,-2197.355294,-842.616062,0.002219,-0.017438,1.008281,192.000000,0.000000,0.000000,0.000000,0.000000,0.000000,0.000000,0.000000,0.000000,0.000000,1768316586.682968,0.000000
198.000000,8085.922371,11106.179488,-17720.015969,-12046.226805,-8028.880719,-9858.773334,-2249.233693,145.956891,6348.945957,8328.818778,1410.439779,150.047261,7939.898424,11843.027096,-2100.281668,-851.802629,0.002219,-0.017438,1.008281,192.000000,0.000000,0.000000,0.000000,0.000000,0.000000,0.000000,0.000000,0.000000,0.000000,1768316586.683022,0.000000
200.000000,8051.411277,11136.823730,-17768.116923,-12096.205306,-8057.133324,-9908.885945,-2282.224868,106.103731,6474.696872,8267.552646,1264.974626,-9.320677,7876.777098,11732.318906,-2231.240539,-833.049516,0.002219,-0.017438,1.008281,192.000000,0.000000,0.000000,0.000000,0.000000,0.000000,0.000000,0.000000,0.000000,0.000000,1768316586.683075,0.000000
202.000000,8141.645270,11112.683846,-17611.408843,-11961.893673,-7962.317224,-9772.272083,-2182.223163,229.954747,6408.848632,8333.400885,1385.964618,134.915130,7941.910081,11823.782244,-2120.934680,-843.040746,0.002219,-0.017438,1.008281,192.000000,0.000000,0.000000,0.000000,0.000000,0.000000,0.000000,0.000000,0.000000,0.000000,1768316586.683128,0.000000
204.000000,8025.237384,11116.953029,-17815.994360,-12123.787358,-8081.988464,-9921.358218,-2311.773874,73.045501,6395.795214,8296.252286,1332.163970,65.356501,7904.694427,11792.243933,-2170.153221,-818.967917,0.004000,-0.026000,1.016000,192.000000,0.000000,16.000000,127.500000,24.000000,15.500000,96.000000,0.000000,0.000000,0.000000,1768316586.683213,0.000000
206.000000,8125.417903,11122.898593,-17638.387399,-11993.856668,-7978.969273,-9799.161231,-2202.675009,207.558299,6489.046692,8295.738196,1296.267068,38.221483,7908.315409,11761.152656,-2195.433044,-834.591786,0.004000,-0.026000,1.016000,192.000000,0.000000,0.000000,0.000000,0.000000,0.000000,0.000000,0.000000,0.000000,0.000000,1768316586.683232,0.000000
208.000000,8087.844621,11117.400064,-17716.193821,-12041.018849,-8015.290858,-9843.842369,-2249.010175,152.796525,6355.293853,8337.245385,1411.311497,158.675034,7956.259901,11850.537282,-2096.079540,-835.061173,0.004000,-0.026000,1.016000,192.000000,0.000000,0.000000,0.000000,0.000000,0.000000,0.000000,0.000000,0.000000,0.000000,1768316586.683248,0.000000
210.000000,8062.989481,11142.545777,-17762.596042,-12087.085794,-8042.358821,-9884.835468,-2279.252086,116.162016,6490.387796,8283.578847,1270.204934,3.933907,7892.557429,11744.724124,-2224.803236,-832.781295,0.004000,-0.026000,1.016000,192.000000,0.000000,0.000000,0.000000,0.000000,0.000000,0.000000,0.000000,0.000000,0.000000,1768316586.683280,0.000000
212.000000,8146.093267,11126.117244,-17609.933628,-11956.663365,-7958.517427,-9763.554903,-2180.613837,231.966404,6414.481272,8343.056839,1388.736235,141.307728,7963.725384,11841.082494,-2120.644107,-841.967862,0.004000,-0.026000,1.016000,192.000000,0.000000,0.000000,0.000000,0.000000,0.000000,0.000000,0.000000,0.000000,0.000000,1768316586.683296,0.000000
214.000000,8028.187815,11129.246489,-17814.742662,-12119.160547,-8082.569609,-9921.917012,-2309.471644,74.028978,6401.919592,8302.443719,1332.275728,67.234047,7922.911098,11785.337244,-2172.857782,-824.309984,0.006000,-0.022000,1.010000,192.000000,0.000000,24.000000,127.500000,40.000000,15.500000,72.000000,0.000000,0.000000,0.000000,1768316586.683315,0.000000
216.000000,8137.197272,11133.850948,-17635.504023,-11985.966502,-7984.087823,-9798.423624,-2198.830509,210.575785,6488.890229,8299.627399,1298.323428,42.289501,7898.927677,11774.563703,-2200.797463,-837.005775,0.006000,-0.022000,1.010000,192.000000,0.000000,0.000000,0.000000,0.000000,0.000000,0.000000,0.000000,0.000000,0.000000,1768316586.683333,0.000000
218.000000,8087.151717,11121.021047,-17716.462042,-12040.080075,-8027.629021,-9852.201921,-2248.965472,151.723641,6360.188885,8342.430990,1412.719657,163.324197,7945.285195,11860.640271,-2102.852118,-842.861932,0.006000,-0.022000,1.010000,192.000000,0.000000,0.000000,0.000000,0.000000,0.000000,0.000000,0.000000,0.000000,0.000000,1768316586.683350,0.000000
220.000000,8060.150809,11137.136655,-17765.010031,-12091.220867,-8054.272301,-9900.235820,-2279.743824,110.976411,6489.538430,8277.990911,1267.433318,0.268221,7878.632293,11736.006944,-2234.012155,-830.367307,0.006000,-0.022000,1.010000,192.000000,0.000000,0.000000,0.000000,0.000000,0.000000,0.000000,0.000000,0.000000,0.000000,1768316586.683369,0.000000
222.000000,8139.767723,11111.253334,-17610.805346,-11962.743039,-7962.004299,-9777.770612,-2181.396148,229.463009,6413.006057,8334.317307,1387.015150,141.352432,7948.280328,11829.414884,-2119.571223,-845.231217,0.006000,-0.022000,1.010000,192.000000,0.000000,0.000000,0.000000,0.000000,0.000000,0.000000,0.000000,0.000000,0.000000,1768316586.683386,0.000000
224.000000,8019.582393,11114.561393,-17815.033235,-12127.006009,-8080.826173,-9922.296992,-2313.316144,68.306931,6397.248077,8293.480670,1329.772333,65.959998,7905.901421,11782.811497,-2168.610951,-829.741458,0.006000,-0.022000,1.010000,192.000000,0.000000,0.000000,127.500000,32.000000,15.500000,64.000000,0.000000,0.000000,0.000000,1768316586.683405,0.000000
226.000000,8122.489825,11129.537061,-17638.499157,-11994.795441,-7975.616512,-9794.936752,-2203.434968,201.411569,6492.690026,8294.262981,1296.378827,39.026146,7905.767310,11763.834866,-2195.053064,-841.073792,0.006000,-0.022000,1.010000,192.000000,0.000000,0.000000,0.000000,0.000000,0.000000,0.000000,0.000000,0.000000,0.000000,1768316586.683423,0.000000
228.000000,8080.446193,11110.158099,-17720.954743,-12045.131570,-8019.805911,-9841.204863,-2252.809972,142.224150,6354.265672,8331.568042,1405.947078,155.322272,7948.772067,11841.462474,-2098.225307,-834.301214,0.006000,-0.022000,1.010000,192.000000,0.000000,0.000000,0.000000,0.000000,0.000000,0.000000,0.000000,0.000000,0.000000,1768316586.683442,0.000000
230.000000,8058.161504,11130.498186,-17766.440543,-12089.835058,-8046.180969,-9888.188230,-2281.509612,106.751932,6481.603561,8279.175553,1262.761803,-3.285706,7895.664322,11748.501569,-2226.278451,-826.612213,0.006000,-0.022000,1.010000,192.000000,0.000000,0.000000,0.000000,0.000000,0.000000,0.000000,0.000000,0.000000,0.000000,1768316586.683459,0.000000
232.000000,8148.663717,11117.087140,-17607.743157,-11956.171627,-7952.705974,-9763.331385,-2178.892753,230.424134,6417.655220,8342.363935,1384.243534,140.681880,7974.029538,11841.864805,-2117.045476,-843.778353,0.006000,-0.022000,1.010000,192.000000,0.000000,0.000000,0.000000,0.000000,0.000000,0.000000,0.000000,0.000000,0.000000,1768316586.683477,0.000000
234.000000,8030.981783,11122.742131,-17810.473479,-12118.288829,-8072.131344,-9916.284372,-2309.628106,75.325379,6402.344275,8306.355274,1335.740249,72.710225,7907.287229,11799.552953,-2168.230971,-827.059248,0.002000,-0.022000,1.014000,192.000000,0.000000,8.000000,127.500000,40.000000,15.500000,88.000000,0.000000,0.000000,0.000000,1768316586.683496,0.000000
236.000000,8128.390685,11131.638125,-17631.234840,-11988.268732,-7973.962483,-9795.897877,-2199.389303,208.072389,6495.931029,8302.309609,1302.860833,45.172876,7906.795491,11766.070040,-2196.036541,-837.586920,0.002000,-0.022000,1.014000,192.000000,0.000000,0.000000,0.000000,0.000000,0.000000,0.000000,0.000000,0.000000,0.000000,1768316586.683513,0.000000
238.000000,8089.543353,11121.982172,-17706.739033,-12035.252098,-8004.293800,-9834.253470,-2244.361013,153.578836,6365.396841,8344.241481,1416.094770,163.324197,7946.983927,11858.405096,-2097.040665,-840.269129,0.002000,-0.022000,1.014000,192.000000,0.000000,0.000000,0.000000,0.000000,0.000000,0.000000,0.000000,0.000000,0.000000,1768316586.683531,0.000000
240.000000,8058.876760,11135.460274,-17756.806941,-12086.750518,-8045.353954,-9890.848087,-2277.888629,107.802464,6496.266305,8285.568152,1274.161193,5.543233,7892.602133,11742.444246,-2230.167655,-840.470295,0.002000,-0.022000,1.014000,192.000000,0.000000,0.000000,0.000000,0.000000,0.000000,0.000000,0.000000,0.000000,0.000000,1768316586.683549,0.000000
242.000000,8127.653078,11096.858811,-17607.206715,-11962.631281,-7955.723459,-9780.676339,-2184.972427,219.494131,6405.115891,8324.639001,1378.655598,129.058972,7948.325032,11817.724921,-2112.418665,-833.451847,0.002000,-0.022000,1.014000,192.000000,0.000000,0.000000,0.000000,0.000000,0.000000,0.000000,0.000000,0.000000,0.000000,1768316586.683571,0.000000
244.000000,8023.583355,11113.533212,-17811.568715,-12123.765007,-8075.215885,-9931.751780,-2314.500787,65.267094,6396.957504,8289.435004,1326.732496,59.053309,7906.169642,11785.471354,-2168.700358,-824.712315,0.006000,-0.016000,1.002000,192.000000,0.000000,24.000000,127.500000,64.000000,15.500000,40.000000,0.000000,0.000000,0.000000,1768316586.683590,0.000000
246.000000,8120.791092,11117.958858,-17636.241631,-11995.935380,-7977.337596,-9798.222458,-2205.446625,195.466005,6495.238125,8291.200792,1292.511975,32.186512,7906.817842,11760.236235,-2196.014189,-835.262339,0.006000,-0.016000,1.002000,192.000000,0.000000,0.000000,0.000000,0.000000,0.000000,0.000000,0.000000,0.000000,0.000000,1768316586.683607,0.000000
248.000000,8078.121612,11112.840308,-17715.433862,-12047.992593,-8009.859384,-9842.188339,-2254.061670,137.731449,6356.590254,8328.885833,1403.175462,149.801391,7953.711802,11848.145646,-2096.012485,-836.603443,0.006000,-0.016000,1.002000,192.000000,0.000000,0.000000,0.000000,0.000000,0.000000,0.000000,0.000000,0.000000,0.000000,1768316586.683625,0.000000
250.000000,8043.007021,11123.189166,-17762.149008,-12098.574591,-8041.062420,-9884.969578,-2285.041187,98.124158,6483.034072,8270.391318,1260.280759,-10.125340,7890.881049,11733.749418,-2223.015097,-823.147693,0.006000,-0.016000,1.002000,192.000000,0.000000,0.000000,0.000000,0.000000,0.000000,0.000000,0.000000,0.000000,0.000000,1768316586.683643,0.000000
252.000000,8135.342078,11106.604172,-17607.296122,-11967.280444,-7942.200654,-9768.807562,-2185.866497,219.114151,6412.111987,8326.382438,1380.488441,129.304842,7995.375454,11830.152491,-2105.623735,-839.240949,0.006000,-0.016000,1.002000,192.000000,0.000000,0.000000,0.000000,0.000000,0.000000,0.000000,0.000000,0.000000,0.000000,1768316586.683661,0.000000
254.000000,8038.760190,11123.882070,-17808.864153,-12128.101245,-8065.001138,-9923.392227,-2313.562013,67.010530,6401.941943,8290.843164,1328.833560,56.125230,7908.963610,11781.716261,-2157.368023,-817.850330,0.006000,-0.016000,1.002000,192.000000,0.000000,24.000000,127.500000,64.000000,15.500000,40.000000,0.000000,0.000000,0.000000,1768316586.683679,0.000000
0.000000,8128.055409,11127.592460,-17630.229012,-11991.845011,-7961.601968,-9789.862906,-2199.791634,206.261898,6501.295448,8292.027806,1300.648010,33.617024,7911.578764,11755.698831,-2188.124023,-830.568472,0.006000,-0.016000,1.002000,192.000000,0.000000,0.000000,0.000000,0.000000,0.000000,0.000000,0.000000,0.000000,0.000000,1768316586.683697,0.000000
2.000000,8082.077871,11109.599305,-17714.293923,-12042.427008,-8001.656294,-9839.282613,-2249.144286,146.269816,6366.894408,8331.143359,1413.814892,155.165810,7959.947939,11848.100942,-2091.095101,-828.310946,0.006000,-0.016000,1.002000,192.000000,0.000000,0.000000,0.000000,0.000000,0.000000,0.000000,0.000000,0.000000,0.000000,1768316586.683715,0.000000
4.000000,8060.128458,11134.968535,-17756.941051,-12091.757308,-8040.704792,-9890.468108,-2280.034397,108.964754,6481.916485,8268.737289,1269.936713,-4.336238,7891.238676,11737.415104,-2221.003440,-825.114647,0.006000,-0.016000,1.002000,192.000000,0.000000,0.000000,0.000000,0.000000,0.000000,0.000000,0.000000,0.000000,0.000000,1768316586.683733,0.000000
6.000000,8140.527682,11118.785872,-17601.641131,-11960.664327,-7947.363907,-9769.589874,-2180.680893,229.284195,6415.241231,8326.002458,1390.703188,137.217359,7954.471762,11831.515948,-2113.133921,-846.326452,0.006000,-0.016000,1.002000,192.000000,0.000000,0.000000,0.000000,0.000000,0.000000,0.000000,0.000000,0.000000,0.000000,1768316586.683751,0.000000
8.000000,8027.696076,11128.128901,-17806.606627,-12120.769873,-8064.956434,-9922.721675,-2309.605755,73.693701,6404.043007,8293.860649,1336.679022,66.228219,7923.425188,11793.115651,-2165.146430,-831.015507,0.008000,-0.020000,1.000000,192.000000,0.000000,32.000000,127.500000,48.000000,15.500000,32.000000,0.000000,0.000000,0.000000,1768316586.683782,0.000000
10.000000,8125.797883,11121.289268,-17631.994800,-11993.052005,-7967.771049,-9797.507202,-2201.959753,204.026723,6499.797881,8290.954923,1301.519728,36.478047,7922.598174,11764.214845,-2197.243535,-843.577187,0.008000,-0.020000,1.000000,192.000000,0.000000,0.000000,0.000000,0.000000,0.000000,0.000000,0.000000,0.000000,0.000000,1768316586.683801,0.000000
12.000000,8081.474374,11111.521555,-17710.427071,-12042.494064,-8010.686399,-9847.128075,-2250.083059,145.062822,6362.200542,8329.645792,1414.686610,154.159982,7955.008203,11853.375954,-2096.794796,-838.101010,0.008000,-0.020000,1.000000,192.000000,0.000000,0.000000,0.000000,0.000000,0.000000,0.000000,0.000000,0.000000,0.000000,1768316586.683819,0.000000
14.000000,8058.452077,11139.707105,-17758.036287,-12094.953608,-8040.548329,-9891.764509,-2283.454214,105.723751,6490.477203,8270.525428,1270.808431,-8.270145,7908.248354,11734.755246,-2225.607899,-829.003850,0.008000,-0.020000,1.000000,192.000000,0.000000,0.000000,0.000000,0.000000,0.000000,0.000000,0.000000,0.000000,0.000000,1768316586.683836,0.000000
16.000000,8155.972738,11122.272744,-17599.048328,-11959.636147,-7936.299793,-9765.700670,-2180.658541,231.765238,6422.729066,8333.713810,1390.859650,136.613862,7952.996546,11840.054314,-2113.715066,-841.632586,0.008000,-0.020000,1.000000,192.000000,0.000000,0.000000,0.000000,0.000000,0.000000,0.000000,0.000000,0.000000,0.000000,1768316586.683854,0.000000
18.000000,8037.553196,11125.469044,-17804.304398,-12120.367541,-8058.742649,-9917.223146,-2309.471644,76.375911,6415.598859,8301.102615,1342.557531,73.380777,7930.644802,11794.076776,-2166.688701,-825.047591,0.006000,-0.019000,1.001000,192.000000,0.000000,16.000000,127.500000,56.000000,15.500000,40.000000,0.000000,0.000000,0.000000,1768316586.683876,0.000000
20.000000,8134.135083,11132.152215,-17624.574020,-11991.219162,-7951.476628,-9786.487792,-2200.328076,209.882880,6509.364427,8297.280466,1308.404065,44.524675,7933.438770,11772.395584,-2192.393207,-842.101972,0.006000,-0.019000,1.001000,192.000000,0.000000,0.000000,0.000000,0.000000,0.000000,0.000000,0.000000,0.000000,0.000000,1768316586.683894,0.000000
22.000000,8092.627894,11113.667323,-17706.135536,-12040.974145,-7996.515393,-9832.174758,-2249.054879,150.248426,6370.649501,8332.886795,1421.682706,162.117203,7958.763296,11858.203931,-2092.570316,-843.644243,0.006000,-0.019000,1.001000,192.000000,0.000000,0.000000,0.000000,0.000000,0.000000,0.000000,0.000000,0.000000,0.000000,1768316586.683912,0.000000
24.000000,8057.155676,11129.693524,-17761.210234,-12096.607637,-8036.145036,-9888.881134,-2285.309408,104.181481,6492.757081,8271.173629,1270.875486,-2.212823,7894.770252,11740.499644,-2221.226957,-827.327469,0.006000,-0.019000,1.001000,192.000000,0.000000,0.000000,0.000000,0.000000,0.000000,0.000000,0.000000,0.000000,0.000000,1768316586.683930,0.000000
26.000000,8140.527682,11115.388407,-17603.161049,-11961.558397,-7945.195788,-9770.707461,-2182.714901,228.926567,6415.688266,8323.789635,1386.903392,132.925824,7955.052907,11834.153454,-2111.122264,-836.245815,0.006000,-0.019000,1.001000,192.000000,0.000000,0.000000,0.000000,0.000000,0.000000,0.000000,0.000000,0.000000,0.000000,1768316586.683948,0.000000
28.000000,8027.181986,11119.456425,-17809.713520,-12123.452082,-8066.565760,-9925.470939,-2313.472606,69.178649,6403.372455,8288.116251,1335.695545,63.411899,7916.742017,11788.690005,-2165.146430,-817.202129,0.004000,-0.018500,1.003500,192.000000,0.000000,8.000000,127.500000,56.000000,15.500000,56.000000,0.000000,0.000000,0.000000,1768316586.683965,0.000000
30.000000,8122.914508,11125.536099,-17632.799462,-11994.884848,-7970.609721,-9800.323522,-2204.530204,203.043247,6493.785261,8283.869420,1299.351609,32.477085,7909.969438,11759.297461,-2196.438872,-830.791990,0.004000,-0.018500,1.003500,192.000000,0.000000,0.000000,0.000000,0.000000,0.000000,0.000000,0.000000,0.000000,0.000000,1768316586.683983,0.000000
32.000000,8085.900019,11108.749939,-17712.326969,-12045.265680,-8009.233535,-9842.903595,-2252.608806,144.951063,6361.507638,8320.861557,1415.625383,154.830534,7964.798267,11850.626689,-2098.717046,-832.915405,0.004000,-0.018500,1.003500,192.000000,0.000000,0.000000,0.000000,0.000000,0.000000,0.000000,0.000000,0.000000,0.000000,1768316586.683999,0.000000
34.000000,8051.053649,11128.888861,-17762.841912,-12098.619294,-8041.710620,-9895.430195,-2286.941086,100.158167,6489.560782,8263.954015,1266.829820,-7.756055,7898.905325,11740.186720,-2223.640945,-828.936795,0.004000,-0.018500,1.003500,192.000000,0.000000,0.000000,0.000000,0.000000,0.000000,0.000000,0.000000,0.000000,0.000000,1768316586.684013,0.000000
36.000000,8141.734677,11108.325256,-17607.877267,-11968.107458,-7951.051945,-9770.930978,-2186.738215,221.662250,6406.278182,8318.916955,1383.327113,130.109504,7937.953822,11819.669523,-2117.492511,-844.113629,0.004000,-0.018500,1.003500,192.000000,0.000000,0.000000,0.000000,0.000000,0.000000,0.000000,0.000000,0.000000,0.000000,1768316586.684031,0.000000
38.000000,8030.490044,11122.563317,-17809.914685,-12124.569669,-8064.352937,-9916.843166,-2314.210214,69.446870,6398.879754,8290.709053,1332.566301,64.976521,7913.031627,11799.374139,-2168.342730,-825.628737,0.003000,-0.017250,1.006750,192.000000,0.000000,8.000000,127.500000,64.000000,15.500000,72.000000,0.000000,0.000000,0.000000,1768316586.684049,0.000000
40.000000,8131.922261,11134.901480,-17631.883041,-11994.929551,-7961.065526,-9794.377958,-2205.088997,204.116130,6499.015570,8294.799423,1299.306905,38.467352,7932.790569,11769.892188,-2192.974352,-837.676327,0.003000,-0.017250,1.006750,192.000000,0.000000,0.000000,0.000000,0.000000,0.000000,0.000000,0.000000,0.000000,0.000000,1768316586.684065,0.000000
42.000000,8102.127385,11114.919021,-17708.795394,-12043.254023,-8004.629076,-9837.986212,-2254.531056,147.432106,6371.118888,8335.189025,1413.211395,158.317406,7954.672927,11859.209759,-2094.693732,-834.100048,0.003000,-0.017250,1.006750,192.000000,0.000000,0.000000,0.000000,0.000000,0.000000,0.000000,0.000000,0.000000,0.000000,1768316586.684083,0.000000
44.000000,8064.956434,11136.868434,-17754.974098,-12091.198515,-8032.859329,-9878.264055,-2284.661208,111.535205,6496.914506,8277.119193,1272.238943,-0.223517,7901.922810,11746.355801,-2225.317326,-821.672478,0.003000,-0.017250,1.006750,192.000000,0.000000,0.000000,0.000000,0.000000,0.000000,0.000000,0.000000,0.000000,0.000000,1768316586.684102,0.000000
46.000000,8154.318709,11121.781006,-17598.645997,-11957.870359,-7932.656459,-9755.977661,-2182.647846,234.290985,6429.076961,8336.664240,1396.268773,140.480714,7975.638864,11843.965869,-2110.407008,-835.441153,0.003000,-0.017250,1.006750,192.000000,0.000000,0.000000,0.000000,0.000000,0.000000,0.000000,0.000000,0.000000,0.000000,1768316586.684121,0.000000
48.000000,8031.361762,11126.519576,-17809.311188,-12120.702818,-8059.144981,-9913.848032,-2313.629069,73.559591,6410.569717,8300.275600,1341.931682,71.793803,7923.916927,11802.928067,-2163.604160,-821.001926,0.002500,-0.018625,1.006375,192.000000,0.000000,8.000000,127.500000,48.000000,15.500000,56.000000,0.000000,0.000000,0.000000,1768316586.684139,0.000000
50.000000,8136.504368,11139.751809,-17633.537070,-11988.604008,-7957.779820,-9783.023272,-2202.965582,208.631183,6498.903811,8297.883963,1303.374923,40.277844,7919.290116,11769.065174,-2194.270753,-833.161275,0.002500,-0.018625,1.006375,192.000000,0.000000,0.000000,0.000000,0.000000,0.000000,0.000000,0.000000,0.000000,0.000000,1768316586.684160,0.000000
52.000000,8089.789222,11122.518614,-17711.209382,-12039.342468,-7993.699073,-9835.929851,-2250.641853,151.276606,6373.175248,8341.916900,1419.358125,161.379595,7967.525180,11866.719945,-2099.432301,-828.825036,0.002500,-0.018625,1.006375,192.000000,0.000000,0.000000,0.000000,0.000000,0.000000,0.000000,0.000000,0.000000,0.000000,1768316586.684176,0.000000
54.000000,8061.290748,11135.236756,-17762.976022,-12094.148945,-8024.723294,-9890.043424,-2286.359940,107.288373,6501.116634,8276.918027,1271.478983,-4.582108,7908.293057,11739.873795,-2222.277489,-822.946527,0.002500,-0.018625,1.006375,192.000000,0.000000,0.000000,0.000000,0.000000,0.000000,0.000000,0.000000,0.000000,0.000000,1768316586.684192,0.000000
56.000000,8146.920281,11114.159061,-17604.792727,-11957.468028,-7935.338668,-9763.085516,-2184.011302,230.647651,6435.111932,8335.189025,1390.814947,137.329118,7984.646617,11844.323497,-2110.854043,-837.229292,0.002500,-0.018625,1.006375,192.000000,0.000000,0.000000,0.000000,0.000000,0.000000,0.000000,0.000000,0.000000,0.000000,1768316586.684208,0.000000
58.000000,8027.874890,11115.120186,-17809.557058,-12123.876765,-8067.482181,-9922.855785,-2315.148987,67.010530,6407.328714,8291.558420,1335.472028,67.256399,7919.267764,11788.153564,-2168.007453,-816.106894,0.002250,-0.018313,1.006187,192.000000,0.000000,8.000000,127.500000,56.000000,15.500000,56.000000,0.000000,0.000000,0.000000,1768316586.684226,0.000000
60.000000,8127.407208,11124.463215,-17635.615782,-11994.124889,-7969.358023,-9796.434319,-2204.463149,199.466968,6496.333360,8287.780975,1298.390484,33.773486,7924.900404,11758.895130,-2192.862593,-835.284690,0.002250,-0.018313,1.006187,192.000000,0.000000,0.000000,0.000000,0.000000,0.000000,0.000000,0.000000,0.000000,0.000000,1768316587.163340,0.000000
62.000000,8087.419938,11113.130881,-17713.846888,-12041.108256,-8008.585335,-9844.356459,-2251.021832,144.504028,6358.512504,8326.874176,1410.573889,152.662415,7945.955747,11849.419695,-2096.548926,-828.176836,0.002250,-0.018313,1.006187,192.000000,0.000000,0.000000,0.000000,0.000000,0.000000,0.000000,0.000000,0.000000,0.000000,1768316587.163402,0.000000
64.000000,8061.223693,11133.538024,-17761.076124,-12092.137288,-8036.569719,-9891.362177,-2282.269571,108.271850,6492.153584,8271.531257,1271.702501,-5.051494,7892.400967,11737.124531,-2227.619556,-822.767713,0.002250,-0.018313,1.006187,192.000000,0.000000,0.000000,0.000000,0.000000,0.000000,0.000000,0.000000,0.000000,0.000000,1768316587.163450,0.000000
66.000000,8145.623880,11122.116282,-17601.663482,-11957.713897,-7941.418343,-9757.922263,-2180.502079,233.329860,6426.797083,8328.885833,1393.228935,137.373821,7948.325032,11826.106826,-2115.525557,-833.809475,0.002250,-0.018313,1.006187,192.000000,0.000000,0.000000,0.000000,0.000000,0.000000,0.000000,0.000000,0.000000,0.000000,1768316587.163494,0.000000
68.000000,8028.456036,11114.270820,-17811.188735,-12119.272306,-8069.270321,-9915.032675,-2310.455121,73.917219,6412.961353,8297.034597,1343.809228,69.513925,7918.150177,11797.898924,-2169.102689,-827.707449,0.002125,-0.016156,1.004094,192.000000,0.000000,8.000000,127.500000,72.000000,15.500000,40.000000,0.000000,0.000000,0.000000,1768316587.163538,0.000000
70.000000,8132.771627,11125.916079,-17638.856785,-11989.386319,-7971.950826,-9795.137917,-2202.160919,202.775026,6502.748311,8294.285332,1300.066864,33.840541,7915.713837,11764.080735,-2202.429140,-827.908615,0.002125,-0.016156,1.004094,192.000000,0.000000,0.000000,0.000000,0.000000,0.000000,0.000000,0.000000,0.000000,0.000000,1768316587.163582,0.000000
72.000000,8097.701740,11115.969553,-17715.724434,-12036.794369,-8008.317114,-9840.713124,-2250.708908,145.733374,6364.122792,8334.652583,1409.657468,153.444726,7957.556302,11857.667489,-2103.097988,-820.912519,0.002125,-0.016156,1.004094,192.000000,0.000000,0.000000,0.000000,0.000000,0.000000,0.000000,0.000000,0.000000,0.000000,1768316587.163606,0.000000
74.000000,8066.275187,11140.690582,-17763.065429,-12087.488125,-8033.887510,-9887.495326,-2281.911943,109.501196,6499.641418,8279.711995,1269.892009,-1.765788,7888.914095,11741.371362,-2226.792541,-817.850330,0.002125,-0.016156,1.004094,192.000000,0.000000,0.000000,0.000000,0.000000,0.000000,0.000000,0.000000,0.000000,0.000000,1768316587.163621,0.000000
76.000000,8153.603453,11123.949125,-17602.602256,-11956.283385,-7942.848854,-9758.324594,-2180.926762,231.161741,6432.787351,8340.955775,1393.161880,140.704231,7958.673889,11839.204948,-2118.163063,-834.122400,0.002125,-0.016156,1.004094,192.000000,0.000000,0.000000,0.000000,0.000000,0.000000,0.000000,0.000000,0.000000,0.000000,1768316587.163638,0.000000
78.000000,8032.926385,11122.116282,-17809.378244,-12120.501652,-8068.532713,-9918.564250,-2311.550356,68.865725,6409.049798,8300.633228,1338.355403,65.088280,7922.531119,11791.126346,-2166.800459,-818.230309,0.002125,-0.016156,1.004094,192.000000,0.000000,0.000000,0.000000,0.000000,0.000000,0.000000,0.000000,0.000000,0.000000,1768316587.163653,0.000000
80.000000,8132.637517,11127.525404,-17637.202756,-11992.761432,-7963.613625,-9796.166098,-2203.367913,200.964534,6506.011666,8294.330036,1298.122263,34.198169,7940.501921,11768.841656,-2194.695436,-831.507245,0.006000,-0.022000,1.014000,192.000000,0.000000,24.000000,127.500000,40.000000,15.500000,88.000000,0.000000,0.000000,0.000000,1768316587.163665,0.000000
82.000000,8091.286789,11117.333009,-17713.511612,-12040.482407,-8003.243268,-9842.635374,-2250.641853,150.382537,6365.665062,8333.646754,1413.233747,156.886894,7958.450372,11855.588777,-2094.336104,-835.418801,0.006000,-0.022000,1.014000,192.000000,0.000000,0.000000,0.000000,0.000000,0.000000,0.000000,0.000000,0.000000,0.000000,1768316587.163687,0.000000
84.000000,8073.718318,11141.562300,-17761.992545,-12089.410375,-8036.927347,-9882.354424,-2282.984827,112.876309,6496.333360,8278.549704,1274.429414,0.201166,7890.970456,11739.471464,-2226.434913,-821.180740,0.006000,-0.022000,1.014000,192.000000,0.000000,0.000000,0.000000,0.000000,0.000000,0.000000,0.000000,0.000000,0.000000,1768316587.163699,0.000000
86.000000,8150.742430,11126.966611,-17602.758718,-11957.020993,-7939.473741,-9760.671527,-2181.642018,236.883788,6425.523034,8338.027696,1393.608915,141.106563,7948.280328,11840.322535,-2115.883185,-833.764772,0.006000,-0.022000,1.014000,192.000000,0.000000,0.000000,0.000000,0.000000,0.000000,0.000000,0.000000,0.000000,0.000000,1768316587.163711,0.000000
88.000000,8037.463789,11135.683791,-17808.037139,-12117.394759,-8060.776658,-9909.578849,-2310.209252,77.091167,6410.435606,8302.890754,1342.378717,73.939571,7912.428130,11798.658883,-2165.280541,-822.320679,0.006000,-0.022000,1.014000,192.000000,0.000000,0.000000,0.000000,0.000000,0.000000,0.000000,0.000000,0.000000,0.000000,1768316587.163723,0.000000
90.000000,8129.530624,11129.335896,-17636.934535,-11988.961636,-7968.039270,-9791.427528,-2203.211451,202.149177,6505.072892,8301.326132,1301.452673,38.020317,7912.383427,11767.187627,-2191.230916,-831.708411,0.008000,-0.022000,1.014000,192.000000,0.000000,32.000000,127.500000,40.000000,15.500000,88.000000,0.000000,0.000000,0.000000,1768316587.163735,0.000000
92.000000,8082.413147,11111.722721,-17716.216173,-12036.839072,-8008.250059,-9840.579014,-2251.558274,142.805295,6362.245245,8335.837225,1410.797407,156.864543,7956.952805,11851.900739,-2094.984304,-831.864873,0.008000,-0.022000,1.014000,192.000000,0.000000,0.000000,0.000000,0.000000,0.000000,0.000000,0.000000,0.000000,0.000000,1768316587.163747,0.000000
94.000000,8056.820399,11134.566204,-17765.211197,-12086.750518,-8044.549292,-9890.624570,-2283.633028,105.477882,6486.297427,8270.190152,1264.661701,-5.699695,7882.990883,11745.461732,-2229.027716,-819.817283,0.008000,-0.022000,1.014000,192.000000,0.000000,0.000000,0.000000,0.000000,0.000000,0.000000,0.000000,0.000000,0.000000,1768316587.163759,0.000000
96.000000,8150.116581,11111.700369,-17605.798555,-11956.909234,-7949.777895,-9773.255560,-2183.564268,230.848817,6421.566775,8333.914975,1391.060816,141.173618,7956.975157,11839.093189,-2116.129055,-837.430458,0.008000,-0.022000,1.014000,192.000000,0.000000,0.000000,0.000000,0.000000,0.000000,0.000000,0.000000,0.000000,0.000000,1768316587.163771,0.000000
98.000000,8030.691210,11122.406855,-17812.999226,-12116.679504,-8069.985577,-9923.213413,-2311.326839,75.213620,6398.969161,8297.772205,1337.193112,70.497402,7907.667209,11791.707491,-2166.934570,-820.823112,0.008000,-0.022000,1.014000,192.000000,0.000000,0.000000,0.000000,0.000000,0.000000,0.000000,0.000000,0.000000,0.000000,1768316587.163783,0.000000
100.000000,8141.578214,11135.370867,-17636.912183,-11988.313435,-7958.942110,-9794.668531,-2203.658486,205.010200,6504.402340,8301.817870,1303.039647,39.607291,7909.924735,11769.288691,-2198.674047,-837.586920,0.010000,-0.020000,1.010000,192.000000,0.000000,40.000000,127.500000,48.000000,15.500000,72.000000,0.000000,0.000000,0.000000,1768316587.163795,0.000000
102.000000,8090.705644,11119.836404,-17713.511612,-12037.420218,-8006.305457,-9842.009526,-2252.295882,147.745031,6365.307434,8340.285223,1412.116159,157.669205,7970.609721,11853.152436,-2097.666514,-825.919309,0.010000,-0.020000,1.010000,192.000000,0.000000,0.000000,0.000000,0.000000,0.000000,0.000000,0.000000,0.000000,0.000000,1768316587.163807,0.000000
104.000000,8060.217865,11142.657535,-17761.590214,-12087.085794,-8035.496835,-9884.634302,-2285.063539,109.188272,6495.707511,8283.265922,1270.406100,-1.408160,7907.600153,11750.289708,-2224.937347,-813.424684,0.010000,-0.020000,1.010000,192.000000,0.000000,0.000000,0.000000,0.000000,0.000000,0.000000,0.000000,0.000000,0.000000,1768316587.163818,0.000000
106.000000,8156.173903,11131.347553,-17599.607122,-11952.170664,-7937.842064,-9755.597681,-2182.066701,235.430924,6432.385019,8343.682688,1393.944191,146.918016,7957.086916,11843.496483,-2113.715066,-831.574301,0.010000,-0.020000,1.010000,192.000000,0.000000,0.000000,0.000000,0.000000,0.000000,0.000000,0.000000,0.000000,0.000000,1768316587.163831,0.000000
108.000000,8038.246100,11133.068637,-17807.031310,-12117.037131,-8059.256740,-9912.976314,-2313.874938,74.587771,6421.365609,8307.629324,1339.763563,73.336074,7920.742979,11805.431462,-2163.917084,-812.552966,0.010000,-0.020000,1.010000,192.000000,0.000000,0.000000,0.000000,0.000000,0.000000,0.000000,0.000000,0.000000,0.000000,1768316587.163842,0.000000
110.000000,8130.290583,11143.372791,-17632.061855,-11988.715767,-7954.471762,-9792.813336,-2203.054989,207.938279,6508.492709,8306.578792,1302.614963,37.886207,7928.096703,11772.127363,-2190.761529,-830.322603,0.006000,-0.016000,1.010000,192.000000,0.000000,24.000000,127.500000,64.000000,15.500000,72.000000,0.000000,0.000000,0.000000,1768316587.163854,0.000000
112.000000,8087.934028,11113.801433,-17714.517440,-12037.867253,-7998.527050,-9834.409932,-2252.921731,148.102659,6369.509562,8346.499008,1414.485444,159.591455,7958.159799,11861.355527,-2091.922115,-829.696754,0.006000,-0.016000,1.010000,192.000000,0.000000,0.000000,0.000000,0.000000,0.000000,0.000000,0.000000,0.000000,0.000000,1768316587.163866,0.000000
114.000000,8072.131344,11148.960727,-17759.623260,-12086.147021,-8034.066324,-9877.928779,-2282.604847,114.575042,6493.628799,8288.138603,1272.015425,-1.385808,7906.951953,11751.876682,-2224.244442,-816.911556,0.006000,-0.016000,1.010000,192.000000,0.000000,0.000000,0.000000,0.000000,0.000000,0.000000,0.000000,0.000000,0.000000,1768316587.163880,0.000000
116.000000,8163.751145,11138.120131,-17597.014320,-11947.812074,-7936.031572,-9754.234225,-2175.987026,246.204465,6436.408333,8357.563121,1401.297915,150.337833,7961.579616,11855.097038,-2118.788912,-841.319661,0.006000,-0.016000,1.010000,192.000000,0.000000,0.000000,0.000000,0.000000,0.000000,0.000000,0.000000,0.000000,0.000000,1768316587.163892,0.000000
118.000000,8046.695059,11137.874262,-17804.729081,-12111.650361,-8059.212036,-9916.016151,-2308.555223,85.406016,6419.912746,8318.447568,1347.854894,81.539164,7925.615659,11813.053407,-2170.242628,-813.111760,0.006000,-0.016000,1.010000,192.000000,0.000000,0.000000,0.000000,0.000000,0.000000,0.000000,0.000000,0.000000,0.000000,1768316587.163904,0.000000
120.000000,8143.768685,11144.110399,-17630.988971,-11986.234723,-7963.501866,-9790.555810,-2201.289201,212.140407,6518.998029,8315.228917,1311.466254,47.117477,7926.219157,11780.375156,-2196.908259,-833.071868,0.006000,-0.020000,1.014000,192.000000,0.000000,24.000000,127.500000,48.000000,15.500000,88.000000,0.000000,0.000000,0.000000,1768316587.163915,0.000000
122.000000,8093.700778,11123.122111,-17712.751652,-12036.079113,-8007.668913,-9843.931776,-2249.926597,147.365051,6378.293798,8349.717659,1417.838206,158.183296,7962.630148,11863.098963,-2098.739397,-822.745362,0.006000,-0.020000,1.014000,192.000000,0.000000,0.000000,0.000000,0.000000,0.000000,0.000000,0.000000,0.000000,0.000000,1768316587.163927,0.000000
124.000000,8060.843713,11145.049172,-17766.529949,-12091.466736,-8039.184873,-9890.892791,-2284.460042,104.762626,6498.210907,8291.848992,1268.640312,-5.587936,7918.843081,11753.530711,-2229.161826,-817.135074,0.006000,-0.020000,1.014000,192.000000,0.000000,0.000000,0.000000,0.000000,0.000000,0.000000,0.000000,0.000000,0.000000,1768316587.163939,0.000000
126.000000,8157.604415,11130.229965,-17600.322378,-11955.925757,-7936.456255,-9758.905740,-2179.920933,236.593215,6432.049743,8351.997537,1390.502023,136.233882,7973.113116,11845.239919,-2118.341877,-841.274958,0.006000,-0.020000,1.014000,192.000000,0.000000,0.000000,0.000000,0.000000,0.000000,0.000000,0.000000,0.000000,0.000000,1768316587.163950,0.000000
128.000000,8040.280108,11129.917041,-17812.127508,-12118.378236,-8066.543408,-9918.631306,-2312.444426,78.745196,6416.314115,8319.609859,1345.910292,74.051329,7936.433904,11806.549049,-2163.581808,-825.941661,0.006000,-0.020000,1.014000,192.000000,0.000000,0.000000,0.000000,0.000000,0.000000,0.000000,0.000000,0.000000,0.000000,1768316587.163962,0.000000
130.000000,8140.885310,11147.150236,-17638.499157,-11989.520429,-7977.628169,-9796.836650,-2204.597259,211.335744,6504.603506,8306.690551,1301.877356,39.562588,7913.813938,11769.869837,-2205.513681,-826.120475,0.006000,-0.016000,1.004000,192.000000,0.000000,24.000000,127.500000,64.000000,15.500000,48.000000,0.000000,0.000000,0.000000,1768316587.163974,0.000000
132.000000,8103.066159,11128.799454,-17713.109280,-12035.877947,-8013.189794,-9839.684944,-2249.211341,155.746955,6374.628112,8351.304633,1421.123912,167.682787,7952.571863,11864.171846,-2107.791854,-823.684135,0.006000,-0.016000,1.004000,192.000000,0.000000,0.000000,0.000000,0.000000,0.000000,0.000000,0.000000,0.000000,0.000000,1768316587.163986,0.000000
134.000000,8069.337376,11153.431076,-17764.115961,-12089.253913,-8044.884568,-9885.707186,-2282.135461,113.658621,6500.580192,8288.987969,1273.445937,2.816320,7892.333912,11748.456865,-2231.732277,-820.487835,0.006000,-0.016000,1.004000,192.000000,0.000000,0.000000,0.000000,0.000000,0.000000,0.000000,0.000000,0.000000,0.000000,1768316587.163998,0.000000
136.000000,8163.907607,11136.331992,-17603.138698,-11952.438885,-7946.603947,-9758.458705,-2178.199849,241.778820,6435.469560,8351.528150,1395.911145,145.375746,7953.242416,11843.943518,-2120.778217,-839.397411,0.006000,-0.016000,1.004000,192.000000,0.000000,0.000000,0.000000,0.000000,0.000000,0.000000,0.000000,0.000000,0.000000,1768316587.164010,0.000000
138.000000,8044.862216,11140.176492,-17810.339369,-12113.885535,-8071.371385,-9914.965619,-2309.024609,84.869574,6417.118778,8315.608897,1344.748002,80.309818,7918.932488,11808.761872,-2171.427270,-820.040801,0.006000,-0.016000,1.004000,192.000000,0.000000,0.000000,0.000000,0.000000,0.000000,0.000000,0.000000,0.000000,0.000000,1768316587.164021,0.000000
140.000000,8134.895043,11142.366963,-17641.784864,-11987.419365,-7976.778802,-9799.451804,-2201.512718,212.140407,6510.638477,8311.093844,1305.833615,47.206884,7908.695389,11777.983520,-2206.921841,-833.541254,0.006000,-0.016000,1.004000,192.000000,0.000000,0.000000,127.500000,56.000000,15.500000,56.000000,0.000000,0.000000,0.000000,1768316587.164033,0.000000
142.000000,8087.062310,11118.741169,-17718.764272,-12033.307497,-8020.968201,-9845.451694,-2247.132629,152.081269,6366.603835,8342.162769,1414.016058,160.910208,7952.013070,11856.169922,-2110.138787,-828.556815,0.006000,-0.016000,1.004000,192.000000,0.000000,0.000000,0.000000,0.000000,0.000000,0.000000,0.000000,0.000000,0.000000,1768316587.164044,0.000000
144.000000,8051.590091,11143.506902,-17772.833141,-12090.818535,-8052.595920,-9897.821831,-2284.169469,105.053199,6492.958247,8279.197905,1268.528553,-3.330410,7902.638066,11742.891281,-2234.526245,-827.148655,0.006000,-0.016000,1.004000,192.000000,0.000000,0.000000,0.000000,0.000000,0.000000,0.000000,0.000000,0.000000,0.000000,1768316587.164056,0.000000
146.000000,8148.954290,11120.551660,-17613.800480,-11954.852874,-7957.243378,-9768.025251,-2181.977294,231.541721,6427.244118,8335.926632,1383.461223,133.082286,7968.888637,11837.886195,-2125.539139,-837.028126,0.006000,-0.016000,1.004000,192.000000,0.000000,0.000000,0.000000,0.000000,0.000000,0.000000,0.000000,0.000000,0.000000,1768316587.164070,0.000000
148.000000,8033.038143,11138.813035,-17816.262581,-12116.344227,-8075.059423,-9925.694457,-2311.103321,76.688835,6413.028409,8301.706112,1334.466199,69.715091,7902.191031,11795.417880,-2174.422404,-817.291536,0.006000,-0.016000,1.004000,192.000000,0.000000,0.000000,0.000000,0.000000,0.000000,0.000000,0.000000,0.000000,0.000000,1768316587.164082,0.000000
150.000000,8129.843549,11133.381561,-17641.918974,-11992.694377,-7972.286102,-9805.106795,-2203.926707,207.379485,6505.497575,8297.436928,1299.195146,35.762791,7897.206592,11766.092392,-2205.446625,-836.022298,0.001000,-0.018000,1.008000,192.000000,127.500000,112.000000,127.500000,48.000000,15.500000,80.000000,0.000000,0.000000,0.000000,1768316587.164094,0.000000
152.000000,8094.080757,11118.875279,-17716.350283,-12037.800197,-8009.233535,-9847.373944,-2248.809010,151.857752,6378.964350,8338.541786,1415.915956,160.373766,7954.248244,11856.035811,-2101.712179,-834.457676,0.001000,-0.018000,1.008000,192.000000,0.000000,0.000000,0.000000,0.000000,0.000000,0.000000,0.000000,0.000000,0.000000,1768316587.164108,0.000000
154.000000,8064.822324,11138.053076,-17768.049868,-12091.556143,-8049.824303,-9891.831564,-2283.878897,107.131911,6507.710398,8276.426289,1270.964893,-0.692904,7891.752767,11736.722200,-2233.833341,-822.253623,0.001000,-0.018000,1.008000,192.000000,0.000000,0.000000,0.000000,0.000000,0.000000,0.000000,0.000000,0.000000,0.000000,1768316587.164120,0.000000
156.000000,8160.085459,11123.546794,-17606.714977,-11957.333917,-7949.084991,-9765.097173,-2179.697416,233.128695,6438.464694,8335.971336,1389.898525,135.250406,7954.583520,11844.010573,-2122.812226,-835.955243,0.001000,-0.018000,1.008000,192.000000,0.000000,0.000000,0.000000,0.000000,0.000000,0.000000,0.000000,0.000000,0.000000,1768316587.164132,0.000000
158.000000,8040.525978,11129.648820,-17810.786404,-12120.456948,-8065.403469,-9918.743064,-2309.426941,76.979408,6422.371438,8302.667237,1342.401068,70.385643,7927.202633,11800.067043,-2169.639131,-824.309984,0.001000,-0.018000,1.008000,192.000000,0.000000,0.000000,0.000000,0.000000,0.000000,0.000000,0.000000,0.000000,0.000000,1768316587.164144,0.000000
160.000000,8141.779380,11143.015163,-17636.666314,-11990.570961,-7971.794363,-9793.617999,-2200.372779,210.262860,6521.277907,8302.421367,1304.447806,39.003794,7915.423264,11768.975767,-2202.138567,-839.598577,-0.000500,-0.020000,1.010000,192.000000,127.500000,120.000000,127.500000,40.000000,15.500000,80.000000,0.000000,0.000000,0.000000,1768316587.164155,0.000000
162.000000,8099.601638,11128.642992,-17716.596152,-12037.442569,-8009.188832,-9838.545005,-2247.132629,152.349490,6379.321978,8340.531092,1418.464055,163.748880,7980.131564,11863.836570,-2106.182528,-836.268167,-0.000500,-0.020000,1.010000,192.000000,0.000000,0.000000,0.000000,0.000000,0.000000,0.000000,0.000000,0.000000,0.000000,1768316587.164167,0.000000
164.000000,8047.857350,11127.726570,-17773.570749,-12094.081890,-8054.518170,-9892.457413,-2285.242353,101.074588,6504.111767,8274.347576,1265.645178,-5.677343,7890.881049,11746.668726,-2233.542768,-818.856158,-0.000500,-0.020000,1.010000,192.000000,0.000000,0.000000,0.000000,0.000000,0.000000,0.000000,0.000000,0.000000,0.000000,1768316587.164179,0.000000
166.000000,8142.539339,11118.160023,-17614.739253,-11958.093877,-7956.908102,-9769.723984,-2182.290218,225.707916,6422.013810,8327.812949,1379.929647,128.701345,7964.932378,11837.439160,-2127.327279,-832.222501,-0.000500,-0.020000,1.010000,192.000000,0.000000,0.000000,0.000000,0.000000,0.000000,0.000000,0.000000,0.000000,0.000000,1768316587.164190,0.000000
168.000000,8032.479350,11121.401026,-17817.268409,-12117.439463,-8075.886437,-9922.945192,-2310.209252,72.889039,6409.094502,8301.661408,1333.862702,68.016358,7907.510746,11803.956247,-2171.583733,-822.231272,-0.000500,-0.020000,1.010000,192.000000,0.000000,0.000000,0.000000,0.000000,0.000000,0.000000,0.000000,0.000000,0.000000,1768316587.164202,0.000000
170.000000,8132.659868,11138.388352,-17642.366009,-11991.889714,-7976.622340,-9803.117490,-2202.675009,205.077255,6509.230317,8300.119138,1296.423530,33.818189,7907.242525,11767.880531,-2205.737198,-830.076734,-0.001250,-0.019000,1.008000,192.000000,127.500000,120.000000,127.500000,56.000000,15.500000,56.000000,0.000000,0.000000,0.000000,1768316587.164214,0.000000
172.000000,8085.631798,11116.126015,-17719.144251,-12042.538767,-8014.933230,-9847.373944,-2249.546617,149.242598,6374.114022,8339.905243,1411.847939,157.199819,7959.947939,11861.489637,-2103.768540,-834.412972,-0.001250,-0.019000,1.008000,192.000000,0.000000,0.000000,0.000000,0.000000,0.000000,0.000000,0.000000,0.000000,0.000000,1768316587.164225,0.000000
174.000000,8053.489989,11137.941317,-17772.229644,-12097.881686,-8053.601748,-9908.640076,-2284.772966,106.282545,6493.025302,8273.453507,1264.907570,-9.611250,7894.077348,11740.365534,-2231.531111,-818.275013,-0.001250,-0.019000,1.008000,192.000000,0.000000,0.000000,0.000000,0.000000,0.000000,0.000000,0.000000,0.000000,0.000000,1768316587.164237,0.000000
176.000000,8162.387688,11123.189166,-17607.631398,-11957.110400,-7950.023764,-9774.574313,-2178.535125,239.878921,6430.708639,8335.189025,1389.943229,138.066726,7955.611700,11837.685029,-2125.114456,-832.870702,-0.001250,-0.019000,1.008000,192.000000,0.000000,0.000000,0.000000,0.000000,0.000000,0.000000,0.000000,0.000000,0.000000,1768316587.164249,0.000000
178.000000,8047.320908,11135.169701,-17810.898162,-12114.198460,-8064.822324,-9916.686704,-2306.632973,85.294257,6419.733932,8311.876155,1347.027880,79.236934,7933.304660,11808.895982,-2171.114346,-823.058286,-0.001250,-0.019000,1.008000,192.000000,0.000000,0.000000,0.000000,0.000000,0.000000,0.000000,0.000000,0.000000,0.000000,1768316587.164262,0.000000
180.000000,8136.973755,11145.295041,-17641.628401,-11985.854743,-7962.808962,-9789.594685,-2199.992800,211.201633,6517.031076,8310.088016,1306.437112,43.429439,7921.100607,11778.698776,-2202.071512,-829.696754,0.002375,-0.019500,1.010000,192.000000,0.000000,24.000000,127.500000,48.000000,15.500000,80.000000,0.000000,0.000000,0.000000,1768316587.644163,0.000000
182.000000,8100.898039,11131.816939,-17715.992655,-12033.754532,-8009.278239,-9835.907499,-2246.842056,155.054051,6385.759280,8351.639909,1419.313421,161.983092,7981.182096,11875.414774,-2101.779235,-822.544196,0.002375,-0.019500,1.010000,192.000000,0.000000,0.000000,0.000000,0.000000,0.000000,0.000000,0.000000,0.000000,0.000000,1768316587.644254,0.000000
184.000000,8075.953493,11149.251300,-17765.032383,-12093.031358,-8044.750457,-9887.115346,-2282.582496,110.127045,6508.157433,8288.630341,1272.730681,-3.710390,7916.719665,11758.358688,-2230.257062,-816.665687,0.002375,-0.019500,1.010000,192.000000,0.000000,0.000000,0.000000,0.000000,0.000000,0.000000,0.000000,0.000000,0.000000,1768316587.644329,0.000000
186.000000,8154.765744,11130.051152,-17606.223238,-11960.418458,-7946.067506,-9761.543245,-2180.055044,234.313337,6446.220749,8344.979089,1392.178403,135.339813,7982.120869,11851.252538,-2116.821959,-835.172932,0.002375,-0.019500,1.010000,192.000000,0.000000,0.000000,0.000000,0.000000,0.000000,0.000000,0.000000,0.000000,0.000000,1768316587.644390,0.000000
188.000000,8040.257757,11128.330067,-17814.385034,-12124.547318,-8063.592978,-9917.893698,-2310.790397,76.197097,6419.353952,8309.283353,1342.199903,68.418690,7942.223006,11800.983465,-2168.208619,-821.583071,0.002375,-0.019500,1.010000,192.000000,0.000000,0.000000,0.000000,0.000000,0.000000,0.000000,0.000000,0.000000,0.000000,1768316587.644460,0.000000
190.000000,8127.630726,11129.827634,-17645.405846,-11996.985912,-7972.151991,-9803.408063,-2203.636134,200.338686,6513.924183,8297.973370,1295.618867,31.381849,7920.765331,11781.828020,-2197.377646,-835.396449,0.004188,-0.019750,1.010000,192.000000,0.000000,24.000000,127.500000,48.000000,15.500000,72.000000,0.000000,0.000000,0.000000,1768316587.644511,0.000000
192.000000,8088.693987,11118.025913,-17722.295847,-12040.236537,-8015.559079,-9848.424476,-2248.652547,143.989938,6374.762222,8337.044220,1407.422293,149.779040,7959.635014,11858.069820,-2099.521708,-831.283728,0.004188,-0.019750,1.010000,192.000000,0.000000,0.000000,0.000000,0.000000,0.000000,0.000000,0.000000,0.000000,0.000000,1768316587.644532,0.000000
194.000000,8057.736821,11130.788759,-17775.828275,-12096.361768,-8051.120705,-9893.262076,-2283.454214,101.029885,6502.033055,8276.538047,1262.717100,-11.175872,7901.609886,11750.557929,-2233.945100,-824.935833,0.004188,-0.019750,1.010000,192.000000,0.000000,0.000000,0.000000,0.000000,0.000000,0.000000,0.000000,0.000000,0.000000,1768316587.644552,0.000000
196.000000,8160.532494,11123.457387,-17610.335959,-11962.273653,-7949.710840,-9764.538379,-2179.540954,229.150084,6437.190644,8332.529167,1381.471918,128.746048,7958.606834,11838.646154,-2123.393372,-838.391583,0.004188,-0.019750,1.010000,192.000000,0.000000,0.000000,0.000000,0.000000,0.000000,0.000000,0.000000,0.000000,0.000000,1768316587.644576,0.000000
198.000000,8040.771847,11136.980192,-17808.238305,-12120.635762,-8060.374327,-9911.635210,-2306.588269,80.153356,6424.785426,8307.852841,1340.635281,69.089242,7932.499997,11809.275962,-2166.688701,-827.886263,0.004188,-0.019750,1.010000,192.000000,0.000000,0.000000,0.000000,0.000000,0.000000,0.000000,0.000000,0.000000,0.000000,1768316587.644600,0.000000
200.000000,8130.804674,11141.092913,-17640.086131,-11996.270656,-7966.295834,-9797.641313,-2201.199794,208.452369,6521.859052,8308.031655,1304.827786,41.037803,7936.344497,11779.078755,-2199.791634,-839.442115,0.006094,-0.018875,1.009000,192.000000,0.000000,32.000000,127.500000,56.000000,15.500000,64.000000,0.000000,0.000000,0.000000,1768316587.644626,0.000000
202.000000,8085.184763,11110.023988,-17721.558240,-12042.203491,-8003.913820,-9847.910386,-2248.227864,146.739202,6373.018786,8339.413505,1412.071456,156.104583,7970.229741,11861.109657,-2099.678171,-821.426609,0.006094,-0.018875,1.009000,192.000000,0.000000,0.000000,0.000000,0.000000,0.000000,0.000000,0.000000,0.000000,0.000000,1768316587.644653,0.000000
204.000000,8062.318929,11137.002544,-17772.699031,-12097.032320,-8045.756286,-9894.916105,-2283.610676,104.092074,6499.999046,8278.505001,1266.472193,-6.772579,7918.172529,11747.383982,-2229.318288,-812.597670,0.006094,-0.018875,1.009000,192.000000,0.000000,0.000000,0.000000,0.000000,0.000000,0.000000,0.000000,0.000000,0.000000,1768316587.644672,0.000000
206.000000,8158.140857,11120.261087,-17608.257247,-11960.954900,-7949.867302,-9764.851304,-2178.646884,234.983889,6441.750400,8339.525263,1387.372778,131.450609,7965.535875,11835.382800,-2122.253433,-829.853216,0.006094,-0.018875,1.009000,192.000000,0.000000,0.000000,0.000000,0.000000,0.000000,0.000000,0.000000,0.000000,0.000000,1768316587.644695,0.000000
208.000000,8043.498760,11133.448617,-17812.306322,-12119.585230,-8065.917559,-9913.937439,-2304.844833,81.583867,6429.233423,8311.809100,1344.010394,73.201963,7945.151084,11809.119500,-2172.991892,-818.275013,0.006094,-0.018875,1.009000,192.000000,0.000000,0.000000,0.000000,0.000000,0.000000,0.000000,0.000000,0.000000,0.000000,1768316587.644722,0.000000
210.000000,8132.704572,11135.728495,-17642.164843,-11996.784746,-7967.860456,-9800.077653,-2199.434006,206.932450,6520.249727,8305.483556,1302.480853,36.723916,7932.075314,11773.200246,-2203.233803,-831.753115,0.007047,-0.019438,1.007500,192.000000,0.000000,32.000000,127.500000,48.000000,15.500000,56.000000,0.000000,0.000000,0.000000,1768316587.644764,0.000000
212.000000,8097.858202,11129.358247,-17714.204516,-12037.509625,-7998.705864,-9842.993002,-2241.902321,156.417508,6377.422080,8346.856635,1416.318287,159.859676,7968.910988,11858.829779,-2099.208784,-829.115609,0.007047,-0.019438,1.007500,192.000000,0.000000,0.000000,0.000000,0.000000,0.000000,0.000000,0.000000,0.000000,0.000000,1768316587.644789,0.000000
214.000000,8062.900074,11140.332954,-17769.368621,-12091.824364,-8031.674687,-9889.909314,-2277.642760,110.864652,6505.542279,8288.295065,1275.323483,2.861023,7911.645819,11757.129342,-2228.334812,-821.873644,0.007047,-0.019438,1.007500,192.000000,0.000000,0.000000,0.000000,0.000000,0.000000,0.000000,0.000000,0.000000,0.000000,1768316587.644818,0.000000
216.000000,8155.525703,11122.853890,-17611.252381,-11953.534121,-7941.239529,-9763.443144,-2174.891791,234.045116,6440.163426,8345.113199,1391.060816,137.373821,7978.008148,11851.163131,-2123.259261,-833.429496,0.007047,-0.019438,1.007500,192.000000,0.000000,0.000000,0.000000,0.000000,0.000000,0.000000,0.000000,0.000000,0.000000,1768316587.644843,0.000000
218.000000,8041.643565,11127.637163,-17818.318941,-12113.103224,-8065.939911,-9914.607992,-2305.604792,78.007588,6420.851519,8309.529222,1340.121191,73.939571,7937.707953,11813.209869,-2171.717843,-818.520882,0.007047,-0.019438,1.007500,192.000000,0.000000,0.000000,0.000000,0.000000,0.000000,0.000000,0.000000,0.000000,0.000000,1768316587.644864,0.000000
220.000000,8141.041772,11142.568128,-17647.059875,-11988.179325,-7971.570846,-9792.411005,-2199.948096,210.039343,6514.840605,8310.177423,1299.262202,44.435268,7929.482511,11782.945607,-2203.747893,-831.306080,0.007047,-0.019438,1.007500,192.000000,0.000000,0.000000,0.000000,0.000000,0.000000,0.000000,0.000000,0.000000,0.000000,1768316587.644884,0.000000
222.000000,8102.596772,11124.016181,-17719.926562,-12034.447436,-8009.881736,-9838.366191,-2244.003385,157.289226,6381.087766,8356.467886,1417.301764,170.812031,7976.823506,11875.817105,-2101.309848,-830.814341,0.004000,-0.022000,1.010000,192.000000,0.000000,16.000000,127.500000,40.000000,15.500000,72.000000,0.000000,0.000000,0.000000,1768316587.644907,0.000000
224.000000,8075.506458,11155.040402,-17770.374450,-12091.578494,-8043.342297,-9891.652750,-2278.313312,114.463283,6506.726921,8294.620609,1272.887143,7.420779,7908.918906,11753.038973,-2231.486408,-818.185606,0.004000,-0.022000,1.010000,192.000000,0.000000,0.000000,0.000000,0.000000,0.000000,0.000000,0.000000,0.000000,0.000000,1768316587.644932,0.000000
226.000000,8163.125296,11139.751809,-17607.318474,-11955.456371,-7947.296852,-9762.303205,-2174.623570,240.705936,6440.431647,8352.645737,1391.865479,145.085173,7975.124773,11856.616957,-2122.454598,-837.519865,0.004000,-0.022000,1.010000,192.000000,0.000000,0.000000,0.000000,0.000000,0.000000,0.000000,0.000000,0.000000,0.000000,1768316587.644956,0.000000
228.000000,8041.397696,11139.058905,-17812.999226,-12116.008951,-8065.269359,-9907.410730,-2304.196632,82.299123,6421.544423,8320.593336,1344.837409,82.254420,7953.465933,11811.600543,-2165.906389,-818.275013,0.004000,-0.022000,1.010000,192.000000,0.000000,0.000000,0.000000,0.000000,0.000000,0.000000,0.000000,0.000000,0.000000,1768316587.644985,0.000000
230.000000,8143.120485,11141.361134,-17646.679896,-11991.979121,-7967.480477,-9793.461537,-2199.992800,207.155968,6518.595698,8317.821719,1300.692713,43.049460,7944.972270,11783.638511,-2204.016114,-830.680231,0.004000,-0.022000,1.010000,192.000000,0.000000,0.000000,0.000000,0.000000,0.000000,0.000000,0.000000,0.000000,0.000000,1768316587.645010,0.000000
232.000000,8106.150699,11133.381561,-17714.852716,-12032.547537,-8006.126643,-9828.956107,-2242.774039,159.256179,6388.173269,8359.261854,1420.118084,168.867429,7969.022747,11878.141687,-2105.266107,-823.952356,-0.002000,-0.022000,1.010000,192.000000,127.500000,120.000000,127.500000,40.000000,15.500000,72.000000,0.000000,0.000000,0.000000,1768316587.645056,0.000000
234.000000,8058.832056,11152.089972,-17774.084839,-12092.181992,-8044.705754,-9881.214485,-2282.202516,110.194100,6505.609334,8299.739158,1274.988207,7.465483,7906.214345,11764.125438,-2232.693402,-811.345972,-0.002000,-0.022000,1.010000,192.000000,0.000000,0.000000,0.000000,0.000000,0.000000,0.000000,0.000000,0.000000,0.000000,1768316587.645084,0.000000
236.000000,8150.496560,11126.005486,-17615.275695,-11958.227987,-7946.469837,-9761.565597,-2179.675064,229.910043,6435.894243,8350.187045,1385.562287,141.061859,7987.306474,11851.721925,-2123.840406,-828.243891,-0.002000,-0.022000,1.010000,192.000000,0.000000,0.000000,0.000000,0.000000,0.000000,0.000000,0.000000,0.000000,0.000000,1768316587.645110,0.000000
238.000000,8033.172254,11130.788759,-17820.263543,-12117.305352,-8068.085679,-9916.105558,-2309.605755,70.519754,6416.917612,8311.831452,1332.901577,72.553763,7926.062694,11808.448947,-2165.884038,-805.445111,-0.002000,-0.022000,1.010000,192.000000,0.000000,0.000000,0.000000,0.000000,0.000000,0.000000,0.000000,0.000000,0.000000,1768316587.645138,0.000000
240.000000,8132.190482,11141.785817,-17648.937422,-11991.420328,-7972.151991,-9786.823068,-2204.016114,199.936354,6511.711360,8307.003475,1294.657742,36.209826,7919.044247,11777.827058,-2205.021942,-818.319716,-0.002000,-0.022000,1.010000,192.000000,0.000000,0.000000,0.000000,0.000000,0.000000,0.000000,0.000000,0.000000,0.000000,1768316587.645164,0.000000
242.000000,8101.210964,11127.056018,-17716.864373,-12034.067456,-8005.679608,-9830.811302,-2245.478600,151.053089,6379.545495,8351.192874,1414.172520,161.267836,7969.067451,11872.441992,-2102.025104,-817.358591,-0.002000,-0.024000,1.004000,192.000000,127.500000,120.000000,127.500000,32.000000,15.500000,48.000000,0.000000,0.000000,0.000000,1768316587.645212,0.000000
244.000000,8065.023490,11143.395143,-17774.665984,-12093.724262,-8040.682440,-9891.608046,-2282.940123,103.488577,6505.184651,8293.145394,1271.367225,-2.704561,7912.852813,11746.646374,-2231.575815,-813.424684,-0.002000,-0.024000,1.004000,192.000000,0.000000,0.000000,0.000000,0.000000,0.000000,0.000000,0.000000,0.000000,0.000000,1768316587.645240,0.000000
246.000000,8164.734622,11129.849986,-17606.625570,-11955.389316,-7933.952860,-9755.843551,-2174.981198,237.174360,6441.817456,8349.605900,1387.864517,138.044374,7969.425079,11850.514931,-2125.337973,-828.601519,-0.002000,-0.024000,1.004000,192.000000,0.000000,0.000000,0.000000,0.000000,0.000000,0.000000,0.000000,0.000000,0.000000,1768316587.645268,0.000000
248.000000,8047.522074,11138.567166,-17812.485136,-12118.467643,-8067.191609,-9915.122082,-2307.057656,78.812251,6428.585223,8318.469920,1345.977348,81.472109,7937.350325,11810.795881,-2170.175573,-817.693867,-0.002000,-0.024000,1.004000,192.000000,0.000000,0.000000,0.000000,0.000000,0.000000,0.000000,0.000000,0.000000,0.000000,1768316587.645296,0.000000
250.000000,8137.085514,11147.597271,-17642.611878,-11992.292046,-7966.027613,-9797.216630,-2200.909221,207.155968,6517.656924,8310.423292,1302.123225,41.931873,7934.712819,11773.200246,-2203.546727,-828.042725,-0.002000,-0.024000,1.004000,192.000000,0.000000,0.000000,0.000000,0.000000,0.000000,0.000000,0.000000,0.000000,0.000000,1768316587.645326,0.000000
252.000000,8103.110862,11133.470968,-17715.076234,-12034.156863,-8002.729178,-9837.852101,-2243.422239,155.545790,6386.116908,8354.992670,1417.569985,165.224095,7993.699073,11862.964852,-2099.991095,-825.807551,-0.002000,-0.024000,1.004000,192.000000,0.000000,0.000000,127.500000,40.000000,15.500000,48.000000,0.000000,0.000000,0.000000,1768316587.645354,0.000000
254.000000,8070.030280,11152.447599,-17768.295737,-12092.606675,-8038.156693,-9890.602218,-2280.816708,112.563385,6511.979581,8294.240629,1273.892972,4.626811,7925.481549,11752.614290,-2229.854730,-815.615155,-0.002000,-0.024000,1.004000,192.000000,0.000000,0.000000,0.000000,0.000000,0.000000,0.000000,0.000000,0.000000,0.000000,1768316587.645382,0.000000
0.000000,8165.069898,11134.409742,-17603.809250,-11955.299909,-7940.099590,-9757.475228,-2175.718805,241.912930,6445.349031,8350.075287,1392.983066,142.693537,7959.478552,11843.787055,-2120.688810,-830.881397,-0.002000,-0.024000,1.004000,192.000000,0.000000,0.000000,0.000000,0.000000,0.000000,0.000000,0.000000,0.000000,0.000000,1768316587.645410,0.000000
2.000000,8044.661050,11137.159006,-17809.266485,-12117.618277,-8063.414164,-9917.938401,-2304.151929,83.617876,6427.937022,8323.163786,1348.011356,80.890963,7936.478607,11812.069930,-2172.030767,-819.392600,-0.002000,-0.024000,1.004000,192.000000,0.000000,0.000000,0.000000,0.000000,0.000000,0.000000,0.000000,0.000000,0.000000,1768316587.645440,0.000000
4.000000,8133.844511,11141.025858,-17643.841224,-11995.734214,-7974.051890,-9799.764729,-2199.724579,204.227889,6519.065084,8311.406769,1298.591649,38.668518,7939.093761,11771.970901,-2203.032637,-831.328432,-0.002000,-0.024000,1.004000,192.000000,0.000000,0.000000,0.000000,0.000000,0.000000,0.000000,0.000000,0.000000,0.000000,1768316587.645468,0.000000
6.000000,8090.280961,11123.658553,-17714.025702,-12035.028581,-8008.004189,-9841.227214,-2241.544693,152.081269,6378.025577,8347.996574,1412.742008,159.747918,7967.212256,11860.282643,-2099.544060,-831.753115,0.002000,-0.016000,1.010000,192.000000,0.000000,8.000000,127.500000,64.000000,15.500000,72.000000,0.000000,0.000000,0.000000,1768316587.645496,0.000000
8.000000,8059.256740,11139.170663,-17773.168418,-12091.332625,-8046.024507,-9896.659541,-2280.034397,104.360295,6496.690988,8281.567190,1265.555771,-5.744398,7900.648761,11740.700810,-2232.246367,-818.990269,0.002000,-0.016000,1.010000,192.000000,0.000000,0.000000,0.000000,0.000000,0.000000,0.000000,0.000000,0.000000,0.000000,1768316587.645524,0.000000
10.000000,8159.124334,11125.737265,-17608.056081,-11951.567167,-7943.340593,-9761.453839,-2173.550686,233.329860,6435.000173,8343.973260,1384.936438,135.809199,7971.794363,11843.563538,-2124.779180,-841.096144,0.002000,-0.016000,1.010000,192.000000,0.000000,0.000000,0.000000,0.000000,0.000000,0.000000,0.000000,0.000000,0.000000,1768316587.645554,0.000000
12.000000,8044.459885,11129.984096,-17813.178040,-12112.410320,-8065.939911,-9916.463186,-2303.861356,77.247629,6420.896223,8319.319286,1343.161028,77.314684,7936.344497,11813.299276,-2173.237762,-826.299289,0.002000,-0.016000,1.010000,192.000000,0.000000,0.000000,0.000000,0.000000,0.000000,0.000000,0.000000,0.000000,0.000000,1768316587.645582,0.000000
14.000000,8123.473301,11131.012277,-17647.529262,-11995.398938,-7981.159744,-9808.727778,-2202.183271,199.109340,6512.426616,8307.472862,1293.517803,33.214692,7923.939279,11766.204150,-2207.458282,-815.615155,0.002000,-0.016000,1.010000,192.000000,0.000000,0.000000,0.000000,0.000000,0.000000,0.000000,0.000000,0.000000,0.000000,1768316587.645610,0.000000
16.000000,8099.556935,11124.507919,-17711.589362,-12035.810892,-8012.429835,-9847.217482,-2240.449457,154.316444,6376.483306,8351.394040,1412.876119,158.339758,7973.627207,11864.015384,-2104.752017,-820.465484,0.004000,-0.018000,1.010000,192.000000,0.000000,16.000000,127.500000,56.000000,15.500000,72.000000,0.000000,0.000000,0.000000,1768316587.645638,0.000000
18.000000,8071.214923,11150.011259,-17768.742772,-12095.892381,-8045.622175,-9901.733387,-2279.095623,109.054161,6505.408168,8293.860649,1272.864791,-1.028180,7925.526252,11752.837807,-2230.391172,-818.386771,0.004000,-0.018000,1.010000,192.000000,0.000000,0.000000,0.000000,0.000000,0.000000,0.000000,0.000000,0.000000,0.000000,1768316587.645672,0.000000
20.000000,8160.219569,11144.266861,-17602.490497,-11955.702240,-7943.228834,-9767.578217,-2173.483631,241.957634,6446.824246,8353.986842,1394.212412,140.748935,7968.531009,11844.211739,-2123.482778,-839.486818,0.004000,-0.018000,1.010000,192.000000,0.000000,0.000000,0.000000,0.000000,0.000000,0.000000,0.000000,0.000000,0.000000,1768316587.645700,0.000000
22.000000,8044.683402,11135.996716,-17810.965217,-12117.283001,-8066.074022,-9917.938401,-2305.135406,81.561516,6421.455016,8321.710923,1346.960824,81.963847,7938.624375,11806.727863,-2167.694529,-819.727876,0.004000,-0.018000,1.010000,192.000000,0.000000,0.000000,0.000000,0.000000,0.000000,0.000000,0.000000,0.000000,0.000000,1768316587.645721,0.000000
24.000000,8145.154493,11148.893672,-17640.577869,-11991.755604,-7963.613625,-9800.994074,-2199.255192,209.234680,6518.595698,8315.340676,1301.899708,42.200094,7929.661325,11779.615197,-2202.965582,-828.556815,0.004000,-0.018000,1.010000,192.000000,0.000000,0.000000,0.000000,0.000000,0.000000,0.000000,0.000000,0.000000,0.000000,1768316587.645738,0.000000
26.000000,8105.256630,11129.827634,-17713.153984,-12033.173386,-8001.388073,-9842.836540,-2241.678803,156.976301,6384.731100,8361.720545,1419.179311,166.140517,7976.085898,11871.302053,-2096.995961,-828.556815,0.004000,-0.020000,1.016000,192.000000,0.000000,16.000000,127.500000,48.000000,15.500000,96.000000,0.000000,0.000000,0.000000,1768316587.645756,0.000000
28.000000,8074.433574,11157.655556,-17771.670851,-12091.936122,-8041.934138,-9887.696491,-2279.699120,108.741237,6513.946535,8302.376664,1272.194239,1.743436,7932.231776,11754.380078,-2229.966489,-824.555853,0.004000,-0.020000,1.016000,192.000000,0.000000,0.000000,0.000000,0.000000,0.000000,0.000000,0.000000,0.000000,0.000000,1768316587.645773,0.000000
30.000000,8157.738526,11129.246489,-17610.246552,-11955.545778,-7943.742924,-9760.448010,-2176.076433,229.977099,6443.829113,8357.987804,1385.092900,135.228054,7989.139317,11857.309861,-2120.286479,-834.167103,0.004000,-0.020000,1.016000,192.000000,0.000000,0.000000,0.000000,0.000000,0.000000,0.000000,0.000000,0.000000,0.000000,1768316587.645791,0.000000
32.000000,8037.329678,11128.754750,-17816.083767,-12117.774739,-8059.949644,-9917.938401,-2307.191766,68.463393,6417.677571,8316.681780,1333.326260,68.463393,7929.102532,11807.756043,-2167.649826,-813.715257,0.004000,-0.020000,1.016000,192.000000,0.000000,0.000000,0.000000,0.000000,0.000000,0.000000,0.000000,0.000000,0.000000,1768316587.645808,0.000000
34.000000,8138.627784,11146.166759,-17641.628401,-11990.570961,-7959.299738,-9793.215667,-2197.958791,200.048113,6518.238070,8312.636115,1291.282629,34.019355,7934.042267,11780.218694,-2197.444701,-833.965937,0.004000,-0.020000,1.016000,192.000000,0.000000,0.000000,0.000000,0.000000,0.000000,0.000000,0.000000,0.000000,0.000000,1768316587.645825,0.000000
36.000000,8107.402397,11121.758654,-17713.064577,-12031.921689,-8000.873983,-9835.326354,-2240.248292,146.694499,6388.195621,8358.859522,1412.071456,160.485525,7992.290913,11872.889027,-2094.179642,-840.894978,0.004000,-0.020000,1.016000,192.000000,0.000000,0.000000,127.500000,40.000000,15.500000,80.000000,0.000000,0.000000,0.000000,1768316587.645843,0.000000
38.000000,8058.206208,11142.881053,-17772.922548,-12092.718433,-8046.449190,-9897.173631,-2279.989693,99.688780,6507.509232,8290.999626,1262.158306,-9.566547,7903.532136,11753.307194,-2231.955794,-813.312925,0.004000,-0.020000,1.016000,192.000000,0.000000,0.000000,0.000000,0.000000,0.000000,0.000000,0.000000,0.000000,0.000000,1768316587.645858,0.000000
40.000000,8162.879427,11132.532195,-17605.060948,-11957.020993,-7944.547587,-9765.454801,-2172.723672,232.547549,6451.384002,8352.846903,1386.791633,130.802409,7969.380375,11846.044582,-2125.539139,-829.406182,0.004000,-0.020000,1.016000,192.000000,0.000000,0.000000,0.000000,0.000000,0.000000,0.000000,0.000000,0.000000,0.000000,1768316587.645873,0.000000
42.000000,8051.701850,11141.584652,-17808.283008,-12119.898155,-8062.520094,-9917.066683,-2301.112092,79.415748,6428.272298,8324.415484,1343.652766,73.313722,7940.524273,11806.817270,-2168.342730,-819.437303,0.004000,-0.020000,1.016000,192.000000,0.000000,0.000000,0.000000,0.000000,0.000000,0.000000,0.000000,0.000000,0.000000,1768316587.645889,0.000000
44.000000,8144.998031,11144.110399,-17642.030733,-11995.711863,-7965.625282,-9800.792909,-2196.260058,208.273555,6529.749218,8318.984010,1299.999809,37.953262,7937.529139,11775.457773,-2201.378608,-831.171969,0.004000,-0.020000,1.016000,192.000000,0.000000,0.000000,0.000000,0.000000,0.000000,0.000000,0.000000,0.000000,0.000000,1768316588.124376,0.000000
46.000000,8098.014664,11126.184300,-17713.802184,-12036.749665,-8007.065416,-9842.724781,-2238.080172,156.149287,6388.262676,8359.015984,1418.039372,162.251313,7974.409518,11867.859884,-2100.661647,-831.350783,0.000000,-0.023000,1.011000,192.000000,127.500000,112.000000,127.500000,24.000000,15.500000,56.000000,0.000000,0.000000,0.000000,1768316588.124437,0.000000
48.000000,8069.113859,11149.184245,-17772.386107,-12094.707739,-8043.744629,-9895.094919,-2276.279304,109.702362,6508.671523,8297.436928,1273.669454,-0.692904,7907.913078,11738.778560,-2228.804198,-814.743437,0.000000,-0.023000,1.011000,192.000000,0.000000,0.000000,0.000000,0.000000,0.000000,0.000000,0.000000,0.000000,0.000000,1768316588.124486,0.000000
50.000000,8161.985357,11137.159006,-17611.677064,-11954.517597,-7942.021840,-9762.973757,-2170.555552,238.113134,6448.187703,8356.579644,1389.183270,139.385478,7972.286102,11853.979451,-2123.169854,-834.211807,0.000000,-0.023000,1.011000,192.000000,0.000000,0.000000,0.000000,0.000000,0.000000,0.000000,0.000000,0.000000,0.000000,1768316588.124544,0.000000
52.000000,8052.573568,11145.473855,-17816.150822,-12115.785434,-8074.075946,-9925.649753,-2300.821519,80.242763,6415.777673,8322.448530,1340.188246,76.085338,7946.961575,11808.918334,-2169.840296,-817.157426,0.000000,-0.023000,1.011000,192.000000,0.000000,0.000000,0.000000,0.000000,0.000000,0.000000,0.000000,0.000000,0.000000,1768316588.124592,0.000000
54.000000,8145.310956,11143.730419,-17644.288259,-11990.950941,-7972.822544,-9805.039740,-2194.561326,209.078218,6520.473244,8316.927650,1298.591649,36.925082,7945.933395,11773.580226,-2205.513681,-831.350783,0.000000,-0.023000,1.011000,192.000000,0.000000,0.000000,0.000000,0.000000,0.000000,0.000000,0.000000,0.000000,0.000000,1768316588.124636,0.000000
56.000000,8108.542336,11133.493320,-17711.187030,-12028.591279,-8005.344332,-9837.986212,-2234.794466,160.485525,6388.821469,8360.088868,1419.179311,162.094851,7972.219047,11872.553751,-2100.929868,-828.735629,-0.002000,-0.023500,1.015500,192.000000,127.500000,112.000000,127.500000,32.000000,15.500000,112.000000,0.000000,0.000000,0.000000,1768316588.124653,0.000000
58.000000,8071.505495,11152.782876,-17772.162589,-12087.711643,-8047.812646,-9892.300951,-2274.044129,110.104693,6508.783282,8303.807176,1275.099966,0.178814,7912.383427,11761.957319,-2230.257062,-818.409123,-0.002000,-0.023500,1.015500,192.000000,0.000000,0.000000,0.000000,0.000000,0.000000,0.000000,0.000000,0.000000,0.000000,1768316588.124671,0.000000
60.000000,8170.367261,11141.383486,-17606.804384,-11950.002545,-7942.312413,-9762.906702,-2168.208619,238.135485,6449.305290,8359.060688,1390.054988,135.451571,7981.226800,11852.861864,-2125.673249,-835.798780,-0.002000,-0.023500,1.015500,192.000000,0.000000,0.000000,0.000000,0.000000,0.000000,0.000000,0.000000,0.000000,0.000000,1768316588.124686,0.000000
62.000000,8050.003117,11141.607003,-17810.674645,-12112.745596,-8059.189684,-9918.340733,-2298.563993,78.409920,6425.120702,8325.041333,1344.971519,72.129079,7941.753619,11816.048541,-2168.163916,-817.671516,-0.002000,-0.023500,1.015500,192.000000,0.000000,0.000000,0.000000,0.000000,0.000000,0.000000,0.000000,0.000000,0.000000,1768316588.124704,0.000000
64.000000,8148.998994,11142.545777,-17640.443759,-11989.252208,-7963.032480,-9795.272028,-2193.175518,207.267726,6523.960116,8316.972353,1299.172795,34.868721,7924.051037,11771.367403,-2205.156053,-829.897920,-0.002000,-0.023500,1.015500,192.000000,0.000000,0.000000,0.000000,0.000000,0.000000,0.000000,0.000000,0.000000,0.000000,1768316588.124723,0.000000
66.000000,8109.592868,11127.704218,-17709.153021,-12033.106331,-8003.153861,-9840.020220,-2236.984937,156.082232,6390.967237,8364.134534,1419.760456,162.273665,7981.651483,11882.165001,-2098.940563,-835.239987,-0.002000,-0.023750,1.013750,192.000000,127.500000,120.000000,127.500000,32.000000,15.500000,80.000000,0.000000,0.000000,0.000000,1768316588.124740,0.000000
68.000000,8073.405394,11144.825655,-17769.972118,-12090.706776,-8045.510417,-9899.408805,-2276.860449,105.589641,6507.598639,8299.739158,1272.462460,-2.212823,7909.880031,11753.731877,-2229.988841,-817.179777,-0.002000,-0.023750,1.013750,192.000000,0.000000,0.000000,0.000000,0.000000,0.000000,0.000000,0.000000,0.000000,0.000000,1768316588.124757,0.000000
70.000000,8180.582008,11134.074466,-17604.926837,-11953.824693,-7941.463046,-9763.778420,-2170.421442,235.967366,6451.138133,8361.295862,1388.088034,136.993842,7978.969273,11848.860901,-2124.421552,-831.440190,-0.002000,-0.023750,1.013750,192.000000,0.000000,0.000000,0.000000,0.000000,0.000000,0.000000,0.000000,0.000000,0.000000,1768316588.124775,0.000000
72.000000,8045.890396,11136.935489,-17813.334502,-12118.177070,-8064.330586,-9921.805253,-2301.335609,75.861821,6429.345182,8325.331906,1341.641109,75.012454,7931.650630,11814.573325,-2171.449622,-817.358591,-0.002000,-0.023750,1.013750,192.000000,0.000000,0.000000,0.000000,0.000000,0.000000,0.000000,0.000000,0.000000,0.000000,1768316588.124792,0.000000
74.000000,8140.371220,11152.380544,-17640.264945,-11994.460165,-7963.032480,-9803.765691,-2195.164823,204.272593,6527.737561,8322.739103,1298.904574,36.768620,7923.581651,11778.229389,-2199.657524,-837.363403,-0.002000,-0.023750,1.013750,192.000000,0.000000,0.000000,0.000000,0.000000,0.000000,0.000000,0.000000,0.000000,0.000000,1768316588.124809,0.000000
76.000000,8108.095301,11135.437922,-17710.717644,-12034.782712,-8003.533841,-9841.853063,-2236.828475,153.198856,6388.933228,8364.022775,1417.771151,160.329063,7989.787518,11874.274835,-2096.168947,-834.860007,-0.002000,-0.023750,1.013750,192.000000,0.000000,0.000000,127.500000,48.000000,15.500000,80.000000,0.000000,0.000000,0.000000,1768316588.124825,0.000000
78.000000,8074.366519,11149.452466,-17769.882711,-12094.260704,-8038.693135,-9899.654674,-2277.173373,104.203833,6510.705532,8299.627399,1269.132050,-4.649163,7916.116168,11759.520979,-2227.619556,-819.996097,-0.002000,-0.023750,1.013750,192.000000,0.000000,0.000000,0.000000,0.000000,0.000000,0.000000,0.000000,0.000000,0.000000,1768316588.124842,0.000000
80.000000,8173.854133,11136.644916,-17605.150355,-11954.517597,-7942.602985,-9770.841571,-2171.047291,231.899349,6451.585168,8359.463019,1386.188136,133.238749,7976.801154,11850.112599,-2119.101837,-835.284690,-0.002000,-0.023750,1.013750,192.000000,0.000000,0.000000,0.000000,0.000000,0.000000,0.000000,0.000000,0.000000,0.000000,1768316588.124858,0.000000
82.000000,8051.076001,11131.235794,-17815.346159,-12112.298562,-8063.682385,-9915.390303,-2302.006161,71.413824,6427.579394,8325.577775,1339.070659,71.458527,7934.355192,11806.996084,-2166.085203,-809.669591,-0.002000,-0.023750,1.013750,192.000000,0.000000,0.000000,0.000000,0.000000,0.000000,0.000000,0.000000,0.000000,0.000000,1768316588.124880,0.000000
84.000000,8141.578214,11139.438884,-17646.925765,-11985.385357,-7959.456201,-9798.401272,-2194.695436,200.316334,6526.597622,8320.123949,1294.523632,32.633547,7925.883880,11787.773584,-2205.938364,-824.131170,-0.002000,-0.023750,1.013750,192.000000,0.000000,0.000000,0.000000,0.000000,0.000000,0.000000,0.000000,0.000000,0.000000,1768316588.124895,0.000000
86.000000,8102.842641,11122.630372,-17715.255048,-12027.518395,-7999.957561,-9835.393409,-2236.716716,148.437935,6390.877830,8362.860484,1413.591375,158.898551,7981.316207,11871.950253,-2100.371075,-821.538367,-0.002000,-0.019875,1.010875,192.000000,127.500000,120.000000,127.500000,64.000000,15.500000,64.000000,0.000000,0.000000,0.000000,1768316588.124907,0.000000
88.000000,8075.372347,11155.308623,-17771.469685,-12088.717471,-8041.308289,-9891.093956,-2275.564048,103.265059,6518.506291,8306.645847,1267.746242,-1.408160,7915.400912,11760.705621,-2231.508759,-816.397466,-0.002000,-0.019875,1.010875,192.000000,0.000000,0.000000,0.000000,0.000000,0.000000,0.000000,0.000000,0.000000,0.000000,1768316588.124922,0.000000
90.000000,8176.737508,11142.210501,-17602.512849,-11947.365039,-7934.221081,-9762.414964,-2166.621645,239.186017,6459.698851,8367.241426,1389.250325,138.267891,7979.326901,11856.438143,-2125.874415,-832.736591,-0.002000,-0.019875,1.010875,192.000000,0.000000,0.000000,0.000000,0.000000,0.000000,0.000000,0.000000,0.000000,0.000000,1768316588.124951,0.000000
92.000000,8066.051670,11140.735285,-17810.451127,-12110.242201,-8054.853446,-9917.267849,-2297.155833,81.941495,6438.487046,8337.893586,1348.704260,84.981332,7951.320166,11822.932878,-2166.085203,-814.586975,-0.002000,-0.019875,1.010875,192.000000,0.000000,0.000000,0.000000,0.000000,0.000000,0.000000,0.000000,0.000000,0.000000,1768316588.124973,0.000000
94.000000,8149.982470,11150.055963,-17641.561346,-11988.358139,-7962.518390,-9796.479022,-2194.069587,205.032552,6532.319669,8323.320249,1298.077559,39.450829,7937.417381,11783.772622,-2198.986971,-828.869740,-0.002000,-0.019875,1.010875,192.000000,0.000000,0.000000,0.000000,0.000000,0.000000,0.000000,0.000000,0.000000,0.000000,1768316588.124988,0.000000
96.000000,8112.811519,11132.554547,-17708.728338,-12028.904203,-7992.425024,-9835.706334,-2234.705059,157.132764,6395.482289,8367.308482,1417.838206,163.301845,7989.787518,11877.091155,-2097.957086,-820.934870,0.000000,-0.020937,1.009437,192.000000,0.000000,8.000000,127.500000,40.000000,15.500000,64.000000,0.000000,0.000000,0.000000,1768316588.125001,0.000000
98.000000,8079.775641,11158.035536,-17768.586310,-12092.450213,-8031.719390,-9892.815041,-2275.184068,110.797597,6523.088398,8307.361103,1275.770518,2.816320,7934.802226,11764.818342,-2224.289146,-810.608364,0.000000,-0.020937,1.009437,192.000000,0.000000,0.000000,0.000000,0.000000,0.000000,0.000000,0.000000,0.000000,0.000000,1768316588.125018,0.000000
100.000000,8178.056261,11145.764428,-17604.122174,-11952.997679,-7936.568014,-9760.537417,-2169.214448,239.633052,6459.296520,8363.329871,1392.580735,139.184313,7977.739927,11850.224358,-2118.878319,-829.272071,0.000000,-0.020937,1.009437,192.000000,0.000000,0.000000,0.000000,0.000000,0.000000,0.000000,0.000000,0.000000,0.000000,1768316588.125049,0.000000
102.000000,8060.955472,11152.738172,-17813.982703,-12113.550259,-8058.183856,-9917.759587,-2299.681580,79.885135,6433.144979,8331.769208,1346.916121,77.493498,7945.486360,11820.988276,-2162.598331,-813.737609,0.000000,-0.020937,1.009437,192.000000,0.000000,0.000000,0.000000,0.000000,0.000000,0.000000,0.000000,0.000000,0.000000,1768316588.125062,0.000000
104.000000,8146.674412,11150.838274,-17648.803311,-11988.693415,-7961.445506,-9795.540249,-2195.120119,204.160834,6527.670506,8322.001496,1297.362303,35.405163,7937.931471,11782.945607,-2202.876175,-826.120475,0.000000,-0.020937,1.009437,192.000000,0.000000,0.000000,0.000000,0.000000,0.000000,0.000000,0.000000,0.000000,0.000000,1768316588.125079,0.000000
106.000000,8110.062255,11133.761541,-17714.249219,-12028.412465,-8002.997399,-9830.006639,-2234.995632,152.282435,6391.011940,8362.838133,1413.479616,161.625464,7972.219047,11874.520704,-2102.069807,-828.065077,0.000000,-0.020937,1.009437,192.000000,0.000000,0.000000,0.000000,0.000000,0.000000,0.000000,0.000000,0.000000,0.000000,1768316588.125094,0.000000
