Sample_index,EXG Channel 0,EXG Channel 1,EXG Channel 2,EXG Channel 3,EXG Channel 4,EXG Channel 5,EXG Channel 6,EXG Channel 7,EXG Channel 8,EXG Channel 9,EXG Channel 10,EXG Channel 11,EXG Channel 12,EXG Channel 13,EXG Channel 14,EXG Channel 15,Accel Channel 0,Accel Channel 1,Accel Channel 2,Not Used,Digital Channel 0 (D11),Digital Channel 1 (D12),Digital Channel 2 (D13),Digital Channel 3 (D17),Not Used,Digital Channel 4 (D18),Analog Channel 0,Analog Channel 1,Analog Channel 2,Timestamp,Marker Channel
90.000000,15703.151012,14497.296750,4914.142777,-1761.451574,6201.849127,-10201.269114,749.833971,-18080.460200,12113.036169,11450.374001,-8681.596360,1375.034615,21388.250159,12822.346428,-46.335166,4741.721420,0.008000,-0.018000,1.010000,192.000000,0.000000,0.000000,0.000000,0.000000,0.000000,0.000000,0.000000,0.000000,0.000000,1769525213.200183,101.000000
92.000000,15726.106253,14522.308352,4978.560505,-1690.529488,6226.950136,-10164.187570,809.960164,-18004.508973,12192.653083,11457.213635,-8705.244506,1357.287330,21381.410525,12818.636038,-76.331207,4719.794359,0.008000,-0.018000,1.010000,192.000000,0.000000,0.000000,0.000000,0.000000,0.000000,0.000000,0.000000,0.000000,0.000000,1769525213.200296,0.000000
94.000000,15710.594143,14492.960512,4948.542112,-1716.681029,6198.697531,-10182.761870,783.495698,-18040.674095,12067.282148,11468.747135,-8639.552729,1403.130758,21402.711737,12854.108257,-5.207956,4763.514371,0.006000,-0.024000,1.012000,192.000000,0.000000,24.000000,127.500000,32.000000,15.500000,80.000000,0.000000,0.000000,0.000000,1769525213.200383,0.000000
96.000000,15734.041123,14520.073178,4925.475112,-1746.252387,6215.327229,-10200.822079,757.232399,-18071.698317,12176.157496,11442.550891,-8730.233756,1341.797571,21390.954720,12803.548611,-82.589696,4719.503787,0.006000,-0.024000,1.012000,192.000000,0.000000,0.000000,0.000000,0.000000,0.000000,0.000000,0.000000,0.000000,0.000000,1769525213.200470,0.000000
98.000000,15720.585373,14523.649457,4996.352493,-1679.688892,6218.523528,-10160.410125,820.554891,-17986.761688,12121.887460,11482.292292,-8650.683898,1398.548651,21403.404642,12858.690364,-14.640393,4757.188828,0.006000,-0.024000,1.012000,192.000000,0.000000,0.000000,0.000000,0.000000,0.000000,0.000000,0.000000,0.000000,0.000000,1769525213.200557,0.000000
100.000000,15731.962410,14520.699027,4919.328382,-1754.947216,6203.503156,-10183.164201,751.376242,-18075.766334,12118.244126,11467.316624,-8672.432145,1383.662389,21402.130592,12836.919765,-42.736535,4739.598005,0.006000,-0.024000,1.012000,192.000000,0.000000,0.000000,0.000000,0.000000,0.000000,0.000000,0.000000,0.000000,0.000000,1769525213.200644,0.000000
102.000000,15752.973050,14536.859338,4980.907438,-1690.395378,6223.575023,-10159.806628,810.742475,-17997.646987,12195.156478,11469.060060,-8705.311561,1362.048252,21388.183104,12824.693361,-73.648998,4722.655382,0.006000,-0.024000,1.012000,192.000000,0.000000,0.000000,0.000000,0.000000,0.000000,0.000000,0.000000,0.000000,0.000000,1769525213.200705,0.000000
104.000000,15710.795308,14506.282151,4950.665528,-1716.010477,6201.737368,-10179.207942,784.278009,-18033.990924,12076.871047,11482.426403,-8635.328249,1416.161825,21418.827345,12869.977995,-9.857119,4767.515334,0.010000,-0.022000,1.008000,192.000000,0.000000,40.000000,127.500000,40.000000,15.500000,64.000000,0.000000,0.000000,0.000000,1769525213.200728,0.000000
106.000000,15728.900221,14519.782605,4921.652963,-1745.984166,6222.837415,-10197.491669,757.277102,-18068.502017,12180.516086,11449.569339,-8726.478663,1345.373851,21363.797350,12808.421291,-89.988123,4723.817673,0.010000,-0.022000,1.008000,192.000000,0.000000,0.000000,0.000000,0.000000,0.000000,0.000000,0.000000,0.000000,0.000000,1769525213.200752,0.000000
108.000000,15720.831242,14515.200498,4989.557563,-1681.342921,6216.087188,-10158.599634,817.135074,-17990.896760,12111.203326,11479.252455,-8651.577968,1396.358180,21404.164601,12851.515454,-16.629698,4757.434697,0.010000,-0.022000,1.008000,192.000000,0.000000,0.000000,0.000000,0.000000,0.000000,0.000000,0.000000,0.000000,0.000000,1769525213.200776,0.000000
110.000000,15732.789425,14507.064463,4915.327420,-1757.875294,6207.168842,-10195.614123,746.950596,-18081.980119,12116.366579,11465.886112,-8678.154192,1378.141508,21387.221979,12840.183120,-42.736535,4744.917720,0.010000,-0.022000,1.008000,192.000000,0.000000,0.000000,0.000000,0.000000,0.000000,0.000000,0.000000,0.000000,0.000000,1769525213.200799,0.000000
112.000000,15750.648469,14544.637745,4979.208705,-1695.916259,6232.582776,-10177.486858,807.970859,-18000.753880,12191.133164,11470.155295,-8711.771215,1355.968577,21384.383307,12827.755550,-72.129079,4724.778798,0.010000,-0.022000,1.008000,192.000000,0.000000,0.000000,0.000000,0.000000,0.000000,0.000000,0.000000,0.000000,0.000000,1769525213.200823,0.000000
114.000000,15718.506660,14506.952704,4948.832685,-1721.576061,6192.126118,-10178.246817,784.054492,-18033.633296,12075.440535,11485.153316,-8635.350601,1415.983011,21425.063482,12865.127667,-12.606384,4766.308339,0.010000,-0.018000,1.007000,192.000000,0.000000,40.000000,127.500000,72.000000,15.500000,56.000000,0.000000,0.000000,0.000000,1769525213.200846,0.000000
116.000000,15729.190794,14524.252954,4919.395437,-1749.336928,6207.615877,-10195.211791,757.902951,-18067.496189,12180.046699,11454.017336,-8726.255146,1349.687737,21362.724467,12806.610800,-85.026036,4719.012048,0.010000,-0.018000,1.007000,192.000000,0.000000,0.000000,0.000000,0.000000,0.000000,0.000000,0.000000,0.000000,0.000000,1769525213.200870,0.000000
118.000000,15724.496928,14523.045960,4985.467194,-1681.052349,6207.660581,-10164.634605,819.370248,-17989.153324,12109.549297,11484.415708,-8653.053183,1398.034560,21389.948891,12854.488236,-24.832788,4761.659177,0.010000,-0.018000,1.007000,192.000000,0.000000,0.000000,0.000000,0.000000,0.000000,0.000000,0.000000,0.000000,0.000000,1769525213.200893,0.000000
120.000000,15713.589277,14511.020721,4908.957173,-1755.684823,6190.561496,-10200.710321,746.861189,-18083.432982,12113.863184,11461.683984,-8682.468078,1378.566191,21383.757458,12836.450378,-50.649053,4741.855531,0.010000,-0.018000,1.007000,192.000000,0.000000,0.000000,0.000000,0.000000,0.000000,0.000000,0.000000,0.000000,0.000000,1769525213.200916,0.000000
122.000000,15740.701943,14531.807844,4972.145554,-1689.478956,6218.389418,-10167.696794,806.026257,-18006.878258,12193.614208,11462.645109,-8715.369846,1353.331072,21386.886702,12823.642829,-82.589696,4725.315240,0.010000,-0.018000,1.007000,192.000000,0.000000,0.000000,0.000000,0.000000,0.000000,0.000000,0.000000,0.000000,0.000000,1769525213.200940,0.000000
124.000000,15721.188870,14513.188841,4951.246673,-1709.997858,6198.518717,-10171.787163,786.133204,-18032.448653,12076.133439,11484.058080,-8633.361296,1411.132683,21387.467848,12865.842922,-13.723971,4766.442450,0.009000,-0.020000,1.005500,192.000000,0.000000,32.000000,127.500000,40.000000,15.500000,48.000000,0.000000,0.000000,0.000000,1769525213.200963,0.000000
126.000000,15752.570719,14536.188786,4923.441103,-1739.569216,6215.237822,-10178.068003,760.853381,-18061.751790,12181.208990,11461.594577,-8720.868375,1352.012319,21365.294917,12815.775015,-90.122234,4723.772970,0.009000,-0.020000,1.005500,192.000000,0.000000,0.000000,0.000000,0.000000,0.000000,0.000000,0.000000,0.000000,0.000000,1769525213.200987,0.000000
128.000000,15730.420140,14525.147024,4987.702368,-1678.236029,6213.092054,-10160.141904,820.711353,-17981.844304,12121.730998,11489.109574,-8645.274776,1411.311497,21407.271493,12866.669937,-27.559701,4757.211179,0.009000,-0.020000,1.005500,192.000000,0.000000,0.000000,0.000000,0.000000,0.000000,0.000000,0.000000,0.000000,0.000000,1769525213.201010,0.000000
130.000000,15737.773864,14518.888535,4915.953269,-1756.265969,6202.452624,-10205.046559,753.365547,-18069.977232,12122.558012,11469.194170,-8672.253331,1389.406787,21388.853656,12848.274451,-41.954224,4743.129580,0.009000,-0.020000,1.005500,192.000000,0.000000,0.000000,0.000000,0.000000,0.000000,0.000000,0.000000,0.000000,0.000000,1769525213.201033,0.000000
132.000000,15748.480350,14536.568765,4977.085290,-1692.295276,6222.457435,-10168.948492,809.893109,-17997.714042,12197.101080,11468.858894,-8704.641009,1365.512772,21392.228769,12825.296858,-76.264152,4726.969269,0.009000,-0.020000,1.005500,192.000000,0.000000,0.000000,0.000000,0.000000,0.000000,0.000000,0.000000,0.000000,0.000000,1769525213.201056,0.000000
134.000000,15721.702960,14510.730149,4951.984281,-1715.585794,6195.903563,-10178.000948,785.999094,-18027.218345,12077.429840,11479.364214,-8632.444874,1416.564157,21408.254970,12861.707850,-16.652050,4766.755374,0.008500,-0.021000,1.005750,192.000000,0.000000,32.000000,127.500000,40.000000,15.500000,56.000000,0.000000,0.000000,0.000000,1769525213.201080,0.000000
136.000000,15733.437626,14529.572669,4924.357524,-1748.532265,6210.521604,-10201.045597,756.852419,-18065.886863,12189.412080,11454.173798,-8719.594326,1353.286368,21367.395981,12815.573849,-85.227202,4714.765217,0.008500,-0.021000,1.005750,192.000000,0.000000,0.000000,0.000000,0.000000,0.000000,0.000000,0.000000,0.000000,0.000000,1769525213.201094,0.000000
138.000000,15728.184966,14524.163547,4989.602267,-1680.158279,6206.878270,-10165.416916,818.565585,-17983.118353,12122.960344,11482.314644,-8647.688764,1401.543784,21405.639816,12859.271510,-22.351744,4753.746659,0.008500,-0.021000,1.005750,192.000000,0.000000,0.000000,0.000000,0.000000,0.000000,0.000000,0.000000,0.000000,0.000000,1769525213.201106,0.000000
140.000000,15729.146091,14523.761216,4918.389609,-1753.047318,6196.127080,-10198.609257,751.443297,-18069.485494,12123.094454,11471.094068,-8664.966663,1393.720674,21396.900284,12847.559195,-51.900751,4735.485284,0.008500,-0.021000,1.005750,192.000000,0.000000,0.000000,0.000000,0.000000,0.000000,0.000000,0.000000,0.000000,0.000000,1769525213.201118,0.000000
142.000000,15754.738838,14545.822387,4974.537191,-1692.384683,6215.438988,-10171.764811,807.076789,-17999.748051,12192.764842,11464.880283,-8706.339742,1365.535124,21371.240481,12823.486367,-79.616914,4721.023705,0.008500,-0.021000,1.005750,192.000000,0.000000,0.000000,0.000000,0.000000,0.000000,0.000000,0.000000,0.000000,0.000000,1769525213.201129,0.000000
144.000000,15725.323942,14511.288942,4949.972624,-1711.875404,6198.764586,-10169.551989,787.697826,-18029.833499,12075.015852,11478.023109,-8632.981316,1417.055895,21401.750612,12869.665071,-14.550986,4761.122735,0.007250,-0.021500,1.009875,192.000000,0.000000,24.000000,127.500000,40.000000,15.500000,88.000000,0.000000,0.000000,0.000000,1769525213.201139,0.000000
146.000000,15736.321001,14529.706780,4920.334210,-1741.893797,6213.203813,-10200.799728,761.747451,-18065.104552,12179.376147,11451.715106,-8722.947088,1351.520580,21367.172464,12821.228840,-86.992989,4710.630144,0.007250,-0.021500,1.009875,192.000000,0.000000,0.000000,0.000000,0.000000,0.000000,0.000000,0.000000,0.000000,0.000000,1769525213.201150,0.000000
148.000000,15718.305495,14521.615448,4981.980322,-1677.498421,6207.615877,-10177.039823,819.169083,-17990.583836,12113.349094,11479.788897,-8653.433162,1402.348447,21404.008139,12857.773943,-33.728782,4757.769973,0.007250,-0.021500,1.009875,192.000000,0.000000,0.000000,0.000000,0.000000,0.000000,0.000000,0.000000,0.000000,0.000000,1769525213.201160,0.000000
150.000000,15717.366721,14517.838003,4909.560670,-1751.862675,6192.684912,-10199.100995,749.521047,-18081.555436,12113.930239,11463.673289,-8681.931637,1382.634209,21410.177220,12838.953774,-43.228274,4736.021726,0.007250,-0.021500,1.009875,192.000000,0.000000,0.000000,0.000000,0.000000,0.000000,0.000000,0.000000,0.000000,0.000000,1769525213.201170,0.000000
152.000000,15732.521204,14532.098416,4967.876371,-1691.267096,6218.523528,-10165.036936,805.176891,-18012.555601,12184.025310,11458.085353,-8720.667210,1349.330109,21360.332830,12825.274506,-81.181536,4729.897348,0.007250,-0.021500,1.009875,192.000000,0.000000,0.000000,0.000000,0.000000,0.000000,0.000000,0.000000,0.000000,0.000000,1769525213.201180,0.000000
154.000000,15717.634942,14516.072216,4948.139781,-1711.651887,6196.238839,-10170.848390,786.446129,-18034.370903,12066.455134,11471.250531,-8639.955060,1405.567098,21397.414374,12866.111143,-11.421741,4769.035252,0.005625,-0.021750,1.008938,192.000000,0.000000,16.000000,127.500000,40.000000,15.500000,64.000000,0.000000,0.000000,0.000000,1769525213.201191,0.000000
156.000000,15729.347256,14528.768006,4917.696705,-1747.638195,6207.772339,-10198.385739,757.120640,-18069.999584,12166.970929,11447.624737,-8723.505881,1345.731478,21365.764304,12807.147241,-89.854013,4725.538758,0.005625,-0.021750,1.008938,192.000000,0.000000,0.000000,0.000000,0.000000,0.000000,0.000000,0.000000,0.000000,0.000000,1769525213.201202,0.000000
158.000000,15737.796216,14526.309315,4984.126089,-1681.700549,6201.200926,-10157.862026,819.571414,-17986.337004,12108.543469,11477.039632,-8650.438029,1399.018037,21401.415336,12851.738972,-31.225387,4762.217970,0.005625,-0.021750,1.008938,192.000000,0.000000,0.000000,0.000000,0.000000,0.000000,0.000000,0.000000,0.000000,0.000000,1769525213.201213,0.000000
160.000000,15732.431797,14514.507593,4912.600507,-1759.261103,6199.323380,-10202.118480,751.175076,-18075.565168,12110.912753,11461.058135,-8675.092003,1385.227011,21387.914883,12834.371666,-53.241855,4739.910929,0.005625,-0.021750,1.008938,192.000000,0.000000,0.000000,0.000000,0.000000,0.000000,0.000000,0.000000,0.000000,0.000000,1769525213.201233,0.000000
162.000000,15752.973050,14542.737847,4977.442918,-1700.543070,6218.858805,-10177.822134,809.758998,-17999.144554,12183.712385,11450.709277,-8709.558393,1358.181400,21376.671955,12814.478614,-77.068815,4720.889595,0.005625,-0.021750,1.008938,192.000000,0.000000,0.000000,0.000000,0.000000,0.000000,0.000000,0.000000,0.000000,0.000000,1769525213.201244,0.000000
164.000000,15724.340466,14506.684483,4955.962891,-1722.894814,6198.876345,-10199.749196,788.614248,-18025.720778,12073.875913,11472.859856,-8627.058104,1413.591375,21395.514476,12852.476579,-7.823111,4760.072203,0.007812,-0.019875,1.006469,192.000000,0.000000,40.000000,127.500000,56.000000,15.500000,48.000000,0.000000,0.000000,0.000000,1769525213.201254,0.000000
166.000000,15728.453187,14528.969172,4926.637402,-1746.945291,6212.913241,-10210.410978,762.663873,-18060.120113,12174.078783,11442.506187,-8715.638067,1350.268883,21362.188025,12797.401881,-85.406016,4710.406627,0.007812,-0.019875,1.006469,192.000000,0.000000,0.000000,0.000000,0.000000,0.000000,0.000000,0.000000,0.000000,0.000000,1769525213.201265,0.000000
168.000000,15722.641733,14525.594059,4991.524517,-1678.124270,6212.734427,-10162.041803,824.220577,-17980.592606,12115.047826,11480.995891,-8640.670316,1410.305668,21412.233581,12856.701059,-33.214692,4745.767086,0.007812,-0.019875,1.006469,192.000000,0.000000,0.000000,0.000000,0.000000,0.000000,0.000000,0.000000,0.000000,0.000000,1769525213.201275,0.000000
170.000000,15716.204431,14509.858431,4918.523719,-1754.678995,6195.188307,-10211.930896,754.661948,-18074.134657,12106.084777,11453.369135,-8670.755764,1386.232839,21384.495066,12828.739027,-45.508152,4729.606775,0.007812,-0.019875,1.006469,192.000000,0.000000,0.000000,0.000000,0.000000,0.000000,0.000000,0.000000,0.000000,0.000000,1769525213.201286,0.000000
172.000000,15739.338486,14528.075102,4976.995883,-1691.088282,6214.969601,-10183.119498,811.904766,-18000.172734,12177.476248,11447.848254,-8707.054997,1358.270807,21362.568004,12807.594276,-78.275809,4716.441598,0.007812,-0.019875,1.006469,192.000000,0.000000,0.000000,0.000000,0.000000,0.000000,0.000000,0.000000,0.000000,0.000000,1769525213.201297,0.000000
174.000000,15721.233573,14500.515401,4952.632481,-1713.909413,6190.717958,-10189.176820,788.524841,-18032.694522,12064.979919,11469.149467,-8631.483749,1412.853767,21395.380365,12858.623309,-14.841558,4761.547418,0.009906,-0.017938,1.008234,192.000000,0.000000,48.000000,127.500000,64.000000,15.500000,72.000000,0.000000,0.000000,0.000000,1769525213.201307,0.000000
176.000000,15730.084864,14521.257820,4921.652963,-1741.066783,6207.101787,-10196.418786,760.518105,-18068.077334,12169.586083,11440.338068,-8724.869338,1346.178513,21351.302725,12801.782823,-92.022132,4719.079103,0.009906,-0.017938,1.008234,192.000000,0.000000,0.000000,0.000000,0.000000,0.000000,0.000000,0.000000,0.000000,0.000000,1769525213.201318,0.000000
178.000000,15728.386131,14517.636838,4986.942409,-1675.620875,6208.644057,-10167.830904,821.672478,-17988.795696,12116.210117,11473.217484,-8653.164941,1401.610840,21405.237485,12854.711754,-33.169989,4758.529932,0.009906,-0.017938,1.008234,192.000000,0.000000,0.000000,0.000000,0.000000,0.000000,0.000000,0.000000,0.000000,0.000000,1769525213.201328,0.000000
180.000000,15730.017809,14513.144137,4916.310896,-1750.163943,6197.579944,-10207.125271,754.729003,-18072.815904,12102.284980,11446.775370,-8675.986073,1380.331979,21373.386249,12827.599088,-51.230198,4740.514426,0.009906,-0.017938,1.008234,192.000000,0.000000,0.000000,0.000000,0.000000,0.000000,0.000000,0.000000,0.000000,0.000000,1769525213.201339,0.000000
182.000000,15733.437626,14537.127559,4976.638255,-1690.551840,6220.088151,-10188.528620,811.658896,-17998.071670,12182.572446,11457.325394,-8698.002541,1362.852915,21372.022792,12820.066550,-88.110577,4722.811845,0.009906,-0.017938,1.008234,192.000000,0.000000,0.000000,0.000000,0.000000,0.000000,0.000000,0.000000,0.000000,0.000000,1769525213.201349,0.000000
184.000000,15723.893431,14510.864259,4954.197103,-1714.624669,6193.511926,-10180.012605,790.916478,-18026.234868,12068.019756,11468.635377,-8629.248575,1413.323154,21393.324005,12857.103390,-13.411047,4765.369566,0.009906,-0.017938,1.008234,192.000000,0.000000,0.000000,0.000000,0.000000,0.000000,0.000000,0.000000,0.000000,0.000000,1769525213.201360,0.000000
186.000000,15754.537672,14531.740788,4927.732638,-1746.319443,6218.881156,-10190.048538,763.356777,-18060.030706,12171.754202,11445.210748,-8716.375675,1353.040499,21363.484426,12808.980085,-84.780167,4716.039266,0.012000,-0.014000,1.008000,192.000000,0.000000,48.000000,127.500000,72.000000,15.500000,64.000000,0.000000,0.000000,0.000000,1769525213.201371,0.000000
188.000000,15726.620344,14524.007085,4987.747072,-1680.314741,6213.561441,-10160.588939,822.253623,-17983.230112,12115.070178,11478.246627,-8642.346697,1407.288183,21421.621313,12853.907091,-25.078657,4751.220912,0.012000,-0.014000,1.008000,192.000000,0.000000,0.000000,0.000000,0.000000,0.000000,0.000000,0.000000,0.000000,0.000000,1769525213.201382,0.000000
190.000000,15722.462919,14506.930352,4913.114597,-1755.818934,6199.099862,-10207.639361,752.940864,-18076.682756,12106.867088,11457.101876,-8673.437974,1382.678912,21369.899377,12830.840091,-51.006681,4745.051830,0.012000,-0.014000,1.008000,192.000000,0.000000,0.000000,0.000000,0.000000,0.000000,0.000000,0.000000,0.000000,0.000000,1769525213.201392,0.000000
192.000000,15744.881719,14532.366637,4977.822897,-1694.932782,6223.597374,-10183.030091,812.441207,-17999.457478,12180.761955,11444.473141,-8709.133710,1355.856819,21355.214281,12815.059759,-73.760757,4721.202519,0.012000,-0.014000,1.008000,192.000000,0.000000,0.000000,0.000000,0.000000,0.000000,0.000000,0.000000,0.000000,0.000000,1769525213.201403,0.000000
194.000000,15722.328809,14511.624218,4955.582911,-1712.389494,6194.763624,-10179.476163,791.542326,-18027.374807,12075.954625,11473.597464,-8625.806406,1417.592337,21399.582493,12864.993556,-9.030105,4759.580464,0.012000,-0.014000,1.008000,192.000000,0.000000,0.000000,0.000000,0.000000,0.000000,0.000000,0.000000,0.000000,0.000000,1769525213.201414,0.000000
196.000000,15720.071282,14518.530907,4923.351696,-1745.313614,6204.799557,-10209.293390,762.172134,-18070.737192,12169.183751,11438.639335,-8722.790625,1345.239740,21355.482501,12809.449471,-83.774338,4712.820615,0.006000,-0.018000,1.004000,192.000000,0.000000,24.000000,127.500000,56.000000,15.500000,48.000000,0.000000,0.000000,0.000000,1769525213.201425,0.000000
198.000000,15711.398806,14513.881745,4988.283514,-1676.582000,6204.330171,-10165.126343,824.041763,-17988.952159,12100.608599,11470.267054,-8648.582834,1397.721636,21382.237540,12855.091733,-28.274957,4754.573674,0.006000,-0.018000,1.004000,192.000000,0.000000,0.000000,0.000000,0.000000,0.000000,0.000000,0.000000,0.000000,0.000000,1769525213.201435,0.000000
200.000000,15719.981875,14505.678654,4913.494577,-1750.879198,6195.031845,-10204.443062,754.281968,-18080.415497,12096.071195,11452.095086,-8675.695500,1378.029749,21374.705002,12835.601012,-47.676271,4738.614528,0.006000,-0.018000,1.004000,192.000000,0.000000,0.000000,0.000000,0.000000,0.000000,0.000000,0.000000,0.000000,0.000000,1769525213.201446,0.000000
202.000000,15732.632963,14532.053713,4973.821935,-1687.199078,6214.030828,-10162.421782,811.815359,-18004.508973,12169.295510,11447.423571,-8716.330971,1350.604159,21355.638964,12821.050027,-84.489594,4729.517368,0.006000,-0.018000,1.004000,192.000000,0.000000,0.000000,0.000000,0.000000,0.000000,0.000000,0.000000,0.000000,0.000000,1769525213.201456,0.000000
204.000000,15710.035349,14504.717529,4955.918188,-1708.388532,6192.617857,-10177.240989,792.056417,-18030.012313,12063.035317,11470.870551,-8633.920089,1412.496139,21394.352185,12864.546521,-19.870701,4763.201447,0.006000,-0.018000,1.004000,192.000000,0.000000,0.000000,0.000000,0.000000,0.000000,0.000000,0.000000,0.000000,0.000000,1769525213.201467,0.000000
206.000000,15757.018716,14528.678599,4926.749161,-1739.591567,6208.599354,-10198.005759,763.960274,-18065.037497,12173.989376,11444.316679,-8716.442730,1351.118249,21358.857615,12810.120024,-89.161109,4718.185034,0.006000,-0.014000,1.002000,192.000000,0.000000,24.000000,127.500000,72.000000,15.500000,40.000000,0.000000,0.000000,0.000000,1769525213.201478,0.000000
208.000000,15710.057701,14510.506631,4988.529383,-1679.800651,6201.580906,-10177.017471,822.700658,-17988.438068,12110.018684,11465.014394,-8649.320441,1396.380531,21401.728261,12855.918748,-19.781294,4755.981833,0.006000,-0.014000,1.002000,192.000000,0.000000,0.000000,0.000000,0.000000,0.000000,0.000000,0.000000,0.000000,0.000000,1769525213.201489,0.000000
210.000000,15710.437681,14506.170393,4914.969792,-1751.326233,6187.946342,-10205.538297,755.444259,-18074.157008,12100.452137,11448.384696,-8671.694538,1376.353368,21370.458170,12828.962544,-53.554780,4741.073220,0.006000,-0.014000,1.002000,192.000000,0.000000,0.000000,0.000000,0.000000,0.000000,0.000000,0.000000,0.000000,0.000000,1769525213.680996,0.000000
212.000000,15744.233518,14529.237393,4973.419604,-1692.719959,6208.621706,-10179.789088,809.848405,-18002.363205,12190.931999,11452.363307,-8704.529250,1357.019109,21374.257967,12817.361989,-86.613010,4719.324973,0.006000,-0.014000,1.002000,192.000000,0.000000,0.000000,0.000000,0.000000,0.000000,0.000000,0.000000,0.000000,0.000000,1769525213.681054,0.000000
214.000000,15721.479442,14507.086814,4947.804504,-1712.478901,6187.700473,-10197.178745,789.463614,-18029.095892,12061.515398,11466.266092,-8635.261194,1411.713828,21392.787563,12854.287071,-16.294422,4761.010976,0.006000,-0.014000,1.002000,192.000000,0.000000,0.000000,0.000000,0.000000,0.000000,0.000000,0.000000,0.000000,0.000000,1769525213.681097,0.000000
216.000000,15731.940059,14524.811748,4919.596603,-1743.369012,6212.488557,-10200.464451,761.769803,-18064.948090,12164.601644,11442.483836,-8724.310544,1349.151295,21346.050065,12807.728387,-89.764606,4712.462987,0.010000,-0.014000,1.002000,192.000000,0.000000,40.000000,127.500000,72.000000,15.500000,40.000000,0.000000,0.000000,0.000000,1769525213.681139,0.000000
218.000000,15723.625210,14514.999332,4983.142612,-1677.386663,6210.432197,-10157.258529,822.611251,-17985.062955,12104.542506,11477.196095,-8652.136761,1398.928630,21389.971243,12856.008155,-28.923157,4756.495924,0.010000,-0.014000,1.002000,192.000000,0.000000,0.000000,0.000000,0.000000,0.000000,0.000000,0.000000,0.000000,0.000000,1769525213.681184,0.000000
220.000000,15703.463936,14499.755442,4907.414902,-1757.897646,6192.304932,-10209.718074,750.057489,-18082.561264,12102.821422,11452.273900,-8680.501125,1379.594371,21379.108295,12833.656410,-46.312815,4740.357964,0.010000,-0.014000,1.002000,192.000000,0.000000,0.000000,0.000000,0.000000,0.000000,0.000000,0.000000,0.000000,0.000000,1769525213.681226,0.000000
222.000000,15739.092617,14528.499785,4969.284531,-1695.648038,6211.929764,-10175.117573,806.696809,-18008.599342,12177.498600,11444.719010,-8718.141463,1348.123115,21370.368763,12815.015056,-78.521678,4725.874034,0.010000,-0.014000,1.002000,192.000000,0.000000,0.000000,0.000000,0.000000,0.000000,0.000000,0.000000,0.000000,0.000000,1769525213.681238,0.000000
224.000000,15728.766111,14512.004198,4951.693708,-1709.148492,6195.255362,-10172.144791,790.178870,-18029.967610,12068.712660,11474.558589,-8633.182482,1408.517529,21411.518325,12869.240388,-24.497512,4768.141182,0.010000,-0.014000,1.002000,192.000000,0.000000,0.000000,0.000000,0.000000,0.000000,0.000000,0.000000,0.000000,0.000000,1769525213.681250,0.000000
226.000000,15745.440512,14522.509518,4924.223414,-1745.134800,6223.597374,-10195.167088,760.004015,-18069.753715,12179.867885,11447.870606,-8721.069541,1344.032746,21368.558272,12811.483480,-84.668408,4719.079103,0.008000,-0.018000,1.004000,192.000000,0.000000,32.000000,127.500000,56.000000,15.500000,48.000000,0.000000,0.000000,0.000000,1769525213.681262,0.000000
228.000000,15731.470672,14520.766082,4994.162022,-1676.358482,6222.569194,-10154.509265,825.069943,-17985.197065,12116.388931,11484.549819,-8646.124142,1400.962639,21405.595113,12863.428934,-13.947489,4747.801095,0.008000,-0.018000,1.004000,192.000000,0.000000,0.000000,0.000000,0.000000,0.000000,0.000000,0.000000,0.000000,0.000000,1769525213.681274,0.000000
230.000000,15723.200527,14516.049864,4915.617992,-1751.482696,6203.301990,-10196.709358,754.393727,-18077.442715,12118.981733,11464.254435,-8676.164886,1383.237706,21398.129630,12841.814797,-40.277844,4745.208293,0.008000,-0.018000,1.004000,192.000000,0.000000,0.000000,0.000000,0.000000,0.000000,0.000000,0.000000,0.000000,0.000000,1769525213.681287,0.000000
232.000000,15738.511472,14534.512405,4971.050319,-1690.954172,6214.097883,-10173.999986,809.602536,-18005.447746,12195.469403,11465.193208,-8711.212422,1353.711051,21378.370688,12826.414445,-87.462376,4728.444484,0.008000,-0.018000,1.004000,192.000000,0.000000,0.000000,0.000000,0.000000,0.000000,0.000000,0.000000,0.000000,0.000000,1769525213.681300,0.000000
234.000000,15715.779747,14506.170393,4947.960967,-1709.260250,6196.417653,-10172.301253,790.268277,-18030.951086,12069.070288,11478.291330,-8635.618822,1414.843072,21410.154868,12871.944949,-13.679268,4764.766069,0.008000,-0.018000,1.004000,192.000000,0.000000,0.000000,0.000000,0.000000,0.000000,0.000000,0.000000,0.000000,0.000000,1769525213.681312,0.000000
236.000000,15741.461902,14515.222849,4913.025190,-1746.498257,6206.654752,-10189.489745,758.260579,-18075.632224,12164.959272,11446.171873,-8729.294983,1346.536141,21350.185138,12815.327980,-88.691722,4718.520310,0.008000,-0.022000,1.004000,192.000000,0.000000,32.000000,127.500000,40.000000,15.500000,48.000000,0.000000,0.000000,0.000000,1769525213.681323,0.000000
238.000000,15734.063474,14508.494974,4976.772365,-1682.684026,6201.647961,-10169.037899,817.403295,-17997.267008,12110.152794,11470.177647,-8667.157133,1389.362084,21376.873121,12851.694268,-25.436285,4760.318072,0.008000,-0.022000,1.004000,192.000000,0.000000,0.000000,0.000000,0.000000,0.000000,0.000000,0.000000,0.000000,0.000000,1769525213.681336,0.000000
240.000000,15730.531899,14503.532887,4907.973696,-1755.975396,6191.947304,-10211.461510,750.728041,-18078.783820,12095.512402,11456.073696,-8682.445727,1377.783880,21372.939214,12831.041256,-47.184533,4739.888577,0.008000,-0.022000,1.004000,192.000000,0.000000,0.000000,0.000000,0.000000,0.000000,0.000000,0.000000,0.000000,0.000000,1769525213.681347,0.000000
242.000000,15725.458053,14528.477434,4964.523609,-1693.815195,6214.477863,-10173.195323,807.143844,-18006.051243,12175.598702,11460.365231,-8715.258088,1354.739231,21369.050010,12819.284239,-87.082396,4722.633031,0.008000,-0.022000,1.004000,192.000000,0.000000,0.000000,0.000000,0.000000,0.000000,0.000000,0.000000,0.000000,0.000000,1769525213.681359,0.000000
244.000000,15712.136413,14500.828326,4945.591682,-1713.194157,6195.970618,-10183.186553,789.083635,-18029.900554,12062.141247,11479.654787,-8636.959927,1412.965526,21398.241389,12863.428934,-14.908614,4760.183961,0.008000,-0.022000,1.004000,192.000000,0.000000,0.000000,0.000000,0.000000,0.000000,0.000000,0.000000,0.000000,0.000000,1769525213.681370,0.000000
246.000000,15738.243251,14519.022646,4914.098074,-1747.571140,6207.057083,-10199.503326,758.506448,-18072.324165,12167.775591,11452.273900,-8727.685657,1345.753830,21375.710830,12816.803195,-90.770434,4714.966382,0.004000,-0.022000,1.004000,192.000000,0.000000,16.000000,127.500000,40.000000,15.500000,48.000000,0.000000,0.000000,0.000000,1769525213.681383,0.000000
248.000000,15730.844823,14517.323913,4983.477889,-1679.465375,6208.174671,-10157.236178,821.560719,-17988.527475,12115.137233,11477.553723,-8659.423430,1394.167709,21396.542656,12856.410486,-28.900806,4757.635863,0.004000,-0.022000,1.004000,192.000000,0.000000,0.000000,0.000000,0.000000,0.000000,0.000000,0.000000,0.000000,0.000000,1769525213.681394,0.000000
250.000000,15728.967277,14506.550372,4911.661734,-1756.265969,6193.713092,-10208.734597,752.426774,-18078.001508,12114.153756,11463.941510,-8674.555561,1383.885906,21381.589339,12839.981954,-48.927969,4741.855531,0.004000,-0.022000,1.004000,192.000000,0.000000,0.000000,0.000000,0.000000,0.000000,0.000000,0.000000,0.000000,0.000000,1769525213.681407,0.000000
252.000000,15747.698039,14530.310277,4972.212609,-1696.363294,6224.871424,-10168.546160,808.216728,-18004.710138,12199.336255,11459.292347,-8713.268782,1354.314548,21379.242406,12816.736140,-80.220411,4720.554318,0.004000,-0.022000,1.004000,192.000000,0.000000,0.000000,0.000000,0.000000,0.000000,0.000000,0.000000,0.000000,0.000000,1769525213.681418,0.000000
254.000000,15737.639754,14512.987675,4947.670394,-1713.909413,6194.271886,-10176.168105,788.614248,-18029.699389,12078.502724,11480.191228,-8633.830682,1412.585546,21417.173316,12863.607748,-16.495587,4761.323900,0.004000,-0.022000,1.004000,192.000000,0.000000,0.000000,0.000000,0.000000,0.000000,0.000000,0.000000,0.000000,0.000000,1769525213.681430,0.000000
0.000000,15741.752475,14512.607695,4916.601469,-1749.269873,6205.805386,-10201.157355,755.935997,-18071.519503,12173.788211,11451.469237,-8723.438826,1348.525446,21365.987821,12814.009227,-96.894812,4720.308449,0.006000,-0.021000,1.005000,192.000000,0.000000,32.000000,127.500000,48.000000,15.500000,56.000000,0.000000,0.000000,0.000000,1769525213.681441,0.000000
2.000000,15723.356989,14513.188841,4983.701406,-1680.717073,6211.281563,-10162.935872,819.057324,-17989.779173,12108.811689,11477.240798,-8658.305843,1397.878098,21398.822534,12855.829341,-25.905672,4756.294758,0.006000,-0.021000,1.005000,192.000000,0.000000,0.000000,0.000000,0.000000,0.000000,0.000000,0.000000,0.000000,0.000000,1769525213.681453,0.000000
4.000000,15725.011018,14509.836079,4912.242879,-1754.276664,6198.183441,-10211.416806,751.376242,-18079.923758,12108.118785,11466.780182,-8679.607055,1382.298932,21394.575702,12835.243384,-43.988233,4745.744734,0.006000,-0.021000,1.005000,192.000000,0.000000,0.000000,0.000000,0.000000,0.000000,0.000000,0.000000,0.000000,0.000000,1769525213.681464,0.000000
6.000000,15735.963373,14527.940992,4969.910380,-1695.513927,6222.926822,-10179.207942,806.674457,-18008.420528,12183.354757,11458.398278,-8720.734265,1357.533199,21393.882798,12818.434872,-79.594562,4724.108246,0.006000,-0.021000,1.005000,192.000000,0.000000,0.000000,0.000000,0.000000,0.000000,0.000000,0.000000,0.000000,0.000000,1769525213.681475,0.000000
8.000000,15710.594143,14499.777794,4945.770496,-1714.490558,6191.164993,-10174.961111,788.569544,-18032.985095,12064.264663,11476.838467,-8642.614918,1410.842110,21403.874028,12866.625233,-11.578204,4763.134392,0.006000,-0.021000,1.005000,192.000000,0.000000,0.000000,0.000000,0.000000,0.000000,0.000000,0.000000,0.000000,0.000000,1769525213.681487,0.000000
10.000000,15738.734989,14513.635875,4916.176786,-1747.973472,6211.549784,-10188.059233,758.662910,-18069.641956,12179.353795,11449.591690,-8729.943184,1345.798534,21358.544690,12816.043236,-96.112501,4721.806016,0.006000,-0.020500,1.006500,192.000000,0.000000,24.000000,127.500000,48.000000,15.500000,64.000000,0.000000,0.000000,0.000000,1769525213.681498,0.000000
12.000000,15726.396826,14514.753463,4983.656702,-1677.230200,6213.337924,-10159.627814,823.259452,-17983.699499,12114.869012,11482.873438,-8652.315575,1402.862537,21410.087813,12861.797257,-30.197207,4752.584368,0.006000,-0.020500,1.006500,192.000000,0.000000,0.000000,0.000000,0.000000,0.000000,0.000000,0.000000,0.000000,0.000000,1769525213.681509,0.000000
14.000000,15729.436663,14503.130556,4908.756007,-1755.081326,6203.145528,-10201.626742,753.231436,-18076.503942,12103.804899,11463.941510,-8681.529305,1383.662389,21390.999423,12845.771056,-49.129134,4742.280214,0.006000,-0.020500,1.006500,192.000000,0.000000,0.000000,0.000000,0.000000,0.000000,0.000000,0.000000,0.000000,0.000000,1769525213.681521,0.000000
16.000000,15754.247100,14534.333591,4969.820973,-1692.719959,6224.603203,-10166.132172,811.211862,-17999.189258,12186.551057,11462.980385,-8715.503957,1357.555551,21391.938197,12819.127777,-77.381739,4724.711743,0.006000,-0.020500,1.006500,192.000000,0.000000,0.000000,0.000000,0.000000,0.000000,0.000000,0.000000,0.000000,0.000000,1769525213.681533,0.000000
18.000000,15712.270524,14511.244239,4954.264159,-1708.410884,6193.601333,-10172.770640,794.269239,-18019.685807,12082.190762,11486.047385,-8627.818063,1421.950927,21415.362825,12867.161675,-18.641355,4772.142145,0.006000,-0.020500,1.006500,192.000000,0.000000,0.000000,0.000000,0.000000,0.000000,0.000000,0.000000,0.000000,0.000000,1769525213.681545,0.000000
20.000000,15745.060533,14523.761216,4921.205928,-1747.347623,6217.808273,-10206.901754,761.859210,-18061.461218,12184.852324,11451.670402,-8716.241564,1355.543894,21391.647624,12810.567058,-84.802518,4723.057714,0.007000,-0.022250,1.007250,192.000000,0.000000,32.000000,127.500000,32.000000,15.500000,64.000000,0.000000,0.000000,0.000000,1769525213.681557,0.000000
22.000000,15737.103312,14520.319047,4987.657665,-1676.492593,6217.093017,-10159.583111,824.287632,-17979.273853,12123.139158,11483.633397,-8648.828703,1404.315401,21412.904133,12858.198626,-25.436285,4755.378336,0.007000,-0.022250,1.007250,192.000000,0.000000,0.000000,0.000000,0.000000,0.000000,0.000000,0.000000,0.000000,0.000000,1769525213.681569,0.000000
24.000000,15733.661143,14518.530907,4916.489710,-1750.096887,6207.951153,-10197.581076,755.131335,-18069.552549,12128.771797,11471.921083,-8668.699404,1387.886868,21395.335662,12843.066495,-46.178704,4741.520255,0.007000,-0.022250,1.007250,192.000000,0.000000,0.000000,0.000000,0.000000,0.000000,0.000000,0.000000,0.000000,0.000000,1769525213.681592,0.000000
26.000000,15747.161597,14532.366637,4970.111545,-1694.910430,6225.631383,-10185.511134,807.345010,-18001.737356,12192.451917,11468.188342,-8710.005428,1355.409784,21389.032470,12821.944096,-70.944437,4720.666077,0.007000,-0.022250,1.007250,192.000000,0.000000,0.000000,0.000000,0.000000,0.000000,0.000000,0.000000,0.000000,0.000000,1769525213.681606,0.000000
28.000000,15723.848727,14511.713625,4945.479923,-1713.529433,6201.022112,-10176.257512,788.144861,-18024.714950,12067.818590,11487.321435,-8632.333116,1411.646773,21408.053804,12871.609672,-20.138922,4765.257807,0.007000,-0.022250,1.007250,192.000000,0.000000,0.000000,0.000000,0.000000,0.000000,0.000000,0.000000,0.000000,0.000000,1769525213.681617,0.000000
30.000000,15743.607669,14522.621277,4915.014495,-1747.459382,6212.756778,-10198.251629,757.590027,-18065.506883,12173.989376,11461.035783,-8719.862547,1352.414650,21376.247272,12817.920782,-92.223298,4718.855586,0.007500,-0.022125,1.006625,192.000000,0.000000,32.000000,127.500000,40.000000,15.500000,56.000000,0.000000,0.000000,0.000000,1769525213.681629,0.000000
32.000000,15734.734027,14518.016817,4981.376825,-1678.392491,6207.481767,-10145.792084,819.794931,-17984.235940,12112.522079,11487.589656,-8653.209645,1403.644848,21405.818630,12857.371611,-22.888186,4754.663081,0.007500,-0.022125,1.006625,192.000000,0.000000,0.000000,0.000000,0.000000,0.000000,0.000000,0.000000,0.000000,0.000000,1769525213.681641,0.000000
34.000000,15716.003265,14502.102375,4909.046579,-1756.154210,6208.018209,-10200.151527,749.364585,-18079.029689,12109.549297,11469.976481,-8675.382575,1383.394168,21395.782697,12844.161730,-43.272977,4741.788476,0.007500,-0.022125,1.006625,192.000000,0.000000,0.000000,0.000000,0.000000,0.000000,0.000000,0.000000,0.000000,0.000000,1769525213.681653,0.000000
36.000000,15733.527033,14527.382198,4970.089194,-1694.709265,6225.720790,-10174.469373,806.853271,-18004.687787,12184.606455,11461.952205,-8715.325143,1350.179476,21390.865313,12821.452358,-76.577077,4723.035362,0.007500,-0.022125,1.006625,192.000000,0.000000,0.000000,0.000000,0.000000,0.000000,0.000000,0.000000,0.000000,0.000000,1769525213.681665,0.000000
38.000000,15725.592163,14500.336587,4951.067859,-1713.194157,6203.145528,-10175.095221,789.262448,-18027.017179,12082.593093,11484.236894,-8629.673258,1413.501968,21418.201496,12871.140286,-7.554890,4762.776764,0.007500,-0.022125,1.006625,192.000000,0.000000,0.000000,0.000000,0.000000,0.000000,0.000000,0.000000,0.000000,0.000000,1769525213.681677,0.000000
40.000000,15729.190794,14512.272419,4914.410998,-1750.007480,6213.628496,-10208.712245,756.472439,-18071.720668,12177.632711,11450.485760,-8723.327067,1342.132848,21384.718583,12814.009227,-88.870536,4721.358981,0.007750,-0.021062,1.003313,192.000000,0.000000,32.000000,127.500000,48.000000,15.500000,32.000000,0.000000,0.000000,0.000000,1769525213.681689,0.000000
42.000000,15729.615477,14511.020721,4984.081386,-1676.626703,6216.556575,-10160.678346,821.113684,-17988.326310,12123.139158,11480.973539,-8657.635290,1393.787729,21432.908944,12858.176274,-26.308003,4755.177171,0.007750,-0.021062,1.003313,192.000000,0.000000,0.000000,0.000000,0.000000,0.000000,0.000000,0.000000,0.000000,0.000000,1769525213.681701,0.000000
44.000000,15719.221916,14507.042111,4917.652001,-1749.471039,6203.123176,-10197.558725,755.086631,-18073.352346,12107.962323,11469.060060,-8675.404927,1379.728482,21375.532016,12841.904204,-47.631567,4742.928415,0.007750,-0.021062,1.003313,192.000000,0.000000,0.000000,0.000000,0.000000,0.000000,0.000000,0.000000,0.000000,0.000000,1769525213.681712,0.000000
46.000000,15764.059515,14523.425939,4975.453612,-1691.334151,6230.369953,-10167.473277,809.758998,-18004.620731,12187.936865,11465.752001,-8707.658494,1352.995795,21393.033432,12824.022809,-78.812251,4717.290964,0.007750,-0.021062,1.003313,192.000000,0.000000,0.000000,0.000000,0.000000,0.000000,0.000000,0.000000,0.000000,0.000000,1769525213.681724,0.000000
48.000000,15703.910971,14491.038262,4951.403135,-1711.160149,6203.436101,-10182.113669,789.240097,-18032.202784,12070.411392,11473.999795,-8638.815122,1406.014133,21418.179145,12864.725335,-8.761884,4773.818526,0.007750,-0.021062,1.003313,192.000000,0.000000,0.000000,0.000000,0.000000,0.000000,0.000000,0.000000,0.000000,0.000000,1769525213.681735,0.000000
50.000000,15732.476501,14520.028474,4918.926051,-1742.854922,6217.025962,-10190.920256,758.662910,-18069.038459,12168.870827,11445.702487,-8724.846986,1339.741211,21384.338604,12815.082111,-83.975504,4723.772970,0.007875,-0.020531,1.006656,192.000000,0.000000,32.000000,127.500000,48.000000,15.500000,72.000000,0.000000,0.000000,0.000000,1769525213.681746,0.000000
52.000000,15743.965297,14524.543527,4988.685845,-1668.960055,6223.932651,-10151.603538,825.248757,-17979.720888,12127.587155,11494.496345,-8646.370011,1402.370799,21427.633933,12871.296748,-33.706431,4753.165514,0.007875,-0.020531,1.006656,192.000000,0.000000,0.000000,0.000000,0.000000,0.000000,0.000000,0.000000,0.000000,0.000000,1769525213.681757,0.000000
54.000000,15731.738893,14504.985750,4912.376989,-1744.844227,6213.494386,-10196.284675,754.773707,-18073.732325,12121.418073,11476.145563,-8668.699404,1390.613781,21405.595113,12854.398829,-48.637396,4742.414325,0.007875,-0.020531,1.006656,192.000000,0.000000,0.000000,0.000000,0.000000,0.000000,0.000000,0.000000,0.000000,0.000000,1769525213.681768,0.000000
56.000000,15724.519280,14516.094567,4969.552752,-1689.143680,6233.923880,-10170.826038,807.255603,-18007.325293,12189.501487,11460.856969,-8715.168681,1353.196961,21393.256950,12828.582564,-80.622742,4727.773932,0.007875,-0.020531,1.006656,192.000000,0.000000,0.000000,0.000000,0.000000,0.000000,0.000000,0.000000,0.000000,0.000000,1769525213.681780,0.000000
58.000000,15729.861346,14498.280227,4947.066897,-1705.683971,6211.907412,-10184.594713,789.933001,-18028.760615,12071.417221,11481.264112,-8636.602299,1408.338715,21418.201496,12870.000347,-5.029143,4765.347214,0.007875,-0.020531,1.006656,192.000000,0.000000,0.000000,0.000000,0.000000,0.000000,0.000000,0.000000,0.000000,0.000000,1769525213.681793,0.000000
60.000000,15744.054704,14522.598925,4913.069893,-1738.473980,6219.238784,-10199.704492,760.160477,-18066.713878,12180.225513,11454.665536,-8727.328030,1346.960824,21372.961566,12816.244401,-87.015341,4722.163644,0.005938,-0.022266,1.005328,192.000000,0.000000,16.000000,127.500000,32.000000,15.500000,48.000000,0.000000,0.000000,0.000000,1769525213.681804,0.000000
62.000000,15726.262716,14518.217983,4981.466232,-1668.445965,6219.998744,-10154.688079,824.511149,-17980.905531,12116.947724,11492.775261,-8653.008479,1402.482558,21426.985732,12871.587321,-32.208864,4756.920607,0.005938,-0.022266,1.005328,192.000000,0.000000,0.000000,0.000000,0.000000,0.000000,0.000000,0.000000,0.000000,0.000000,1769525213.681816,0.000000
64.000000,15716.025617,14509.545506,4911.795844,-1743.123143,6207.280601,-10185.064099,756.628902,-18071.161875,12110.555126,11470.088240,-8674.957892,1387.640999,21390.530037,12847.358030,-47.251588,4747.532874,0.005938,-0.022266,1.005328,192.000000,0.000000,0.000000,0.000000,0.000000,0.000000,0.000000,0.000000,0.000000,0.000000,1769525213.681827,0.000000
66.000000,15738.846748,14532.701913,4965.663548,-1686.729692,6223.731485,-10167.272111,810.138978,-18005.805374,12191.177868,11469.954129,-8709.379579,1359.701319,21384.807990,12829.454282,-85.003684,4725.941089,0.005938,-0.022266,1.005328,192.000000,0.000000,0.000000,0.000000,0.000000,0.000000,0.000000,0.000000,0.000000,0.000000,1769525213.681839,0.000000
68.000000,15712.941076,14492.267608,4946.396344,-1709.506119,6196.060025,-10180.236123,789.910649,-18031.778101,12069.584378,11479.967711,-8639.172749,1408.249308,21412.747671,12868.301614,-18.306079,4771.605703,0.005938,-0.022266,1.005328,192.000000,0.000000,0.000000,0.000000,0.000000,0.000000,0.000000,0.000000,0.000000,0.000000,1769525213.681851,0.000000
70.000000,15745.351105,14512.898268,4915.416827,-1744.464248,6214.187290,-10194.608294,759.109945,-18072.502979,12166.814466,11449.099952,-8725.942221,1342.736345,21375.688478,12814.143338,-89.764606,4722.700086,0.005938,-0.022266,1.005328,192.000000,0.000000,0.000000,0.000000,0.000000,0.000000,0.000000,0.000000,0.000000,0.000000,1769525213.681863,0.000000
72.000000,15740.411370,14506.460965,4981.846211,-1674.436232,6221.473959,-10162.153561,822.812417,-17990.539132,12118.400588,11480.235932,-8656.875331,1392.893659,21415.251066,12859.383268,-20.898881,4755.668909,0.006000,-0.022000,0.998000,192.000000,0.000000,24.000000,127.500000,40.000000,15.500000,24.000000,0.000000,0.000000,0.000000,1769525213.681874,0.000000
74.000000,15724.854556,14504.605771,4905.537356,-1750.342757,6209.404017,-10198.922181,752.270311,-18082.337747,12111.940934,11463.963862,-8685.574971,1375.392243,21398.062575,12847.805065,-41.462486,4749.253958,0.006000,-0.022000,0.998000,192.000000,0.000000,0.000000,0.000000,0.000000,0.000000,0.000000,0.000000,0.000000,0.000000,1769525214.161950,0.000000
76.000000,15739.450245,14521.324876,4959.472115,-1691.244744,6226.748970,-10176.257512,806.048609,-18016.288342,12188.495658,11461.862798,-8724.914041,1346.916121,21400.767136,12822.704056,-84.131966,4731.149045,0.006000,-0.022000,0.998000,192.000000,0.000000,0.000000,0.000000,0.000000,0.000000,0.000000,0.000000,0.000000,0.000000,1769525214.162004,0.000000
78.000000,15713.186945,14499.219000,4949.994975,-1709.260250,6210.968639,-10172.502419,791.631733,-18036.583726,12068.891474,11480.124173,-8645.453590,1403.689552,21412.345339,12867.675765,-17.255547,4772.499773,0.006000,-0.022000,0.998000,192.000000,0.000000,0.000000,0.000000,0.000000,0.000000,0.000000,0.000000,0.000000,0.000000,1769525214.162045,0.000000
80.000000,15729.079035,14515.133442,4915.193309,-1744.665413,6220.445778,-10198.899829,760.205181,-18077.107439,12170.278987,11450.128132,-8730.390219,1337.841313,21384.919749,12815.886774,-83.059082,4721.783664,0.006000,-0.022000,0.998000,192.000000,0.000000,0.000000,0.000000,0.000000,0.000000,0.000000,0.000000,0.000000,0.000000,1769525214.162082,0.000000
82.000000,15738.153844,14516.228678,4980.214534,-1675.844392,6220.222261,-10160.298367,824.220577,-17990.628539,12114.041998,11485.041557,-8656.338889,1393.787729,21415.921618,12862.020774,-31.113628,4759.155781,0.006000,-0.022000,1.000000,192.000000,0.000000,24.000000,127.500000,40.000000,15.500000,32.000000,0.000000,0.000000,0.000000,1769525214.162119,0.000000
84.000000,15738.511472,14514.574649,4908.823062,-1750.901550,6209.202851,-10193.334245,754.952521,-18078.225026,12102.843774,11468.031879,-8676.813087,1376.018092,21405.215133,12842.462998,-50.716108,4746.057659,0.006000,-0.022000,1.000000,192.000000,0.000000,0.000000,0.000000,0.000000,0.000000,0.000000,0.000000,0.000000,0.000000,1769525214.162161,0.000000
86.000000,15743.898242,14533.774797,4969.597455,-1692.161166,6232.202796,-10175.117573,810.116626,-18006.118298,12184.673510,11465.930815,-8716.308620,1347.944301,21382.304595,12822.324076,-75.750062,4718.810882,0.006000,-0.022000,1.000000,192.000000,0.000000,0.000000,0.000000,0.000000,0.000000,0.000000,0.000000,0.000000,0.000000,1769525214.162197,0.000000
88.000000,15709.521259,14506.282151,4951.336080,-1709.461416,6203.212583,-10180.526695,792.324637,-18028.000656,12077.698061,11479.453621,-8632.511930,1412.607898,21425.823441,12869.732126,-12.852253,4762.799116,0.006000,-0.022000,1.000000,192.000000,0.000000,0.000000,0.000000,0.000000,0.000000,0.000000,0.000000,0.000000,0.000000,1769525214.162208,0.000000
90.000000,15758.650393,14529.349152,4919.104864,-1742.385536,6213.986124,-10207.795824,762.105079,-18065.819808,12176.559827,11458.420629,-8718.923774,1349.531275,21376.493141,12821.698227,-85.584830,4715.569879,0.006000,-0.022000,1.000000,192.000000,0.000000,0.000000,0.000000,0.000000,0.000000,0.000000,0.000000,0.000000,0.000000,1769525214.162226,0.000000
92.000000,15742.512434,14514.753463,4983.008502,-1672.066947,6213.114406,-10166.422745,824.265280,-17983.945368,12120.412245,11486.740290,-8653.768439,1400.157976,21413.150002,12859.986765,-38.065021,4754.350156,0.006000,-0.024000,1.004000,192.000000,0.000000,24.000000,127.500000,32.000000,15.500000,48.000000,0.000000,0.000000,0.000000,1769525214.162237,0.000000
94.000000,15721.814718,14503.287018,4914.142777,-1747.906416,6197.892868,-10209.606315,757.612378,-18071.541854,12103.000236,11463.516827,-8672.678014,1380.466089,21397.369671,12840.384285,-43.988233,4748.046964,0.006000,-0.024000,1.004000,192.000000,0.000000,0.000000,0.000000,0.000000,0.000000,0.000000,0.000000,0.000000,0.000000,1769525214.162248,0.000000
96.000000,15748.547405,14539.005105,4976.951179,-1684.762738,6226.279584,-10166.467448,815.726914,-17993.131935,12188.406251,11470.132943,-8698.226058,1361.265941,21394.575702,12832.672934,-85.294257,4717.067446,0.006000,-0.024000,1.004000,192.000000,0.000000,0.000000,0.000000,0.000000,0.000000,0.000000,0.000000,0.000000,0.000000,1769525214.162259,0.000000
98.000000,15729.593126,14509.433747,4956.946368,-1705.125178,6201.402092,-10169.619044,797.867870,-18019.819918,12076.692233,11488.975464,-8618.117406,1418.620517,21432.819537,12875.029489,-14.439227,4766.174229,0.006000,-0.024000,1.004000,192.000000,0.000000,0.000000,0.000000,0.000000,0.000000,0.000000,0.000000,0.000000,0.000000,1769525214.162270,0.000000
100.000000,15753.688306,14528.902117,4919.216623,-1741.558521,6211.102749,-10204.152489,764.742585,-18063.785799,12179.867885,11458.174760,-8713.402893,1349.777144,21379.287109,12821.765282,-87.060045,4720.710781,0.006000,-0.024000,1.004000,192.000000,0.000000,0.000000,0.000000,0.000000,0.000000,0.000000,0.000000,0.000000,0.000000,1769525214.162280,0.000000
102.000000,15729.011980,14534.892384,4986.785947,-1669.049462,6213.829662,-10158.264358,829.763809,-17977.753935,12123.429730,11485.242723,-8648.381668,1402.437854,21437.826328,12866.781696,-36.522750,4760.362775,0.006000,-0.024000,1.006000,192.000000,0.000000,24.000000,127.500000,32.000000,15.500000,56.000000,0.000000,0.000000,0.000000,1769525214.162291,0.000000
104.000000,15728.184966,14512.697102,4911.885251,-1748.040527,6199.435139,-10198.832774,759.556980,-18070.536026,12114.332570,11467.540141,-8669.325253,1386.568116,21403.874028,12853.370649,-48.860913,4745.252996,0.006000,-0.024000,1.006000,192.000000,0.000000,0.000000,0.000000,0.000000,0.000000,0.000000,0.000000,0.000000,0.000000,1769525214.162301,0.000000
106.000000,15770.072135,14536.836986,4971.340891,-1689.858936,6230.369953,-10181.510172,813.178815,-17999.926865,12197.793984,11464.679118,-8711.033608,1359.433098,21382.215188,12825.073341,-84.154318,4722.141292,0.006000,-0.024000,1.006000,192.000000,0.000000,0.000000,0.000000,0.000000,0.000000,0.000000,0.000000,0.000000,0.000000,1769525214.162340,0.000000
108.000000,15713.701035,14515.468718,4955.113525,-1705.840433,6201.670313,-10176.391623,796.191489,-18019.261124,12074.010023,11483.275769,-8630.321459,1420.028677,21412.926485,12870.000347,-10.125340,4765.011938,0.006000,-0.024000,1.006000,192.000000,0.000000,0.000000,0.000000,0.000000,0.000000,0.000000,0.000000,0.000000,0.000000,1769525214.162351,0.000000
110.000000,15741.081922,14523.627105,4918.523719,-1743.458419,6208.085264,-10209.941591,762.060375,-18063.852854,12172.715327,11455.291385,-8715.101625,1351.028842,21380.158827,12818.636038,-90.926896,4723.951784,0.006000,-0.024000,1.006000,192.000000,0.000000,0.000000,0.000000,0.000000,0.000000,0.000000,0.000000,0.000000,0.000000,1769525214.162362,0.000000
112.000000,15742.154806,14527.225736,4986.182450,-1671.530506,6213.807310,-10164.612253,827.036897,-17977.150437,12118.132367,11488.439022,-8646.995860,1402.728427,21411.518325,12862.177236,-29.638413,4762.754412,0.006000,-0.020000,1.004000,192.000000,0.000000,24.000000,127.500000,48.000000,15.500000,48.000000,0.000000,0.000000,0.000000,1769525214.162372,0.000000
114.000000,15731.493024,14519.849660,4918.188443,-1744.710117,6210.096921,-10196.239972,760.339291,-18063.718744,12108.677579,11476.324377,-8665.972491,1393.944191,21403.628159,12847.179216,-42.356556,4748.672813,0.006000,-0.020000,1.004000,192.000000,0.000000,0.000000,0.000000,0.000000,0.000000,0.000000,0.000000,0.000000,0.000000,1769525214.162383,0.000000
116.000000,15765.199454,14550.918585,4978.918133,-1683.756910,6240.808218,-10150.553006,816.151597,-17990.628539,12200.051510,11474.871513,-8701.064730,1365.915104,21415.675749,12839.601974,-78.633437,4725.538758,0.006000,-0.020000,1.004000,192.000000,0.000000,0.000000,0.000000,0.000000,0.000000,0.000000,0.000000,0.000000,0.000000,1769525214.162393,0.000000
118.000000,15732.543556,14521.101358,4960.165019,-1704.074646,6212.734427,-10166.668614,796.057379,-18015.327217,12089.790355,11496.686816,-8622.543052,1427.181235,21405.729223,12886.071251,-5.610288,4775.159630,0.006000,-0.020000,1.004000,192.000000,0.000000,0.000000,0.000000,0.000000,0.000000,0.000000,0.000000,0.000000,0.000000,1769525214.162404,0.000000
120.000000,15753.241271,14543.810730,4929.364315,-1740.195065,6237.276642,-10201.805556,763.245018,-18055.895633,12188.853286,11465.617891,-8707.278515,1358.114345,21388.250159,12823.262849,-75.750062,4726.812807,0.006000,-0.020000,1.004000,192.000000,0.000000,0.000000,0.000000,0.000000,0.000000,0.000000,0.000000,0.000000,0.000000,1769525214.162414,0.000000
122.000000,15747.295707,14541.553204,5001.269877,-1665.897866,6236.941366,-10161.013622,828.400353,-17967.382725,12137.936012,11507.438005,-8634.411828,1417.838206,21442.006104,12873.844847,-19.982460,4754.998357,0.012000,-0.028000,1.002000,192.000000,0.000000,48.000000,127.500000,16.000000,15.500000,40.000000,0.000000,0.000000,0.000000,1769525214.162426,0.000000
124.000000,15742.557137,14532.411341,4923.754027,-1741.044431,6215.684857,-10178.135059,757.768841,-18063.249357,12127.430693,11488.170801,-8655.020136,1402.102578,21412.278284,12860.187931,-39.897864,4754.841894,0.012000,-0.028000,1.002000,192.000000,0.000000,0.000000,0.000000,0.000000,0.000000,0.000000,0.000000,0.000000,0.000000,1769525214.162437,0.000000
126.000000,15765.311213,14555.210120,4979.096947,-1680.962942,6240.741162,-10157.504399,813.581146,-17992.863714,12211.875583,11485.198019,-8697.711968,1367.613836,21410.445441,12844.809931,-80.265114,4729.495016,0.012000,-0.028000,1.002000,192.000000,0.000000,0.000000,0.000000,0.000000,0.000000,0.000000,0.000000,0.000000,0.000000,1769525214.162448,0.000000
128.000000,15730.263678,14522.554221,4958.600397,-1700.453663,6218.143549,-10182.538352,795.073902,-18018.389406,12092.226695,11506.253362,-8619.950249,1425.706020,21438.094549,12887.591170,-8.337201,4773.058566,0.012000,-0.028000,1.002000,192.000000,0.000000,0.000000,0.000000,0.000000,0.000000,0.000000,0.000000,0.000000,0.000000,1769525214.162458,0.000000
130.000000,15761.556120,14542.134350,4922.770551,-1735.456495,6225.609031,-10196.485841,761.747451,-18062.176473,12190.864943,11465.282615,-8711.838271,1358.270807,21395.000386,12833.790521,-84.467242,4729.740885,0.012000,-0.028000,1.002000,192.000000,0.000000,0.000000,0.000000,0.000000,0.000000,0.000000,0.000000,0.000000,0.000000,1769525214.162469,0.000000
132.000000,15737.952678,14536.836986,4989.736377,-1663.617988,6215.684857,-10145.479160,826.746324,-17976.815161,12131.454007,11494.585752,-8645.922976,1405.835319,21434.048883,12880.125687,-22.396448,4768.856438,0.012000,-0.026000,1.004000,192.000000,0.000000,48.000000,127.500000,24.000000,15.500000,48.000000,0.000000,0.000000,0.000000,1769525214.162479,0.000000
134.000000,15729.302553,14524.901155,4916.489710,-1734.048335,6213.226165,-10168.009718,760.071070,-18064.992793,12122.669771,11487.947284,-8657.031793,1402.370799,21417.396834,12865.842922,-50.783163,4757.680566,0.012000,-0.026000,1.004000,192.000000,0.000000,0.000000,0.000000,0.000000,0.000000,0.000000,0.000000,0.000000,0.000000,1769525214.162490,0.000000
136.000000,15756.795199,14552.818483,4973.263141,-1680.560610,6243.401020,-10158.689041,812.441207,-17997.267008,12200.409138,11479.185400,-8704.953933,1370.519563,21399.895418,12836.740951,-74.811289,4737.832217,0.012000,-0.026000,1.004000,192.000000,0.000000,0.000000,0.000000,0.000000,0.000000,0.000000,0.000000,0.000000,0.000000,1769525214.162501,0.000000
138.000000,15746.468693,14526.108149,4955.851132,-1699.604297,6216.288354,-10171.720108,795.722103,-18018.747034,12084.515343,11502.140641,-8623.370066,1429.103485,21435.680561,12888.127612,-5.230308,4776.657197,0.012000,-0.026000,1.004000,192.000000,0.000000,0.000000,0.000000,0.000000,0.000000,0.000000,0.000000,0.000000,0.000000,1769525214.162511,0.000000
140.000000,15755.811722,14541.709666,4920.803597,-1737.646966,6229.319421,-10183.834753,762.283893,-18063.897558,12189.188563,11472.390470,-8714.855756,1361.578865,21393.279301,12831.376532,-78.767547,4731.618432,0.012000,-0.026000,1.004000,192.000000,0.000000,0.000000,0.000000,0.000000,0.000000,0.000000,0.000000,0.000000,0.000000,1769525214.162522,0.000000
142.000000,15737.773864,14537.082855,4992.686807,-1666.411956,6234.974412,-10146.775561,827.595690,-17977.441010,12132.191614,11500.084281,-8645.028906,1408.651639,21441.067331,12877.063498,-22.977593,4765.190752,0.011000,-0.024000,1.005000,192.000000,0.000000,40.000000,127.500000,40.000000,15.500000,56.000000,0.000000,0.000000,0.000000,1769525214.162532,0.000000
144.000000,15741.618364,14529.125634,4920.133045,-1740.932672,6219.976392,-10192.641341,758.774669,-18066.043325,12124.055579,11476.682005,-8663.916131,1395.620572,21408.590246,12859.696193,-41.216617,4756.630034,0.011000,-0.024000,1.005000,192.000000,0.000000,0.000000,0.000000,0.000000,0.000000,0.000000,0.000000,0.000000,0.000000,1769525214.162543,0.000000
146.000000,15765.355917,14544.481283,4975.185391,-1683.622799,6246.999651,-10171.250721,811.390675,-17997.155249,12205.840612,11476.950225,-8704.842175,1364.730461,21410.914828,12841.613631,-73.380777,4729.785589,0.011000,-0.024000,1.005000,192.000000,0.000000,0.000000,0.000000,0.000000,0.000000,0.000000,0.000000,0.000000,0.000000,1769525214.162554,0.000000
148.000000,15739.405541,14530.176166,4960.142667,-1697.458529,6217.249479,-10163.382907,797.398483,-18015.997769,12095.490050,11501.514793,-8621.693685,1423.314383,21430.584363,12886.406527,-9.521843,4774.332616,0.011000,-0.024000,1.005000,192.000000,0.000000,0.000000,0.000000,0.000000,0.000000,0.000000,0.000000,0.000000,0.000000,1769525214.162565,0.000000
150.000000,15745.909899,14542.961364,4924.424580,-1733.243672,6226.860729,-10173.821172,765.167268,-18060.321279,12190.663778,11476.570246,-8709.044303,1362.539990,21405.639816,12835.310440,-88.647019,4728.578595,0.011000,-0.024000,1.005000,192.000000,0.000000,0.000000,0.000000,0.000000,0.000000,0.000000,0.000000,0.000000,0.000000,1769525214.162575,0.000000
152.000000,15737.773864,14534.490053,4991.345703,-1665.272017,6222.457435,-10141.388791,828.065077,-17978.536246,12132.191614,11506.856860,-8644.000726,1414.597203,21439.502709,12883.411394,-29.101971,4764.162572,0.011500,-0.023000,1.008500,192.000000,0.000000,48.000000,127.500000,40.000000,15.500000,80.000000,0.000000,0.000000,0.000000,1769525214.162586,0.000000
154.000000,15746.803969,14528.276268,4918.903699,-1739.837437,6211.527432,-10191.747271,759.311111,-18066.892691,12116.165413,11487.366138,-8667.246540,1396.335828,21420.950761,12863.518341,-33.058230,4752.651424,0.011500,-0.023000,1.008500,192.000000,0.000000,0.000000,0.000000,0.000000,0.000000,0.000000,0.000000,0.000000,0.000000,1769525214.162598,0.000000
156.000000,15762.003155,14551.723248,4973.732528,-1679.644189,6236.851959,-10164.187570,814.206995,-17994.227170,12197.503411,11484.236894,-8706.719721,1372.262999,21402.912903,12846.061629,-72.151431,4732.154874,0.011500,-0.023000,1.008500,192.000000,0.000000,0.000000,0.000000,0.000000,0.000000,0.000000,0.000000,0.000000,0.000000,1769525214.162609,0.000000
158.000000,15730.844823,14532.947783,4958.801563,-1693.837547,6216.489520,-10168.367346,801.645315,-18011.370958,12081.050823,11504.934610,-8621.179595,1433.864407,21433.400683,12895.235466,-11.108817,4773.103270,0.011500,-0.023000,1.008500,192.000000,0.000000,0.000000,0.000000,0.000000,0.000000,0.000000,0.000000,0.000000,0.000000,1769525214.162619,0.000000
160.000000,15761.869045,14549.331611,4923.552862,-1731.209663,6231.509892,-10200.866783,768.184753,-18054.666287,12179.242036,11474.938568,-8709.312524,1369.245514,21389.859484,12833.231727,-81.114481,4728.086856,0.011500,-0.023000,1.008500,192.000000,0.000000,0.000000,0.000000,0.000000,0.000000,0.000000,0.000000,0.000000,0.000000,1769525214.162630,0.000000
162.000000,15751.833111,14536.322896,4991.949200,-1664.959093,6223.172691,-10164.835771,829.964975,-17974.959967,12130.761103,11502.632380,-8641.586738,1415.804197,21427.723340,12878.046975,-28.207902,4756.093592,0.011750,-0.019500,1.008250,192.000000,0.000000,48.000000,127.500000,64.000000,15.500000,64.000000,0.000000,0.000000,0.000000,1769525214.162641,0.000000
164.000000,15738.287954,14523.224774,4919.417789,-1739.368050,6213.337924,-10200.687969,761.278064,-18066.423305,12122.915640,11484.996853,-8665.704270,1397.721636,21409.216095,12857.840998,-38.310890,4747.018784,0.011750,-0.019500,1.008250,192.000000,0.000000,0.000000,0.000000,0.000000,0.000000,0.000000,0.000000,0.000000,0.000000,1769525214.162651,0.000000
166.000000,15751.676649,14547.319954,4971.810278,-1683.041654,6236.561386,-10156.476218,812.687077,-17999.189258,12199.917400,11482.962845,-8706.272686,1367.300912,21399.135458,12840.831320,-78.432271,4727.215138,0.011750,-0.019500,1.008250,192.000000,0.000000,0.000000,0.000000,0.000000,0.000000,0.000000,0.000000,0.000000,0.000000,1769525214.162662,0.000000
168.000000,15734.689323,14519.804957,4955.515856,-1697.033846,6215.975430,-10158.845503,797.957277,-18018.635275,12072.624215,11501.850069,-8626.409903,1426.600090,21433.691255,12889.692234,-10.594727,4772.812697,0.011750,-0.019500,1.008250,192.000000,0.000000,0.000000,0.000000,0.000000,0.000000,0.000000,0.000000,0.000000,0.000000,1769525214.162673,0.000000
170.000000,15762.249024,14531.092588,4920.557728,-1738.295166,6227.978316,-10191.076719,763.714405,-18065.708049,12177.476248,11468.210693,-8715.772178,1361.422403,21382.304595,12837.567966,-82.947324,4725.717571,0.011750,-0.019500,1.008250,192.000000,0.000000,0.000000,0.000000,0.000000,0.000000,0.000000,0.000000,0.000000,0.000000,1769525214.162683,0.000000
172.000000,15743.339448,14530.623201,4988.708197,-1667.104860,6224.938479,-10157.616157,828.042725,-17983.274815,12119.629934,11494.898676,-8652.516741,1405.723561,21426.918677,12876.348242,-26.978556,4763.804944,0.009875,-0.019750,1.006125,192.000000,0.000000,32.000000,127.500000,48.000000,15.500000,48.000000,0.000000,0.000000,0.000000,1769525214.162694,0.000000
174.000000,15727.357951,14520.229640,4914.098074,-1742.251425,6210.611011,-10187.567495,758.305282,-18073.888787,12109.102262,11477.710185,-8670.867523,1393.988895,21408.769060,12859.271510,-54.828829,4754.260749,0.009875,-0.019750,1.006125,192.000000,0.000000,0.000000,0.000000,0.000000,0.000000,0.000000,0.000000,0.000000,0.000000,1769525214.162705,0.000000
176.000000,15753.151864,14549.286908,4975.006577,-1684.941552,6235.443799,-10162.645300,811.144806,-18004.933656,12189.926170,11467.875417,-8714.274611,1356.505019,21381.119952,12834.014038,-71.190306,4727.393952,0.009875,-0.019750,1.006125,192.000000,0.000000,0.000000,0.000000,0.000000,0.000000,0.000000,0.000000,0.000000,0.000000,1769525214.162724,0.000000
178.000000,15718.573716,14513.658227,4959.606225,-1700.923050,6212.913241,-10168.613216,795.118606,-18024.089101,12077.675709,11496.440947,-8626.499310,1417.212357,21426.426938,12879.924521,-0.447035,4773.438546,0.009875,-0.019750,1.006125,192.000000,0.000000,0.000000,0.000000,0.000000,0.000000,0.000000,0.000000,0.000000,0.000000,1769525214.162734,0.000000
180.000000,15762.383135,14537.172262,4925.475112,-1738.183408,6229.609994,-10196.798765,764.653178,-18061.997659,12176.224551,11463.740344,-8716.420378,1358.449621,21380.650566,12823.888698,-73.045501,4725.359944,0.009875,-0.019750,1.006125,192.000000,0.000000,0.000000,0.000000,0.000000,0.000000,0.000000,0.000000,0.000000,0.000000,1769525214.162745,0.000000
182.000000,15736.924498,14534.311239,4993.692636,-1667.708357,6225.430217,-10152.765829,830.099086,-17975.563464,12122.356847,11498.340845,-8641.094999,1416.228880,21423.230639,12872.481391,-26.755038,4757.613511,0.008938,-0.019875,1.005062,192.000000,0.000000,32.000000,127.500000,48.000000,15.500000,48.000000,0.000000,0.000000,0.000000,1769525214.162755,0.000000
184.000000,15729.257849,14522.308352,4917.584946,-1743.413716,6205.470110,-10192.753100,761.032195,-18071.295985,12108.051730,11480.146525,-8661.748011,1398.213374,21399.873066,12863.965376,-41.306024,4752.673775,0.008938,-0.019875,1.005062,192.000000,0.000000,0.000000,0.000000,0.000000,0.000000,0.000000,0.000000,0.000000,0.000000,1769525214.162766,0.000000
186.000000,15760.304422,14542.536681,4973.061976,-1685.299180,6232.381610,-10165.193399,813.871719,-18004.106641,12184.315882,11471.429345,-8711.659457,1359.790726,21390.261816,12833.835224,-75.772414,4726.142255,0.008938,-0.019875,1.005062,192.000000,0.000000,0.000000,0.000000,0.000000,0.000000,0.000000,0.000000,0.000000,0.000000,1769525214.162778,0.000000
188.000000,15725.659219,14518.441500,4958.220417,-1702.510023,6216.020133,-10193.736576,799.521899,-18022.792700,12067.975052,11489.914237,-8627.639249,1420.967450,21430.360845,12881.869123,-5.990268,4762.933226,0.008938,-0.019875,1.005062,192.000000,0.000000,0.000000,0.000000,0.000000,0.000000,0.000000,0.000000,0.000000,0.000000,1769525214.162788,0.000000
190.000000,15736.432759,14528.835062,4919.238975,-1739.748030,6217.383589,-10208.913411,764.228495,-18068.546721,12175.263426,11453.838522,-8715.705122,1354.336900,21393.681633,12819.284239,-81.226239,4716.776874,0.008938,-0.019875,1.005062,192.000000,0.000000,0.000000,0.000000,0.000000,0.000000,0.000000,0.000000,0.000000,0.000000,1769525214.162799,0.000000
192.000000,15735.493986,14531.763140,4993.491470,-1668.423613,6213.583793,-10159.963090,831.574301,-17978.804467,12113.930239,11488.059042,-8644.626575,1403.331924,21401.594150,12862.445457,-35.807495,4758.798153,0.008469,-0.019938,1.004531,192.000000,0.000000,32.000000,127.500000,48.000000,15.500000,48.000000,0.000000,0.000000,0.000000,1769525214.162809,0.000000
194.000000,15718.461957,14519.156756,4916.042676,-1746.475905,6199.323380,-10203.839565,759.467573,-18074.604043,12092.539620,11468.233045,-8665.480753,1388.490366,21385.523246,12844.765227,-40.456657,4742.436676,0.008469,-0.019938,1.004531,192.000000,0.000000,0.000000,0.000000,0.000000,0.000000,0.000000,0.000000,0.000000,0.000000,1769525214.643213,0.000000
196.000000,15757.644565,14543.877786,4973.419604,-1684.136889,6223.463264,-10170.468410,814.274051,-18000.396252,12179.979644,11464.522656,-8711.167718,1360.349519,21383.600996,12827.688495,-82.768510,4724.041191,0.008469,-0.019938,1.004531,192.000000,0.000000,0.000000,0.000000,0.000000,0.000000,0.000000,0.000000,0.000000,0.000000,1769525214.643276,0.000000
198.000000,15728.721407,14520.117881,4957.818086,-1699.067855,6197.736406,-10184.058271,798.627829,-18018.076482,12071.976015,11487.679063,-8627.505139,1425.147226,21422.917714,12875.387117,-10.192395,4762.776764,0.008469,-0.019938,1.004531,192.000000,0.000000,0.000000,0.000000,0.000000,0.000000,0.000000,0.000000,0.000000,0.000000,1769525214.643324,0.000000
200.000000,15735.605745,14538.893347,4921.809426,-1737.870483,6213.047351,-10209.405149,762.753280,-18062.869377,12165.003975,11455.939586,-8713.760521,1361.131830,21378.191874,12824.022809,-90.815138,4718.542661,0.008469,-0.019938,1.004531,192.000000,0.000000,0.000000,0.000000,0.000000,0.000000,0.000000,0.000000,0.000000,0.000000,1769525214.643372,0.000000
202.000000,15749.128550,14532.053713,4995.212554,-1664.959093,6225.899604,-10165.729840,831.909577,-17973.775324,12117.573573,11491.992949,-8646.414715,1410.484482,21416.078081,12872.749611,-25.972727,4750.773877,0.006234,-0.020969,1.003266,192.000000,0.000000,16.000000,127.500000,40.000000,15.500000,40.000000,0.000000,0.000000,0.000000,1769525214.643414,0.000000
204.000000,15729.011980,14521.168413,4919.306030,-1741.335004,6200.552726,-10211.148585,761.300416,-18068.971404,12105.570687,11473.195132,-8664.519628,1397.162842,21410.132517,12847.313326,-42.490666,4742.973118,0.006234,-0.020969,1.003266,192.000000,0.000000,0.000000,0.000000,0.000000,0.000000,0.000000,0.000000,0.000000,0.000000,1769525214.643440,0.000000
206.000000,15754.604728,14548.683411,4977.085290,-1684.047482,6228.782979,-10160.030146,814.519920,-18000.172734,12189.546190,11473.016318,-8706.585611,1365.557476,21402.018833,12828.269640,-81.963847,4723.147121,0.006234,-0.020969,1.003266,192.000000,0.000000,0.000000,0.000000,0.000000,0.000000,0.000000,0.000000,0.000000,0.000000,1769525214.643453,0.000000
208.000000,15725.726274,14523.135367,4964.165981,-1700.408959,6213.896717,-10170.289596,800.080693,-18019.216421,12071.350166,11498.832583,-8625.471130,1428.902320,21450.522119,12884.305463,-8.493663,4765.637787,0.006234,-0.020969,1.003266,192.000000,0.000000,0.000000,0.000000,0.000000,0.000000,0.000000,0.000000,0.000000,0.000000,1769525214.643464,0.000000
210.000000,15747.251004,14535.093550,4922.949365,-1736.305861,6218.836453,-10203.213716,764.854344,-18068.323203,12174.078783,11461.818094,-8713.604058,1359.544856,21386.171447,12823.888698,-81.203888,4723.683563,0.006234,-0.020969,1.003266,192.000000,0.000000,0.000000,0.000000,0.000000,0.000000,0.000000,0.000000,0.000000,0.000000,1769525214.643476,0.000000
212.000000,15756.236405,14536.322896,4989.110528,-1662.925084,6216.914203,-10136.761980,829.294423,-17982.984243,12127.944783,11494.250476,-8649.499255,1407.578755,21426.650456,12867.899283,-31.784181,4762.866171,0.006234,-0.020969,1.003266,192.000000,0.000000,0.000000,0.000000,0.000000,0.000000,0.000000,0.000000,0.000000,0.000000,1769525214.643488,0.000000
214.000000,15738.109140,14528.142158,4912.980487,-1738.831608,6210.141624,-10189.132117,760.048718,-18074.536988,12116.813614,11479.967711,-8668.386479,1392.804252,21415.496935,12855.628175,-39.182608,4752.271444,0.004000,-0.022000,1.000000,192.000000,0.000000,16.000000,127.500000,40.000000,15.500000,32.000000,0.000000,0.000000,0.000000,1769525214.643500,0.000000
216.000000,15761.913748,14549.063390,4968.770441,-1682.751081,6236.449627,-10164.455791,813.625850,-18004.374862,12189.657949,11475.609121,-8712.173547,1361.489458,21390.418278,12829.320172,-74.900696,4730.679659,0.004000,-0.022000,1.000000,192.000000,0.000000,0.000000,0.000000,0.000000,0.000000,0.000000,0.000000,0.000000,0.000000,1769525214.643512,0.000000
218.000000,15741.819530,14520.296695,4950.754935,-1696.296238,6206.431235,-10173.128268,797.666704,-18023.195031,12073.987672,11495.524525,-8630.299107,1425.951889,21427.544526,12879.566894,-8.068980,4774.489078,0.004000,-0.022000,1.000000,192.000000,0.000000,0.000000,0.000000,0.000000,0.000000,0.000000,0.000000,0.000000,0.000000,1769525214.643531,0.000000
220.000000,15767.166408,14547.230547,4918.143739,-1736.127047,6217.115368,-10204.577172,764.340253,-18065.886863,12172.648272,11468.143638,-8715.861585,1358.069641,21377.163694,12825.721541,-86.098920,4725.225833,0.004000,-0.022000,1.000000,192.000000,0.000000,0.000000,0.000000,0.000000,0.000000,0.000000,0.000000,0.000000,0.000000,1769525214.643542,0.000000
222.000000,15745.775789,14540.457969,4988.685845,-1663.997968,6220.535185,-10150.150675,830.032030,-17979.184446,12127.721265,11506.208659,-8645.207720,1408.003438,21416.212191,12871.274396,-29.549006,4755.311281,0.004000,-0.022000,1.000000,192.000000,0.000000,0.000000,0.000000,0.000000,0.000000,0.000000,0.000000,0.000000,0.000000,1769525214.643554,0.000000
224.000000,15749.664992,14525.795224,4915.975620,-1738.898663,6205.850089,-10187.880419,760.987492,-18069.194921,12106.196535,11480.057118,-8668.922921,1400.850880,21399.806011,12852.633041,-44.502323,4751.466781,0.002000,-0.024000,1.008000,192.000000,0.000000,8.000000,127.500000,32.000000,15.500000,64.000000,0.000000,0.000000,0.000000,1769525214.643566,0.000000
226.000000,15788.244103,14551.499731,4971.922037,-1682.974599,6234.192101,-10166.623910,814.676382,-18001.290322,12195.111775,11475.072679,-8707.613791,1370.430156,21393.502819,12831.108312,-81.002722,4722.253051,0.002000,-0.024000,1.008000,192.000000,0.000000,0.000000,0.000000,0.000000,0.000000,0.000000,0.000000,0.000000,0.000000,1769525214.643578,0.000000
228.000000,15733.661143,14522.777739,4959.248598,-1700.341904,6201.938534,-10174.536428,800.214803,-18020.781043,12074.188837,11489.780127,-8628.287450,1425.147226,21428.080967,12875.990614,-6.526709,4766.353043,0.002000,-0.024000,1.008000,192.000000,0.000000,0.000000,0.000000,0.000000,0.000000,0.000000,0.000000,0.000000,0.000000,1769525214.643590,0.000000
230.000000,15755.990536,14542.581384,4925.676277,-1737.669317,6214.813139,-10203.616047,767.111870,-18062.757619,12177.051565,11461.214597,-8707.747901,1361.802383,21388.764249,12817.116120,-78.633437,4718.252089,0.002000,-0.024000,1.008000,192.000000,0.000000,0.000000,0.000000,0.000000,0.000000,0.000000,0.000000,0.000000,0.000000,1769525214.643602,0.000000
232.000000,15757.398696,14550.784475,4995.637238,-1663.819154,6213.628496,-10165.752192,833.138923,-17974.021193,12130.872861,11493.959903,-8640.491502,1411.579718,21412.702967,12860.679669,-30.800704,4752.047926,0.002000,-0.024000,1.008000,192.000000,0.000000,0.000000,0.000000,0.000000,0.000000,0.000000,0.000000,0.000000,0.000000,1769525214.643614,0.000000
234.000000,15750.402600,14529.863242,4919.864824,-1740.463286,6203.860784,-10206.924106,761.792155,-18068.412610,12116.031303,11477.509019,-8661.993881,1399.353313,21404.075194,12844.161730,-49.419707,4746.571749,0.012000,-0.020000,1.006000,192.000000,0.000000,48.000000,127.500000,48.000000,15.500000,56.000000,0.000000,0.000000,0.000000,1769525214.643626,0.000000
236.000000,15762.874873,14552.550263,4973.732528,-1684.785090,6226.458398,-10177.464506,814.095237,-18000.485659,12192.384862,11466.355499,-8708.820785,1366.049214,21384.986804,12820.200660,-79.818079,4721.314278,0.012000,-0.020000,1.006000,192.000000,0.000000,0.000000,0.000000,0.000000,0.000000,0.000000,0.000000,0.000000,0.000000,1769525214.643638,0.000000
238.000000,15746.356934,14524.565878,4961.148496,-1699.112558,6202.094996,-10184.214733,800.527728,-18020.334008,12074.881741,11487.947284,-8623.906508,1426.376572,21411.831249,12865.440591,-12.338163,4763.715537,0.012000,-0.020000,1.006000,192.000000,0.000000,0.000000,0.000000,0.000000,0.000000,0.000000,0.000000,0.000000,0.000000,1769525214.643650,0.000000
240.000000,15770.787391,14548.191672,4922.614088,-1738.228111,6216.467168,-10217.161204,764.966102,-18067.205616,12175.777516,11460.454638,-8718.230870,1359.947188,21375.420257,12817.294933,-79.058120,4715.994563,0.012000,-0.020000,1.006000,192.000000,0.000000,0.000000,0.000000,0.000000,0.000000,0.000000,0.000000,0.000000,0.000000,1769525214.643661,0.000000
242.000000,15751.810760,14536.300544,4990.742205,-1667.507192,6213.427331,-10164.858122,829.786161,-17981.821952,12124.524966,11492.127060,-8649.521607,1408.159901,21417.597999,12865.731164,-27.403239,4750.617415,0.012000,-0.020000,1.006000,192.000000,0.000000,0.000000,0.000000,0.000000,0.000000,0.000000,0.000000,0.000000,0.000000,1769525214.643673,0.000000
244.000000,15746.915727,14529.371504,4918.210795,-1740.284472,6197.915220,-10211.305047,761.792155,-18070.245453,12104.631913,11474.156257,-8665.972491,1391.977238,21386.640833,12845.480483,-42.356556,4746.638804,0.012000,-0.020000,1.010000,192.000000,0.000000,48.000000,127.500000,48.000000,15.500000,72.000000,0.000000,0.000000,0.000000,1769525214.643685,0.000000
246.000000,15761.377306,14554.159588,4973.173734,-1685.008608,6215.751912,-10179.140887,815.279879,-18001.849115,12192.563676,11470.557627,-8710.631276,1360.237761,21384.159790,12821.966448,-86.501251,4719.079103,0.012000,-0.020000,1.010000,192.000000,0.000000,0.000000,0.000000,0.000000,0.000000,0.000000,0.000000,0.000000,0.000000,1769525214.643697,0.000000
248.000000,15751.877815,14532.724265,4959.315653,-1695.223355,6199.166918,-10171.585998,804.551042,-18014.231982,12082.101355,11491.478859,-8628.354505,1425.169578,21417.866220,12869.285091,-10.997058,4758.954615,0.012000,-0.020000,1.010000,192.000000,0.000000,0.000000,0.000000,0.000000,0.000000,0.000000,0.000000,0.000000,0.000000,1769525214.643708,0.000000
250.000000,15768.775734,14544.749504,4924.536338,-1733.131913,6211.438025,-10202.073777,771.515163,-18057.661421,12185.254656,11464.276786,-8709.312524,1372.553572,21375.889644,12823.866346,-88.892888,4710.496033,0.012000,-0.020000,1.010000,192.000000,0.000000,0.000000,0.000000,0.000000,0.000000,0.000000,0.000000,0.000000,0.000000,1769525214.643721,0.000000
252.000000,15745.820492,14541.061466,4989.579915,-1664.221485,6202.787900,-10172.815343,833.429496,-17977.306900,12125.284925,11486.047385,-8647.733468,1414.396037,21407.696176,12861.596091,-32.410029,4749.142200,0.012000,-0.020000,1.010000,192.000000,0.000000,0.000000,0.000000,0.000000,0.000000,0.000000,0.000000,0.000000,0.000000,1769525214.643732,0.000000
254.000000,15741.596012,14527.873937,4920.870652,-1738.406925,6196.238839,-10211.014475,765.279027,-18066.602119,12114.600791,11473.061022,-8663.871427,1401.253212,21392.765211,12845.502835,-53.063041,4743.911891,0.010000,-0.020000,1.004000,192.000000,0.000000,40.000000,127.500000,48.000000,15.500000,48.000000,0.000000,0.000000,0.000000,1769525214.643744,0.000000
0.000000,15768.194588,14552.013821,4978.448746,-1684.114538,6225.161997,-10184.639416,816.620984,-17998.474002,12198.956275,11471.004661,-8706.183279,1364.149316,21396.185028,12824.000457,-86.031864,4721.269574,0.010000,-0.020000,1.004000,192.000000,0.000000,0.000000,0.000000,0.000000,0.000000,0.000000,0.000000,0.000000,0.000000,1769525214.643756,0.000000
2.000000,15743.339448,14530.064408,4960.723813,-1696.117425,6196.618819,-10168.903788,800.147748,-18018.165889,12085.342358,11493.378758,-8620.084360,1425.929538,21420.481374,12873.956606,-10.326506,4761.569770,0.010000,-0.020000,1.004000,192.000000,0.000000,0.000000,0.000000,0.000000,0.000000,0.000000,0.000000,0.000000,0.000000,1769525214.643767,0.000000
4.000000,15751.900166,14537.485187,4921.563556,-1734.540073,6210.521604,-10203.683103,765.077861,-18065.886863,12181.656025,11456.677193,-8714.274611,1360.751851,21384.629176,12818.434872,-89.697550,4720.666077,0.010000,-0.020000,1.004000,192.000000,0.000000,0.000000,0.000000,0.000000,0.000000,0.000000,0.000000,0.000000,0.000000,1769525214.643779,0.000000
6.000000,15749.419123,14534.668867,4989.244639,-1663.036843,6208.442892,-10164.925178,830.412010,-17980.950234,12127.430693,11493.065833,-8649.946290,1408.159901,21403.270531,12865.015908,-23.245814,4751.265615,0.010000,-0.020000,1.004000,192.000000,0.000000,0.000000,0.000000,0.000000,0.000000,0.000000,0.000000,0.000000,0.000000,1769525214.643790,0.000000
8.000000,15743.339448,14528.052751,4916.221489,-1736.372916,6199.926877,-10198.117518,761.658044,-18069.038459,12108.029378,11471.049365,-8666.151305,1398.571002,21382.572816,12849.973184,-41.730707,4739.262729,0.012000,-0.026000,1.002000,192.000000,0.000000,48.000000,127.500000,24.000000,15.500000,40.000000,0.000000,0.000000,0.000000,1769525214.643802,0.000000
10.000000,15762.807818,14552.885539,4966.892894,-1681.678198,6214.947249,-10182.694815,811.502434,-18005.738319,12193.927132,11467.115458,-8713.604058,1362.852915,21377.163694,12828.828434,-84.780167,4723.616507,0.012000,-0.026000,1.002000,192.000000,0.000000,0.000000,0.000000,0.000000,0.000000,0.000000,0.000000,0.000000,0.000000,1769525214.643814,0.000000
12.000000,15736.566870,14537.351076,4956.879313,-1694.686913,6203.749025,-10185.913466,798.918402,-18019.708159,12081.341396,11492.574095,-8627.169863,1424.141398,21413.284113,12880.215094,-16.875567,4761.592121,0.012000,-0.026000,1.002000,192.000000,0.000000,0.000000,0.000000,0.000000,0.000000,0.000000,0.000000,0.000000,0.000000,1769525214.643825,0.000000
14.000000,15764.037164,14542.290812,4918.099036,-1734.227149,6214.746084,-10199.615085,762.574466,-18069.016107,12178.012690,11466.020222,-8716.733303,1358.941359,21371.553406,12831.532995,-89.295219,4717.179205,0.012000,-0.026000,1.002000,192.000000,0.000000,0.000000,0.000000,0.000000,0.000000,0.000000,0.000000,0.000000,0.000000,1769525214.643837,0.000000
16.000000,15747.072190,14541.955536,4987.054168,-1658.544142,6209.180499,-10151.938814,830.255548,-17980.704365,12123.630896,11494.719862,-8655.556578,1409.031619,21405.326892,12873.777792,-34.935777,4758.820505,0.012000,-0.026000,1.002000,192.000000,0.000000,0.000000,0.000000,0.000000,0.000000,0.000000,0.000000,0.000000,0.000000,1769525214.643849,0.000000
18.000000,15747.094541,14539.474492,4918.501367,-1732.193140,6200.128043,-10190.383815,763.580294,-18066.468008,12110.286905,11484.102784,-8666.240712,1399.129796,21391.625272,12860.925539,-45.686966,4747.711688,0.012000,-0.022000,1.006000,192.000000,0.000000,48.000000,127.500000,40.000000,15.500000,56.000000,0.000000,0.000000,0.000000,1769525214.643861,0.000000
20.000000,15768.753382,14552.684373,4973.374900,-1679.532430,6228.358296,-10172.055384,812.664725,-18001.446784,12199.716234,11474.357423,-8709.692503,1362.674101,21398.710775,12841.434817,-82.813213,4725.941089,0.012000,-0.022000,1.006000,192.000000,0.000000,0.000000,0.000000,0.000000,0.000000,0.000000,0.000000,0.000000,0.000000,1769525214.643872,0.000000
22.000000,15740.366666,14524.275306,4959.852095,-1694.351637,6206.833566,-10171.898922,799.812472,-18018.434110,12077.988634,11486.136792,-8630.567328,1424.722543,21400.387156,12875.700042,0.536442,4772.276255,0.012000,-0.022000,1.006000,192.000000,0.000000,0.000000,0.000000,0.000000,0.000000,0.000000,0.000000,0.000000,0.000000,1769525214.643884,0.000000
24.000000,15758.248062,14548.705762,4924.379876,-1732.573120,6216.735389,-10190.853201,765.614303,-18062.668212,12184.248827,11459.895844,-8713.022913,1363.299950,21377.588377,12828.135530,-79.192231,4724.734095,0.012000,-0.022000,1.006000,192.000000,0.000000,0.000000,0.000000,0.000000,0.000000,0.000000,0.000000,0.000000,0.000000,1769525214.643895,0.000000
26.000000,15767.367574,14544.905966,4994.005560,-1663.662692,6218.769398,-10154.129285,829.920272,-17980.190275,12134.002105,11489.668368,-8649.342793,1405.656505,21406.757403,12870.045050,-33.907596,4765.458973,0.012000,-0.022000,1.006000,192.000000,0.000000,0.000000,0.000000,0.000000,0.000000,0.000000,0.000000,0.000000,0.000000,1769525214.643908,0.000000
28.000000,15742.467730,14536.144082,4921.608260,-1741.178541,6204.508985,-10194.608294,761.009843,-18069.843122,12119.786396,11470.602330,-8666.285415,1393.430101,21389.837133,12856.343431,-33.795838,4747.130543,0.010000,-0.022000,1.008000,192.000000,0.000000,32.000000,127.500000,40.000000,15.500000,72.000000,0.000000,0.000000,0.000000,1769525214.643920,0.000000
30.000000,15758.829207,14555.210120,4974.581894,-1685.790919,6226.592508,-10161.728878,813.067056,-18001.603246,12207.941676,11467.137810,-8709.267820,1358.829601,21381.611691,12838.171463,-75.884172,4726.097551,0.010000,-0.022000,1.008000,192.000000,0.000000,0.000000,0.000000,0.000000,0.000000,0.000000,0.000000,0.000000,0.000000,1769525214.643932,0.000000
32.000000,15745.753437,14530.444387,4960.679109,-1698.352599,6206.811214,-10178.336224,801.064170,-18017.540040,12087.801050,11493.937551,-8627.393380,1424.297860,21419.922581,12883.701966,-9.991230,4767.492982,0.010000,-0.022000,1.008000,192.000000,0.000000,0.000000,0.000000,0.000000,0.000000,0.000000,0.000000,0.000000,0.000000,1769525214.643943,0.000000
34.000000,15754.761190,14549.108094,4921.898833,-1738.406925,6217.920031,-10205.113614,764.273198,-18064.165779,12182.863019,11458.197112,-8713.045265,1356.303854,21376.448438,12822.793463,-80.890963,4717.559185,0.010000,-0.022000,1.008000,192.000000,0.000000,0.000000,0.000000,0.000000,0.000000,0.000000,0.000000,0.000000,0.000000,1769525214.643955,0.000000
36.000000,15750.603765,14536.658172,4991.189240,-1666.031976,6223.105636,-10153.570492,830.009679,-17981.374917,12138.181882,11489.914237,-8650.281566,1404.807139,21417.642703,12869.754478,-22.977593,4750.013918,0.010000,-0.022000,1.008000,192.000000,0.000000,0.000000,0.000000,0.000000,0.000000,0.000000,0.000000,0.000000,0.000000,1769525214.643966,0.000000
38.000000,15729.146091,14529.170338,4918.523719,-1740.753858,6207.079435,-10201.805556,759.936960,-18071.921834,12116.500690,11471.742269,-8669.906398,1388.445662,21389.881836,12856.835169,-43.831771,4746.124714,0.009000,-0.021000,1.008000,192.000000,0.000000,32.000000,127.500000,48.000000,15.500000,64.000000,0.000000,0.000000,0.000000,1769525214.643978,0.000000
40.000000,15770.206245,14548.996335,4973.218438,-1682.661674,6233.074514,-10163.829942,810.831882,-18004.240752,12205.460632,11469.574150,-8712.128843,1359.142525,21387.758420,12834.997515,-79.952190,4721.493092,0.009000,-0.021000,1.008000,192.000000,0.000000,0.000000,0.000000,0.000000,0.000000,0.000000,0.000000,0.000000,0.000000,1769525214.643989,0.000000
42.000000,15728.609649,14524.677637,4962.780173,-1693.390512,6214.097883,-10171.384832,799.119568,-18018.389406,12094.104242,11495.546877,-8627.907470,1425.057819,21417.620351,12890.206324,-6.705523,4767.872962,0.009000,-0.021000,1.008000,192.000000,0.000000,0.000000,0.000000,0.000000,0.000000,0.000000,0.000000,0.000000,0.000000,1769525214.644001,0.000000
44.000000,15760.885568,14539.720361,4926.659754,-1733.511893,6225.072590,-10186.405204,762.976797,-18066.803285,12189.367376,11462.555702,-8712.955858,1359.477801,21392.496990,12831.153015,-78.365216,4723.303583,0.009000,-0.021000,1.008000,192.000000,0.000000,0.000000,0.000000,0.000000,0.000000,0.000000,0.000000,0.000000,0.000000,1769525214.644013,0.000000
46.000000,15743.428855,14541.888480,4997.827708,-1658.231218,6229.587642,-10146.708506,832.043687,-17978.089211,12143.143969,11498.743176,-8649.789828,1410.864462,21422.940066,12878.918693,-21.122399,4757.389993,0.009000,-0.021000,1.008000,192.000000,0.000000,0.000000,0.000000,0.000000,0.000000,0.000000,0.000000,0.000000,0.000000,1769525214.644025,0.000000
48.000000,15740.836053,14538.714533,4922.077647,-1731.611995,6211.572136,-10189.713262,762.507410,-18067.116209,12133.644478,11486.382662,-8661.166866,1401.655543,21412.792374,12868.480428,-40.009623,4750.863284,0.007500,-0.020500,1.008000,192.000000,0.000000,24.000000,127.500000,48.000000,15.500000,64.000000,0.000000,0.000000,0.000000,1769525214.644037,0.000000
50.000000,15774.318966,14560.999222,4973.218438,-1680.761776,6241.948157,-10163.584073,810.541309,-18004.039586,12219.586935,11487.053214,-8709.267820,1365.222200,21391.580569,12852.029544,-90.636324,4729.204444,0.007500,-0.020500,1.008000,192.000000,0.000000,0.000000,0.000000,0.000000,0.000000,0.000000,0.000000,0.000000,0.000000,1769525214.644049,0.000000
52.000000,15740.634887,14527.426902,4958.063955,-1692.183517,6213.516738,-10160.052497,796.929097,-18020.512822,12093.590151,11499.503136,-8627.952174,1425.884834,21421.844831,12890.765117,0.290573,4769.057604,0.007500,-0.020500,1.008000,192.000000,0.000000,0.000000,0.000000,0.000000,0.000000,0.000000,0.000000,0.000000,0.000000,1769525214.644061,0.000000
54.000000,15748.837978,14547.789341,4919.484844,-1732.304899,6231.085209,-10182.694815,760.071070,-18066.020973,12189.613246,11469.775315,-8712.262954,1368.083223,21393.122839,12843.647640,-77.158222,4726.186958,0.007500,-0.020500,1.008000,192.000000,0.000000,0.000000,0.000000,0.000000,0.000000,0.000000,0.000000,0.000000,0.000000,1769525214.644073,0.000000
56.000000,15742.668896,14550.270385,4991.546868,-1660.376985,6229.006497,-10151.268262,828.400353,-17981.285510,12146.161454,11501.581848,-8646.526473,1412.451436,21418.156793,12884.037242,-30.510131,4759.736927,0.007500,-0.020500,1.008000,192.000000,0.000000,0.000000,0.000000,0.000000,0.000000,0.000000,0.000000,0.000000,0.000000,1769525214.644086,0.000000
58.000000,15736.969201,14521.190765,4914.634516,-1737.825780,6208.465243,-10190.249704,757.701785,-18077.688584,12118.266477,11477.441964,-8669.794639,1390.993761,21393.279301,12869.083925,-40.948396,4751.310319,0.006750,-0.021250,1.008000,192.000000,0.000000,24.000000,127.500000,40.000000,15.500000,64.000000,0.000000,0.000000,0.000000,1769525215.123090,0.000000
60.000000,15745.306402,14549.800998,4971.519705,-1681.946419,6236.583738,-10157.303233,810.854234,-18010.007502,12203.314865,11473.575112,-8712.777044,1354.247493,21382.282243,12844.184082,-82.097957,4730.992583,0.006750,-0.021250,1.008000,192.000000,0.000000,0.000000,0.000000,0.000000,0.000000,0.000000,0.000000,0.000000,0.000000,1769525215.123149,0.000000
62.000000,15731.694190,14526.331666,4960.790868,-1693.748140,6214.477863,-10162.868817,799.521899,-18024.267915,12086.728166,11494.965731,-8625.806406,1420.699229,21417.083909,12897.403586,-12.561680,4770.443412,0.006750,-0.021250,1.008000,192.000000,0.000000,0.000000,0.000000,0.000000,0.000000,0.000000,0.000000,0.000000,0.000000,1769525215.123206,0.000000
64.000000,15747.563928,14538.960402,4918.680181,-1737.579910,6221.943345,-10191.255533,760.361643,-18074.469933,12183.712385,11465.439077,-8714.967515,1358.740194,21381.499932,12843.111198,-81.136832,4725.985792,0.006750,-0.021250,1.008000,192.000000,0.000000,0.000000,0.000000,0.000000,0.000000,0.000000,0.000000,0.000000,0.000000,1769525215.123244,0.000000
66.000000,15748.659164,14541.888480,4989.848136,-1664.824982,6223.731485,-10147.937852,825.584033,-17986.359356,12134.605603,11490.361272,-8655.556578,1398.928630,21421.062520,12885.154830,-25.615099,4762.508543,0.006750,-0.021250,1.008000,192.000000,0.000000,0.000000,0.000000,0.000000,0.000000,0.000000,0.000000,0.000000,0.000000,1769525215.123281,0.000000
68.000000,15736.455111,14531.092588,4923.239937,-1738.541035,6215.461339,-10201.872611,759.221704,-18071.050116,12119.696989,11477.486667,-8665.883084,1392.066645,21397.839057,12865.239425,-36.746268,4753.724307,0.009375,-0.018625,1.007000,192.000000,0.000000,48.000000,127.500000,64.000000,15.500000,56.000000,0.000000,0.000000,0.000000,1769525215.123318,0.000000
70.000000,15757.555158,14559.680469,4979.767499,-1678.660712,6248.698383,-10158.621986,814.162292,-17997.803449,12210.310961,11477.911350,-8703.009332,1361.176534,21387.221979,12851.649565,-78.611085,4724.287060,0.009375,-0.018625,1.007000,192.000000,0.000000,0.000000,0.000000,0.000000,0.000000,0.000000,0.000000,0.000000,0.000000,1769525215.123344,0.000000
72.000000,15748.793274,14528.298620,4965.060051,-1695.960962,6219.305839,-10169.551989,799.208975,-18018.769386,12096.495878,11500.710130,-8616.910412,1427.561215,21431.098453,12895.190763,-12.695791,4771.628055,0.009375,-0.018625,1.007000,192.000000,0.000000,0.000000,0.000000,0.000000,0.000000,0.000000,0.000000,0.000000,0.000000,1769525215.123356,0.000000
74.000000,15760.751457,14559.322841,4926.257423,-1732.796637,6228.559462,-10192.216658,762.418003,-18061.908252,12192.340159,11468.009528,-8709.670151,1359.097822,21389.814781,12836.964469,-77.940533,4724.220005,0.009375,-0.018625,1.007000,192.000000,0.000000,0.000000,0.000000,0.000000,0.000000,0.000000,0.000000,0.000000,0.000000,1769525215.123368,0.000000
76.000000,15748.480350,14554.494864,4996.978342,-1658.901770,6230.749933,-10155.470390,830.724934,-17971.249577,12146.586138,11501.648903,-8642.212587,1415.290107,21437.826328,12886.540638,-31.404201,4756.808848,0.009375,-0.018625,1.007000,192.000000,0.000000,0.000000,0.000000,0.000000,0.000000,0.000000,0.000000,0.000000,0.000000,1769525215.123380,0.000000
78.000000,15757.108123,14533.171300,4922.770551,-1736.752896,6215.483691,-10189.422690,760.853381,-18064.009316,12123.340323,11484.773336,-8658.752878,1404.807139,21408.634950,12871.699079,-44.904655,4748.538703,0.010688,-0.017313,1.007500,192.000000,0.000000,48.000000,127.500000,64.000000,15.500000,64.000000,0.000000,0.000000,0.000000,1769525215.123391,0.000000
80.000000,15768.909844,14561.826236,4976.548848,-1682.974599,6244.786828,-10146.082657,811.748303,-17998.272836,12211.428548,11479.967711,-8702.629352,1371.011301,21399.984825,12854.376478,-83.975504,4723.415342,0.010688,-0.017313,1.007500,192.000000,0.000000,0.000000,0.000000,0.000000,0.000000,0.000000,0.000000,0.000000,0.000000,1769525215.123403,0.000000
82.000000,15728.363780,14525.638762,4962.176676,-1698.129082,6218.300011,-10163.204093,796.437358,-18022.010389,12095.914733,11499.860764,-8623.548880,1424.119046,21431.701950,12898.655283,-6.102026,4775.807831,0.010688,-0.017313,1.007500,192.000000,0.000000,0.000000,0.000000,0.000000,0.000000,0.000000,0.000000,0.000000,0.000000,1769525215.123415,0.000000
84.000000,15749.687344,14540.525024,4919.775417,-1739.569216,6227.799502,-10198.050463,759.221704,-18072.882959,12187.489830,11460.521693,-8719.147291,1354.336900,21390.865313,12836.651544,-75.772414,4725.672868,0.010688,-0.017313,1.007500,192.000000,0.000000,0.000000,0.000000,0.000000,0.000000,0.000000,0.000000,0.000000,0.000000,1769525215.123427,0.000000
86.000000,15745.596975,14533.238355,4991.524517,-1662.969787,6231.174616,-10157.794971,827.036897,-17984.705327,12135.119693,11489.735423,-8655.668337,1403.801311,21422.314217,12880.639777,-24.922195,4753.031403,0.010688,-0.017313,1.007500,192.000000,0.000000,0.000000,0.000000,0.000000,0.000000,0.000000,0.000000,0.000000,0.000000,1769525215.123438,0.000000
88.000000,15746.803969,14528.633896,4923.888138,-1736.082344,6218.322363,-10192.864858,759.869905,-18069.843122,12118.691161,11481.085298,-8666.106601,1396.894621,21408.947874,12871.788486,-41.775410,4747.085839,0.009344,-0.017656,1.005750,192.000000,0.000000,32.000000,127.500000,56.000000,15.500000,48.000000,0.000000,0.000000,0.000000,1769525215.123450,0.000000
90.000000,15762.114914,14559.389896,4974.268970,-1683.578096,6242.238729,-10165.931006,808.909632,-18004.620731,12206.600571,11472.949263,-8710.765387,1362.249418,21397.481429,12844.072323,-75.437138,4724.868205,0.009344,-0.017656,1.005750,192.000000,0.000000,0.000000,0.000000,0.000000,0.000000,0.000000,0.000000,0.000000,0.000000,1769525215.123469,0.000000
92.000000,15750.246137,14528.119806,4964.881237,-1698.643172,6224.491444,-10177.419803,797.174966,-18019.998732,12091.176163,11498.385548,-8627.482787,1422.554424,21431.657247,12894.341397,-5.677343,4766.755374,0.009344,-0.017656,1.005750,192.000000,0.000000,0.000000,0.000000,0.000000,0.000000,0.000000,0.000000,0.000000,0.000000,1769525215.123480,0.000000
94.000000,15749.329716,14538.736884,4924.938670,-1738.071649,6232.649831,-10198.296332,760.093422,-18069.396087,12189.389728,11466.288443,-8712.508823,1360.640092,21395.469772,12835.869233,-74.945399,4718.654420,0.009344,-0.017656,1.005750,192.000000,0.000000,0.000000,0.000000,0.000000,0.000000,0.000000,0.000000,0.000000,0.000000,1769525215.123492,0.000000
96.000000,15758.762152,14541.486149,4996.196031,-1661.539276,6238.058953,-10130.436436,827.774504,-17981.285510,12143.434542,11500.263095,-8649.208683,1408.562232,21430.718473,12891.458022,-30.890111,4759.781630,0.009344,-0.017656,1.005750,192.000000,0.000000,0.000000,0.000000,0.000000,0.000000,0.000000,0.000000,0.000000,0.000000,1769525215.123504,0.000000
98.000000,15736.365704,14521.168413,4923.262289,-1739.658623,6220.825758,-10185.935817,757.992358,-18074.224064,12124.569669,11485.153316,-8662.575026,1398.079264,21415.921618,12876.169428,-35.695736,4749.365717,0.009344,-0.017656,1.005750,192.000000,0.000000,0.000000,0.000000,0.000000,0.000000,0.000000,0.000000,0.000000,0.000000,1769525215.123515,0.000000
100.000000,15766.562911,14546.202367,4974.648949,-1687.310837,6247.044354,-10166.579207,808.239080,-18007.928790,12212.188508,11474.402127,-8712.374713,1356.817944,21406.399775,12843.379419,-73.559591,4723.616507,0.006000,-0.018000,1.010000,192.000000,0.000000,24.000000,127.500000,56.000000,15.500000,72.000000,0.000000,0.000000,0.000000,1769525215.123527,0.000000
102.000000,15759.812684,14532.567803,4964.367147,-1696.631515,6227.240709,-10173.731765,799.253678,-18018.657627,12092.181992,11500.039577,-8622.967735,1421.995631,21427.410415,12895.838963,-9.924175,4766.397746,0.006000,-0.018000,1.010000,192.000000,0.000000,0.000000,0.000000,0.000000,0.000000,0.000000,0.000000,0.000000,0.000000,1769525215.123538,0.000000
104.000000,15742.288916,14535.808806,4920.758894,-1740.418582,6227.620688,-10194.675350,760.585160,-18069.843122,12186.774574,11473.753926,-8710.340704,1359.164877,21395.939159,12845.569890,-79.147527,4719.772007,0.006000,-0.018000,1.010000,192.000000,0.000000,0.000000,0.000000,0.000000,0.000000,0.000000,0.000000,0.000000,0.000000,1769525215.123550,0.000000
106.000000,15739.472597,14528.969172,4989.512860,-1668.691834,6221.920994,-10159.761925,826.142827,-17985.957025,12131.901041,11488.573133,-8656.875331,1395.262944,21419.319084,12874.180123,-31.828884,4757.479400,0.006000,-0.018000,1.010000,192.000000,0.000000,0.000000,0.000000,0.000000,0.000000,0.000000,0.000000,0.000000,0.000000,1769525215.123561,0.000000
108.000000,15734.085826,14516.116919,4918.166091,-1741.066783,6213.270868,-10199.011588,758.953483,-18074.358174,12115.897192,11470.870551,-8668.252369,1390.971409,21398.710775,12862.959547,-39.272015,4744.090705,0.006000,-0.018000,1.010000,192.000000,0.000000,0.000000,0.000000,0.000000,0.000000,0.000000,0.000000,0.000000,0.000000,1769525215.123573,0.000000
110.000000,15749.642640,14544.213062,4971.564409,-1686.148546,6236.293165,-10178.582094,809.110798,-18010.186316,12197.838688,11463.583882,-8721.024838,1353.867513,21383.645699,12839.400809,-84.556649,4722.521272,0.008000,-0.020000,1.010000,192.000000,0.000000,32.000000,127.500000,48.000000,15.500000,72.000000,0.000000,0.000000,0.000000,1769525215.123585,0.000000
112.000000,15736.008076,14524.342361,4960.053260,-1697.883212,6214.209642,-10177.620969,798.650181,-18024.267915,12086.236428,11492.104708,-8627.974525,1417.257061,21426.493994,12900.644589,-12.271108,4762.352081,0.008000,-0.020000,1.010000,192.000000,0.000000,0.000000,0.000000,0.000000,0.000000,0.000000,0.000000,0.000000,0.000000,1769525215.123596,0.000000
114.000000,15740.523129,14536.725227,4921.585908,-1738.764553,6226.748970,-10193.244838,761.926265,-18072.637090,12178.191504,11454.285557,-8720.153120,1349.866551,21381.969319,12832.583527,-78.007588,4723.303583,0.008000,-0.020000,1.010000,192.000000,0.000000,0.000000,0.000000,0.000000,0.000000,0.000000,0.000000,0.000000,0.000000,1769525215.123608,0.000000
116.000000,15741.506605,14534.959440,4992.887973,-1659.929950,6225.609031,-10148.742515,831.283728,-17978.938577,12138.204233,11489.646016,-8652.561444,1403.510738,21414.625217,12872.146114,-24.497512,4756.607682,0.008000,-0.020000,1.010000,192.000000,0.000000,0.000000,0.000000,0.000000,0.000000,0.000000,0.000000,0.000000,0.000000,1769525215.123619,0.000000
118.000000,15750.156730,14525.035265,4919.328382,-1734.651832,6212.287392,-10189.154469,762.060375,-18068.546721,12115.047826,11478.716013,-8661.479790,1402.102578,21402.354110,12867.631062,-43.317681,4751.019746,0.008000,-0.020000,1.010000,192.000000,0.000000,0.000000,0.000000,0.000000,0.000000,0.000000,0.000000,0.000000,0.000000,1769525215.123631,0.000000
120.000000,15759.276242,14549.018687,4971.832630,-1680.940590,6240.964680,-10163.941701,811.971821,-18003.033758,12205.125356,11475.810286,-8712.911154,1366.272732,21392.631101,12842.775922,-80.131004,4724.175301,0.010000,-0.024000,1.008000,192.000000,0.000000,40.000000,127.500000,32.000000,15.500000,64.000000,0.000000,0.000000,0.000000,1769525215.123642,0.000000
122.000000,15723.982838,14517.390968,4957.751031,-1697.212660,6210.342790,-10177.151582,798.694885,-18023.329142,12086.147021,11496.217429,-8631.327287,1428.656450,21419.900229,12890.094565,-7.152558,4766.956540,0.010000,-0.024000,1.008000,192.000000,0.000000,0.000000,0.000000,0.000000,0.000000,0.000000,0.000000,0.000000,0.000000,1769525215.123655,0.000000
124.000000,15751.989573,14539.742713,4919.529548,-1735.680012,6226.413694,-10194.138908,762.350948,-18066.758581,12178.236208,11463.203903,-8718.499090,1359.500153,21382.014022,12833.231727,-86.434196,4722.253051,0.010000,-0.024000,1.008000,192.000000,0.000000,0.000000,0.000000,0.000000,0.000000,0.000000,0.000000,0.000000,0.000000,1769525215.123667,0.000000
126.000000,15742.154806,14541.933184,4994.743168,-1659.013529,6229.364124,-10165.528675,831.551949,-17976.256368,12145.133274,11495.368063,-8649.789828,1409.031619,21423.364749,12884.596036,-30.510131,4752.852589,0.010000,-0.024000,1.008000,192.000000,0.000000,0.000000,0.000000,0.000000,0.000000,0.000000,0.000000,0.000000,0.000000,1769525215.123679,0.000000
128.000000,15735.605745,14527.426902,4920.445969,-1737.021117,6213.159110,-10205.359483,761.076899,-18069.664308,12120.658114,11480.481801,-8661.032755,1402.616668,21422.090700,12871.833190,-38.243835,4745.565921,0.010000,-0.024000,1.008000,192.000000,0.000000,0.000000,0.000000,0.000000,0.000000,0.000000,0.000000,0.000000,0.000000,1769525215.123690,0.000000
130.000000,15763.523074,14553.913719,4969.061013,-1681.164107,6237.388401,-10150.731820,810.362495,-18005.671263,12207.494641,11477.218446,-8712.687637,1362.495287,21376.560196,12853.460056,-78.991065,4721.448388,0.008000,-0.022000,1.010000,192.000000,0.000000,32.000000,127.500000,40.000000,15.500000,72.000000,0.000000,0.000000,0.000000,1769525215.123702,0.000000
132.000000,15738.578527,14534.467701,4955.024118,-1691.915297,6207.973505,-10161.930044,800.147748,-18022.010389,12091.310274,11495.636284,-8627.371028,1428.924671,21414.938142,12898.320007,-14.238061,4769.303473,0.008000,-0.022000,1.010000,192.000000,0.000000,0.000000,0.000000,0.000000,0.000000,0.000000,0.000000,0.000000,0.000000,1769525215.123713,0.000000
134.000000,15755.208225,14547.364658,4918.076684,-1732.729582,6227.084247,-10187.835716,762.529762,-18069.194921,12180.247865,11464.723821,-8718.409684,1357.577903,21372.894510,12836.539785,-80.131004,4724.443522,0.008000,-0.022000,1.010000,192.000000,0.000000,0.000000,0.000000,0.000000,0.000000,0.000000,0.000000,0.000000,0.000000,1769525215.123724,0.000000
136.000000,15746.111065,14537.239318,4987.903534,-1661.047537,6220.222261,-10156.677384,827.439228,-17984.772382,12140.461760,11491.925894,-8653.231997,1401.141453,21411.227752,12882.226751,-27.671460,4761.860342,0.008000,-0.022000,1.010000,192.000000,0.000000,0.000000,0.000000,0.000000,0.000000,0.000000,0.000000,0.000000,0.000000,1769525215.123736,0.000000
138.000000,15734.689323,14512.652399,4916.377952,-1736.149399,6204.643095,-10196.754062,759.199352,-18073.687622,12116.612448,11472.166952,-8669.191142,1394.458281,21390.887665,12865.239425,-42.803591,4752.427906,0.008000,-0.022000,1.010000,192.000000,0.000000,0.000000,0.000000,0.000000,0.000000,0.000000,0.000000,0.000000,0.000000,1769525215.123747,0.000000
140.000000,15762.561949,14547.856396,4969.016310,-1681.342921,6241.277604,-10172.033032,809.244908,-18007.794679,12198.442185,11471.518752,-8714.028742,1360.170705,21391.021775,12841.457169,-80.041597,4722.074237,0.008000,-0.016000,1.012000,192.000000,0.000000,32.000000,127.500000,64.000000,15.500000,80.000000,0.000000,0.000000,0.000000,1769525215.123759,0.000000
142.000000,15749.240309,14527.292791,4961.394365,-1689.054273,6218.143549,-10164.388736,801.913536,-18016.690673,12090.952646,11494.697511,-8628.421560,1423.783770,21408.411432,12890.988635,-7.934869,4766.911836,0.008000,-0.016000,1.012000,192.000000,0.000000,0.000000,0.000000,0.000000,0.000000,0.000000,0.000000,0.000000,0.000000,1769525215.123770,0.000000
144.000000,15750.022620,14538.491015,4919.127216,-1733.377783,6226.525453,-10187.366329,761.725099,-18070.379564,12189.792060,11471.563455,-8711.972381,1360.975368,21376.023755,12848.475617,-83.282600,4723.504749,0.008000,-0.016000,1.012000,192.000000,0.000000,0.000000,0.000000,0.000000,0.000000,0.000000,0.000000,0.000000,0.000000,1769525215.123782,0.000000
146.000000,15757.890434,14538.088684,4991.859793,-1662.992139,6230.571119,-10162.086506,827.618042,-17982.447801,12142.898100,11492.730557,-8654.126066,1401.141453,21415.072252,12883.612559,-27.023259,4764.542552,0.008000,-0.016000,1.012000,192.000000,0.000000,0.000000,0.000000,0.000000,0.000000,0.000000,0.000000,0.000000,0.000000,1769525215.123817,0.000000
148.000000,15748.122722,14536.568765,4917.808463,-1737.602262,6216.087188,-10175.765774,758.707614,-18072.324165,12118.557050,11479.654787,-8665.167828,1395.665276,21404.835153,12879.209266,-35.986309,4752.316147,0.008000,-0.016000,1.012000,192.000000,0.000000,0.000000,0.000000,0.000000,0.000000,0.000000,0.000000,0.000000,0.000000,1769525215.123828,0.000000
150.000000,15779.526923,14558.473475,4969.105717,-1680.918238,6239.221244,-10140.718238,809.088446,-18006.475926,12210.534478,11480.504153,-8714.364018,1362.227066,21390.597092,12847.916823,-78.141699,4727.237490,0.006000,-0.022000,1.008000,192.000000,0.000000,24.000000,127.500000,40.000000,15.500000,64.000000,0.000000,0.000000,0.000000,1769525215.123840,0.000000
152.000000,15735.516338,14526.510480,4960.187371,-1692.854070,6221.339848,-10161.818285,801.645315,-18017.741205,12094.551277,11504.621685,-8627.952174,1428.477636,21426.337531,12895.503687,-6.772579,4766.107174,0.006000,-0.022000,1.008000,192.000000,0.000000,0.000000,0.000000,0.000000,0.000000,0.000000,0.000000,0.000000,0.000000,1769525215.123851,0.000000
154.000000,15755.610556,14542.044943,4917.428484,-1737.065820,6225.184348,-10196.485841,761.412175,-18070.267805,12186.416946,11469.574150,-8712.531175,1363.367005,21371.396943,12840.563099,-74.207792,4723.191824,0.006000,-0.022000,1.008000,192.000000,0.000000,0.000000,0.000000,0.000000,0.000000,0.000000,0.000000,0.000000,0.000000,1769525215.123864,0.000000
156.000000,15750.089675,14545.688277,4992.016255,-1661.181648,6229.811159,-10158.063192,830.702583,-17979.027984,12138.383047,11501.179516,-8653.231997,1404.427159,21407.137383,12883.880780,-24.564567,4752.919644,0.006000,-0.022000,1.008000,192.000000,0.000000,0.000000,0.000000,0.000000,0.000000,0.000000,0.000000,0.000000,0.000000,1769525215.123876,0.000000
158.000000,15742.288916,14525.348190,4913.762798,-1737.110524,6201.782072,-10200.106823,759.914608,-18073.106476,12119.205251,11479.967711,-8668.453535,1395.709979,21400.007176,12867.519303,-41.842466,4749.812752,0.006000,-0.022000,1.008000,192.000000,0.000000,0.000000,0.000000,0.000000,0.000000,0.000000,0.000000,0.000000,0.000000,1769525215.123887,0.000000
160.000000,15763.120742,14542.804902,4965.529438,-1686.863802,6235.577909,-10169.551989,807.277954,-18011.214496,12197.078728,11465.886112,-8719.907250,1361.601217,21385.679708,12841.658335,-77.404091,4723.594156,0.012000,-0.022000,1.004000,192.000000,0.000000,48.000000,127.500000,40.000000,15.500000,48.000000,0.000000,0.000000,0.000000,1769525215.123899,0.000000
162.000000,15742.423027,14523.627105,4956.879313,-1695.692741,6221.630421,-10174.067041,798.069036,-18020.155194,12077.027509,11489.064871,-8630.053238,1423.470846,21420.839002,12887.591170,-3.017486,4765.436621,0.012000,-0.022000,1.004000,192.000000,0.000000,0.000000,0.000000,0.000000,0.000000,0.000000,0.000000,0.000000,0.000000,1769525215.123910,0.000000
164.000000,15776.777658,14547.744637,4919.373085,-1734.003631,6237.969546,-10193.133079,762.105079,-18064.344593,12179.689071,11466.936644,-8714.498128,1365.512772,21377.834246,12840.496044,-78.767547,4720.040228,0.012000,-0.022000,1.004000,192.000000,0.000000,0.000000,0.000000,0.000000,0.000000,0.000000,0.000000,0.000000,0.000000,1769525215.123921,0.000000
166.000000,15741.193681,14534.422998,4988.238810,-1667.842468,6230.057029,-10156.431515,825.293461,-17986.091135,12141.489940,11498.542011,-8653.276700,1411.937345,21407.271493,12890.832173,-24.318698,4753.634900,0.012000,-0.022000,1.004000,192.000000,0.000000,0.000000,0.000000,0.000000,0.000000,0.000000,0.000000,0.000000,0.000000,1769525215.123933,0.000000
168.000000,15748.390943,14526.845756,4918.747237,-1738.071649,6221.362200,-10185.287617,757.366509,-18075.453410,12112.969114,11473.038670,-8672.096869,1393.452453,21398.554313,12859.003289,-26.240948,4749.186903,0.012000,-0.022000,1.004000,192.000000,0.000000,0.000000,0.000000,0.000000,0.000000,0.000000,0.000000,0.000000,0.000000,1769525215.123944,0.000000
170.000000,15767.904016,14557.288832,4975.587723,-1682.259343,6244.786828,-10149.569529,810.183681,-18003.816069,12205.103005,11476.860818,-8713.134672,1365.021034,21388.831304,12841.747742,-66.004701,4720.755484,0.010000,-0.019000,1.004000,192.000000,0.000000,32.000000,127.500000,64.000000,15.500000,48.000000,0.000000,0.000000,0.000000,1769525215.123955,0.000000
172.000000,15742.266565,14520.140233,4956.722850,-1696.117425,6216.288354,-10171.250721,797.398483,-18021.675112,12095.266532,11499.234915,-8626.968697,1427.650622,21428.930334,12896.598923,-8.985401,4771.739813,0.010000,-0.019000,1.004000,192.000000,0.000000,0.000000,0.000000,0.000000,0.000000,0.000000,0.000000,0.000000,0.000000,1769525215.123967,0.000000
174.000000,15752.816588,14540.927355,4921.720019,-1738.116352,6229.207662,-10195.591771,760.898085,-18067.786761,12187.311016,11456.118400,-8715.056922,1359.589560,21382.014022,12835.533957,-71.302065,4724.845853,0.010000,-0.019000,1.004000,192.000000,0.000000,0.000000,0.000000,0.000000,0.000000,0.000000,0.000000,0.000000,0.000000,1769525215.123978,0.000000
176.000000,15778.990481,14545.911794,4992.575049,-1661.583979,6236.740200,-10157.347936,829.294423,-17978.357432,12142.562824,11499.100804,-8647.152322,1405.790616,21438.228659,12879.991577,-30.398372,4755.221874,0.010000,-0.019000,1.004000,192.000000,0.000000,0.000000,0.000000,0.000000,0.000000,0.000000,0.000000,0.000000,0.000000,1769525215.123989,0.000000
178.000000,15745.395809,14529.460910,4921.675315,-1731.008498,6226.503101,-10190.249704,763.513239,-18062.578805,12125.776664,11479.319510,-8657.255311,1406.774093,21403.002310,12870.514437,-31.247739,4748.158723,0.010000,-0.019000,1.004000,192.000000,0.000000,0.000000,0.000000,0.000000,0.000000,0.000000,0.000000,0.000000,0.000000,1769525215.603418,0.000000
180.000000,15778.163466,14566.341289,4972.436127,-1678.995988,6248.094886,-10160.164256,810.764827,-18001.804412,12214.222516,11477.486667,-8707.502032,1372.285351,21392.228769,12846.039277,-64.641245,4723.035362,0.008000,-0.020500,1.004000,192.000000,0.000000,24.000000,127.500000,40.000000,15.500000,48.000000,0.000000,0.000000,0.000000,1769525215.603485,0.000000
182.000000,15753.710658,14533.305411,4959.338005,-1691.892945,6219.261136,-10169.842561,798.560774,-18018.456461,12097.144079,11497.402072,-8628.645078,1431.629232,21431.679598,12898.610580,-2.950430,4772.432717,0.008000,-0.020500,1.004000,192.000000,0.000000,0.000000,0.000000,0.000000,0.000000,0.000000,0.000000,0.000000,0.000000,1769525215.603526,0.000000
184.000000,15756.728143,14547.543472,4925.497463,-1731.500236,6236.829607,-10197.066986,762.574466,-18062.779971,12189.702653,11463.829751,-8709.603096,1370.720729,21397.906112,12839.713733,-74.744233,4719.950821,0.008000,-0.020500,1.004000,192.000000,0.000000,0.000000,0.000000,0.000000,0.000000,0.000000,0.000000,0.000000,0.000000,1769525215.603568,0.000000
186.000000,15748.815626,14541.821425,4993.759691,-1659.371157,6232.091037,-10154.151637,827.998022,-17979.966757,12150.497693,11495.837450,-8645.140665,1415.535976,21429.064444,12884.216056,-23.804608,4751.824409,0.008000,-0.020500,1.004000,192.000000,0.000000,0.000000,0.000000,0.000000,0.000000,0.000000,0.000000,0.000000,0.000000,1769525215.603626,0.000000
188.000000,15746.915727,14527.158681,4922.278812,-1734.495370,6213.203813,-10187.679254,759.601684,-18069.329032,12123.921469,11468.210693,-8663.402040,1398.638058,21394.575702,12869.575664,-33.997003,4751.578540,0.008000,-0.020500,1.004000,192.000000,0.000000,0.000000,0.000000,0.000000,0.000000,0.000000,0.000000,0.000000,0.000000,1769525215.603664,0.000000
190.000000,15781.180952,14560.507484,4976.548848,-1680.270038,6240.294127,-10157.951433,809.893109,-18003.324330,12211.450900,11464.299138,-8711.055960,1364.082261,21389.635967,12844.295841,-76.644132,4724.577632,0.010000,-0.020250,1.003000,192.000000,0.000000,48.000000,127.500000,48.000000,15.500000,40.000000,0.000000,0.000000,0.000000,1769525215.603676,0.000000
192.000000,15755.856425,14530.891422,4964.031871,-1691.155337,6221.451607,-10171.049556,801.511204,-18014.768423,12090.974997,11490.383624,-8625.828758,1433.059744,21423.632970,12892.486202,0.000000,4769.884619,0.010000,-0.020250,1.003000,192.000000,0.000000,0.000000,0.000000,0.000000,0.000000,0.000000,0.000000,0.000000,0.000000,1769525215.603688,0.000000
194.000000,15757.622213,14549.242204,4923.105827,-1734.808294,6231.934575,-10194.183611,763.781460,-18059.762485,12185.679339,11456.207807,-8710.832442,1366.965636,21388.607787,12834.975163,-73.671350,4723.862377,0.010000,-0.020250,1.003000,192.000000,0.000000,0.000000,0.000000,0.000000,0.000000,0.000000,0.000000,0.000000,0.000000,1769525215.603699,0.000000
196.000000,15763.388963,14551.075047,4994.452595,-1659.013529,6233.409790,-10149.614233,831.462542,-17970.623728,12154.990394,11492.618798,-8644.961851,1416.742971,21413.418223,12883.277283,-28.654936,4750.058621,0.010000,-0.020250,1.003000,192.000000,0.000000,0.000000,0.000000,0.000000,0.000000,0.000000,0.000000,0.000000,0.000000,1769525215.603711,0.000000
198.000000,15751.609594,14538.647477,4924.759856,-1734.852998,6221.161034,-10204.420710,762.395652,-18059.874244,12128.011838,11475.363252,-8656.629462,1407.288183,21406.466831,12870.469734,-28.900806,4749.142200,0.010000,-0.020250,1.003000,192.000000,0.000000,0.000000,0.000000,0.000000,0.000000,0.000000,0.000000,0.000000,0.000000,1769525215.603723,0.000000
200.000000,15770.228597,14570.185789,4970.893856,-1682.192288,6239.064782,-10188.640379,809.669591,-17998.853981,12208.701635,11468.881246,-8707.926715,1368.150278,21395.693290,12838.529091,-67.748137,4718.229737,0.010000,-0.022125,1.004500,192.000000,0.000000,40.000000,127.500000,32.000000,15.500000,56.000000,0.000000,0.000000,0.000000,1769525215.603735,0.000000
202.000000,15740.344315,14527.181033,4958.153362,-1686.461471,6203.927839,-10168.009718,801.287687,-18012.332083,12091.936122,11494.697511,-8622.878328,1431.606881,21415.876915,12889.714586,-6.973744,4769.281121,0.010000,-0.022125,1.004500,192.000000,0.000000,0.000000,0.000000,0.000000,0.000000,0.000000,0.000000,0.000000,0.000000,1769525215.603747,0.000000
204.000000,15753.174216,14542.715495,4919.283678,-1730.494407,6223.530319,-10195.927047,762.060375,-18063.986965,12177.208028,11455.872530,-8712.553526,1370.430156,21377.677784,12837.813835,-78.476975,4728.444484,0.010000,-0.022125,1.004500,192.000000,0.000000,0.000000,0.000000,0.000000,0.000000,0.000000,0.000000,0.000000,0.000000,1769525215.603759,0.000000
206.000000,15772.888455,14549.152797,4996.799528,-1650.855142,6231.755761,-10150.083619,834.636490,-17968.209740,12144.216853,11488.796650,-8649.074572,1416.564157,21411.406566,12878.024623,-26.665631,4753.456086,0.010000,-0.022125,1.004500,192.000000,0.000000,0.000000,0.000000,0.000000,0.000000,0.000000,0.000000,0.000000,0.000000,1769525215.603771,0.000000
208.000000,15764.394792,14536.948745,4925.653926,-1725.129989,6210.007514,-10181.241951,767.111870,-18056.722648,12126.491919,11484.080432,-8652.069706,1415.960659,21408.947874,12875.387117,-36.969785,4745.990604,0.010000,-0.022125,1.004500,192.000000,0.000000,0.000000,0.000000,0.000000,0.000000,0.000000,0.000000,0.000000,0.000000,1769525215.603782,0.000000
210.000000,15752.593071,14560.216911,4972.458479,-1678.213677,6237.410752,-10161.415954,810.541309,-18000.463307,12213.440205,11471.362289,-8705.512727,1375.101671,21391.111182,12841.345411,-70.855030,4718.766179,0.010000,-0.022062,1.005250,192.000000,0.000000,40.000000,127.500000,40.000000,15.500000,56.000000,0.000000,0.000000,0.000000,1769525215.603794,0.000000
212.000000,15745.127588,14526.465777,4959.852095,-1689.523660,6203.771377,-10174.692890,799.588954,-18016.288342,12087.532829,11488.304912,-8623.951211,1433.126799,21421.442499,12887.971149,-6.213785,4775.070223,0.010000,-0.022062,1.005250,192.000000,0.000000,0.000000,0.000000,0.000000,0.000000,0.000000,0.000000,0.000000,0.000000,1769525215.603806,0.000000
214.000000,15748.189777,14544.637745,4922.859958,-1732.059030,6228.023020,-10199.100995,762.529762,-18065.864511,12187.065147,11459.784086,-8711.972381,1366.786822,21380.427048,12837.411503,-81.762681,4722.141292,0.010000,-0.022062,1.005250,192.000000,0.000000,0.000000,0.000000,0.000000,0.000000,0.000000,0.000000,0.000000,0.000000,1769525215.603817,0.000000
216.000000,15742.199509,14539.653306,4991.904496,-1662.835677,6223.396209,-10159.270186,827.796856,-17983.140705,12140.864091,11491.300045,-8650.460380,1408.405770,21407.249142,12881.243274,-20.228329,4745.521217,0.010000,-0.022062,1.005250,192.000000,0.000000,0.000000,0.000000,0.000000,0.000000,0.000000,0.000000,0.000000,0.000000,1769525215.603829,0.000000
218.000000,15749.463826,14530.287925,4920.691838,-1735.031812,6211.147453,-10209.025169,759.691091,-18070.737192,12113.170280,11471.764621,-8667.470058,1397.900450,21395.290958,12862.043126,-24.385753,4744.068354,0.010000,-0.022062,1.005250,192.000000,0.000000,0.000000,0.000000,0.000000,0.000000,0.000000,0.000000,0.000000,0.000000,1769525215.603841,0.000000
220.000000,15791.328644,14561.289795,4972.369072,-1681.566439,6232.739238,-10177.017471,808.306135,-18006.542981,12212.635542,11470.490571,-8715.414550,1363.545819,21395.693290,12839.780788,-71.413824,4723.683563,0.008000,-0.022031,1.006625,192.000000,0.000000,24.000000,127.500000,40.000000,15.500000,64.000000,0.000000,0.000000,0.000000,1769525215.603853,0.000000
222.000000,15726.888564,14520.296695,4962.109621,-1689.300142,6212.600316,-10172.524771,800.706542,-18015.662493,12092.003178,11495.189249,-8625.873461,1431.562177,21428.170374,12888.462888,-2.212823,4773.662063,0.008000,-0.022031,1.006625,192.000000,0.000000,0.000000,0.000000,0.000000,0.000000,0.000000,0.000000,0.000000,0.000000,1769525215.603864,0.000000
224.000000,15756.012887,14545.867091,4926.302126,-1732.573120,6230.392305,-10205.426539,763.826163,-18063.003488,12183.086536,11462.488647,-8707.859660,1368.239685,21386.573778,12838.931422,-74.677178,4725.605813,0.008000,-0.022031,1.006625,192.000000,0.000000,0.000000,0.000000,0.000000,0.000000,0.000000,0.000000,0.000000,0.000000,1769525215.603875,0.000000
226.000000,15744.881719,14544.548338,4993.938505,-1656.957168,6232.739238,-10137.097256,828.892091,-17977.016327,12142.585175,11490.428327,-8643.754857,1415.133645,21417.732110,12880.863295,-20.138922,4753.970176,0.008000,-0.022031,1.006625,192.000000,0.000000,0.000000,0.000000,0.000000,0.000000,0.000000,0.000000,0.000000,0.000000,1769525215.603886,0.000000
228.000000,15748.167425,14529.326800,4918.166091,-1729.801503,6221.071627,-10176.726899,759.445221,-18070.871302,12114.757253,11476.302025,-8661.345680,1406.729389,21405.237485,12871.699079,-31.180684,4755.691261,0.008000,-0.022031,1.006625,192.000000,0.000000,0.000000,0.000000,0.000000,0.000000,0.000000,0.000000,0.000000,0.000000,1769525215.603897,0.000000
230.000000,15765.355917,14561.222739,4972.167906,-1675.285599,6252.587587,-10157.526750,809.893109,-18004.821897,12203.694845,11473.373946,-8714.587535,1367.122098,21392.228769,12841.747742,-69.558629,4729.740885,0.008000,-0.023016,1.008313,192.000000,0.000000,32.000000,127.500000,32.000000,15.500000,72.000000,0.000000,0.000000,0.000000,1769525215.603908,0.000000
232.000000,15735.784559,14531.025533,4964.478906,-1685.545049,6218.657639,-10176.302216,799.790120,-18017.048301,12088.985692,11496.373891,-8623.951211,1432.724468,21414.334645,12890.452193,4.939736,4771.181020,0.008000,-0.023016,1.008313,192.000000,0.000000,0.000000,0.000000,0.000000,0.000000,0.000000,0.000000,0.000000,0.000000,1769525215.603920,0.000000
234.000000,15764.953585,14547.789341,4921.563556,-1726.918128,6231.867520,-10190.696739,761.389823,-18067.004450,12184.941731,11465.841408,-8712.642933,1371.927723,21388.205455,12836.830358,-74.006626,4732.937185,0.008000,-0.023016,1.008313,192.000000,0.000000,0.000000,0.000000,0.000000,0.000000,0.000000,0.000000,0.000000,0.000000,1769525215.603932,0.000000
236.000000,15750.044972,14552.349097,4993.379711,-1655.124325,6229.319421,-10154.643375,827.550987,-17982.090173,12134.627954,11495.010435,-8653.500218,1413.881947,21418.156793,12877.264664,-22.932890,4759.312243,0.008000,-0.023016,1.008313,192.000000,0.000000,0.000000,0.000000,0.000000,0.000000,0.000000,0.000000,0.000000,0.000000,1769525215.603944,0.000000
238.000000,15729.526070,14530.377332,4923.195234,-1730.516759,6212.890889,-10202.319646,761.322768,-18071.497151,12115.092530,11481.621740,-8663.916131,1404.605973,21409.238447,12869.262739,-28.118495,4748.873979,0.008000,-0.023016,1.008313,192.000000,0.000000,0.000000,0.000000,0.000000,0.000000,0.000000,0.000000,0.000000,0.000000,1769525215.603956,0.000000
