Sample Index, EXG Channel 0, EXG Channel 1, EXG Channel 2, EXG Channel 3, EXG Channel 4, EXG Channel 5, EXG Channel 6, EXG Channel 7, EXG Channel 8, EXG Channel 9, EXG Channel 10, EXG Channel 11, EXG Channel 12, EXG Channel 13, EXG Channel 14, EXG Channel 15, Accel Channel 0, Accel Channel 1, Accel Channel 2, Not Used, Digital Channel 0 (D11), Digital Channel 1 (D12), Digital Channel 2 (D13), Digital Channel 3 (D17), Not Used, Digital Channel 4 (D18), Analog Channel 0, Analog Channel 1, Analog Channel 2, Timestamp, Marker Channel, Timestamp (Formatted)
210.000000,1895.986723,7191.226744,-22589.768182,-17392.115878,-10006.384254,-15000.948608,-5024.538043,-5166.538676,4155.904550,225.685564,-3995.709598,-2985.321341,3993.340313,9481.609998,-3110.893442,-5462.587531,-0.002000,-0.020000,1.014000,192.000000,0.000000,0.000000,0.000000,0.000000,0.000000,0.000000,0.000000,0.000000,0.000000,1768312485.222632,0.000000
212.000000,1951.284939,7220.239308,-22483.105657,-17301.926589,-9922.654620,-14916.503717,-4947.916263,-5079.277465,4240.192978,218.398895,-4025.057438,-3012.836339,3992.043911,9463.147457,-3129.110113,-5471.058842,-0.002000,-0.020000,1.014000,192.000000,0.000000,0.000000,0.000000,0.000000,0.000000,0.000000,0.000000,0.000000,0.000000,1768312485.222711,0.000000
214.000000,1934.252910,7201.240325,-22531.117205,-17337.823491,-9963.133629,-14952.311212,-4987.165926,-5121.298745,4115.269079,235.810904,-3957.286949,-2949.379736,4016.742589,9507.560373,-3069.073328,-5484.738110,-0.002000,-0.020000,1.014000,192.000000,0.000000,0.000000,0.000000,0.000000,0.000000,0.000000,0.000000,0.000000,0.000000,1768312485.222759,0.000000
216.000000,1922.674706,7208.370532,-22562.879033,-17371.082887,-9980.858562,-14985.391794,-5006.768406,-5143.181103,4230.738191,209.011162,-4043.587034,-3039.211397,3982.611475,9450.809294,-3147.192675,-5453.780944,0.002000,-0.022000,1.008000,192.000000,0.000000,8.000000,127.500000,40.000000,15.500000,64.000000,0.000000,0.000000,0.000000,1768312485.222824,0.000000
218.000000,1978.688178,7236.690192,-22456.238861,-17281.765316,-9913.088073,-14901.460993,-4935.868673,-5048.476761,4177.518687,245.489209,-3960.416193,-2950.474972,4032.478217,9502.419472,-3083.557258,-5486.503897,0.002000,-0.022000,1.008000,192.000000,0.000000,0.000000,0.000000,0.000000,0.000000,0.000000,0.000000,0.000000,0.000000,1768312485.222906,0.000000
220.000000,1909.464825,7202.715540,-22585.923682,-17394.842791,-10004.082025,-15009.442271,-5025.700334,-5156.279225,4163.772364,227.384296,-3988.422929,-2986.751853,4015.602650,9478.123126,-3110.736979,-5469.740089,0.002000,-0.022000,1.008000,192.000000,0.000000,0.000000,0.000000,0.000000,0.000000,0.000000,0.000000,0.000000,0.000000,1768312485.222955,0.000000
222.000000,1962.997253,7233.449189,-22478.747067,-17305.346406,-9930.433027,-14925.958505,-4946.128124,-5064.927645,4248.932510,224.702087,-4012.026371,-3002.398074,4018.798950,9461.269910,-3131.010012,-5474.299845,0.002000,-0.022000,1.008000,192.000000,0.000000,0.000000,0.000000,0.000000,0.000000,0.000000,0.000000,0.000000,0.000000,1768312485.223004,0.000000
224.000000,1934.297613,7202.916706,-22526.043359,-17339.030485,-9961.881931,-14956.066305,-4980.996845,-5112.201585,4118.063047,238.023727,-3947.161609,-2940.997832,4025.459769,9503.648818,-3070.235618,-5490.616618,0.002000,-0.022000,1.008000,192.000000,0.000000,0.000000,0.000000,0.000000,0.000000,0.000000,0.000000,0.000000,0.000000,1768312485.223060,0.000000
226.000000,1919.009020,7203.676665,-22566.209443,-17367.461904,-9984.658359,-14988.208114,-5004.510880,-5148.701984,4229.888824,212.095703,-4040.077810,-3033.690516,3981.672702,9450.697535,-3150.120753,-5461.715813,0.008000,-0.018000,1.008000,192.000000,0.000000,32.000000,127.500000,56.000000,15.500000,64.000000,0.000000,0.000000,0.000000,1768312485.223116,0.000000
228.000000,1977.436480,7240.400581,-22460.306878,-17270.522388,-9919.860651,-14898.421156,-4932.918243,-5055.115230,4169.650873,248.149067,-3966.071184,-2948.731536,4016.027333,9502.911210,-3086.462985,-5493.455290,0.008000,-0.018000,1.008000,192.000000,0.000000,0.000000,0.000000,0.000000,0.000000,0.000000,0.000000,0.000000,0.000000,1768312485.223177,0.000000
230.000000,1915.790369,7195.406520,-22592.919778,-17384.404526,-10011.100472,-15007.028283,-5025.655630,-5166.672786,4156.016309,231.944052,-3997.721255,-2983.555553,4004.247964,9486.125050,-3117.353096,-5473.897514,0.008000,-0.018000,1.008000,192.000000,0.000000,0.000000,0.000000,0.000000,0.000000,0.000000,0.000000,0.000000,0.000000,1768312485.223197,0.000000
232.000000,1959.264512,7232.935099,-22483.552692,-17298.350310,-9930.857710,-14918.560078,-4949.950272,-5069.040366,4243.769258,234.693317,-4021.838787,-2995.893716,4008.651258,9472.915169,-3130.138294,-5478.099642,0.008000,-0.018000,1.008000,192.000000,0.000000,0.000000,0.000000,0.000000,0.000000,0.000000,0.000000,0.000000,0.000000,1768312485.223215,0.000000
234.000000,1931.011907,7212.662067,-22527.563277,-17333.509604,-9961.948986,-14948.399657,-4980.415700,-5102.411521,4114.665582,252.060622,-3947.966271,-2927.519730,4036.166255,9519.093873,-3069.699177,-5489.879011,0.008000,-0.018000,1.008000,192.000000,0.000000,0.000000,0.000000,0.000000,0.000000,0.000000,0.000000,0.000000,0.000000,1768312485.223234,0.000000
236.000000,1903.698075,7193.730139,-22568.064638,-17373.653337,-9993.174373,-14987.895189,-5003.728569,-5141.884701,4222.199824,218.309488,-4041.888302,-3025.129798,3969.535705,9452.999765,-3149.338442,-5466.588493,0.008000,-0.016000,1.002000,192.000000,0.000000,32.000000,127.500000,64.000000,15.500000,40.000000,0.000000,0.000000,0.000000,1768312485.223253,0.000000
238.000000,1953.587169,7214.249040,-22466.028925,-17283.039365,-9928.376666,-14911.206354,-4935.935728,-5060.569055,4160.754879,238.046078,-3975.704786,-2957.158143,4009.008886,9484.426318,-3086.597095,-5490.996598,0.008000,-0.016000,1.002000,192.000000,0.000000,0.000000,0.000000,0.000000,0.000000,0.000000,0.000000,0.000000,0.000000,1768312485.223271,0.000000
240.000000,1888.767110,7180.050871,-22597.948920,-17387.846695,-10018.163624,-15015.320780,-5027.779046,-5173.870048,4143.231111,218.063619,-4005.052627,-2992.943286,4004.784406,9477.363166,-3117.509558,-5464.532133,0.008000,-0.016000,1.002000,192.000000,0.000000,0.000000,0.000000,0.000000,0.000000,0.000000,0.000000,0.000000,0.000000,1768312485.223289,0.000000
242.000000,1942.835980,7218.317058,-22491.241692,-17292.941188,-9937.362067,-14926.047912,-4952.408964,-5083.613704,4234.068600,225.305584,-4030.019525,-3006.622554,3997.967124,9464.712079,-3135.569767,-5465.314444,0.008000,-0.016000,1.002000,192.000000,0.000000,0.000000,0.000000,0.000000,0.000000,0.000000,0.000000,0.000000,0.000000,1768312485.223310,0.000000
244.000000,1918.651392,7191.852592,-22535.051112,-17326.491156,-9971.180257,-14954.456980,-4986.830650,-5120.203509,4103.377951,243.254035,-3962.114926,-2937.555663,4006.170214,9513.774158,-3076.002368,-5476.132688,0.008000,-0.016000,1.002000,192.000000,0.000000,0.000000,0.000000,0.000000,0.000000,0.000000,0.000000,0.000000,0.000000,1768312485.223328,0.000000
246.000000,1905.016828,7203.654314,-22568.824597,-17369.518264,-9997.331798,-14991.180896,-5009.249450,-5146.019774,4218.444731,212.185110,-4046.336299,-3028.683725,3968.418118,9453.044469,-3154.769916,-5452.216321,0.006000,-0.020000,1.000000,192.000000,0.000000,24.000000,127.500000,48.000000,15.500000,32.000000,0.000000,0.000000,0.000000,1768312485.223348,0.000000
248.000000,1961.924370,7213.757302,-22462.676163,-17283.017013,-9919.078340,-14906.937171,-4936.785094,-5056.612796,4164.644082,241.085916,-3969.982740,-2954.811210,4012.786330,9498.999655,-3085.546563,-5482.011197,0.006000,-0.020000,1.000000,192.000000,0.000000,0.000000,0.000000,0.000000,0.000000,0.000000,0.000000,0.000000,0.000000,1768312485.223366,0.000000
250.000000,1896.567869,7175.200543,-22594.238531,-17395.893323,-10003.947914,-15015.589001,-5029.656593,-5173.534772,4142.851131,216.186072,-4001.833976,-2996.810138,3990.009903,9474.882123,-3113.441540,-5468.935426,0.006000,-0.020000,1.000000,192.000000,0.000000,0.000000,0.000000,0.000000,0.000000,0.000000,0.000000,0.000000,0.000000,1768312485.223386,0.000000
252.000000,1946.278148,7216.864194,-22486.234902,-17303.401804,-9931.237689,-14927.523127,-4955.314691,-5080.372701,4241.355269,222.086933,-4029.214862,-3012.948097,4001.096368,9464.130934,-3131.501750,-5477.496144,0.006000,-0.020000,1.000000,192.000000,0.000000,0.000000,0.000000,0.000000,0.000000,0.000000,0.000000,0.000000,0.000000,1768312485.223404,0.000000
254.000000,1921.646526,7193.864249,-22530.245487,-17333.688418,-9962.910111,-14955.172235,-4988.350569,-5118.951812,4115.291430,248.730212,-3956.772859,-2941.198998,4025.862101,9517.998638,-3071.733185,-5487.487374,0.006000,-0.020000,1.000000,192.000000,0.000000,0.000000,0.000000,0.000000,0.000000,0.000000,0.000000,0.000000,0.000000,1768312485.223422,0.000000
0.000000,1899.294782,7187.069319,-22568.578728,-17367.752477,-9988.033472,-14981.144962,-5008.780063,-5147.003251,4224.569109,216.789569,-4046.448057,-3026.292089,3996.626019,9461.292262,-3149.830180,-5458.877141,0.007000,-0.021000,1.006000,192.000000,0.000000,32.000000,127.500000,40.000000,15.500000,80.000000,0.000000,0.000000,0.000000,1768312485.223452,0.000000
2.000000,1959.286864,7219.009962,-22460.306878,-17275.685641,-9911.858727,-14893.906104,-4932.337097,-5046.599215,4165.985187,247.791439,-3969.826277,-2944.305890,4024.252775,9510.242583,-3085.367749,-5484.961627,0.007000,-0.021000,1.006000,192.000000,0.000000,0.000000,0.000000,0.000000,0.000000,0.000000,0.000000,0.000000,0.000000,1768312485.223471,0.000000
4.000000,1890.130566,7185.236476,-22591.265749,-17388.137268,-10007.144214,-14998.355806,-5022.392276,-5159.386117,4146.762687,229.038325,-3996.357798,-2980.247495,3992.982685,9490.640103,-3113.240375,-5468.041357,0.007000,-0.021000,1.006000,192.000000,0.000000,0.000000,0.000000,0.000000,0.000000,0.000000,0.000000,0.000000,0.000000,1768312485.223489,0.000000
6.000000,1954.168314,7225.357857,-22480.646966,-17295.109307,-9925.962678,-14910.960485,-4944.518798,-5066.849895,4241.288214,229.217139,-4021.794083,-3002.398074,3993.295609,9474.144515,-3131.457046,-5475.037453,0.007000,-0.021000,1.006000,192.000000,0.000000,0.000000,0.000000,0.000000,0.000000,0.000000,0.000000,0.000000,0.000000,1768312485.223508,0.000000
8.000000,1912.683477,7177.569828,-22532.033626,-17331.587354,-9963.357146,-14951.975936,-4984.886048,-5121.388152,4110.999895,248.372584,-3956.281120,-2935.074620,4044.123476,9521.373751,-3072.627255,-5481.921790,0.007000,-0.021000,1.006000,192.000000,0.000000,0.000000,0.000000,0.000000,0.000000,0.000000,0.000000,0.000000,0.000000,1768312485.223526,0.000000
10.000000,1894.377398,7186.666988,-22572.445580,-17367.886587,-9996.638894,-14989.482163,-5009.920002,-5156.547446,4213.549699,211.827482,-4053.131229,-3034.897510,3967.859324,9456.844265,-3153.585273,-5451.456362,0.005500,-0.020500,1.005000,192.000000,0.000000,16.000000,127.500000,48.000000,15.500000,48.000000,0.000000,0.000000,0.000000,1768312485.223546,0.000000
12.000000,1954.592997,7217.937078,-22464.821931,-17273.472819,-9920.888832,-14899.270523,-4936.539225,-5059.071488,4161.134858,247.076183,-3978.789327,-2955.414707,3999.710560,9501.078367,-3089.033435,-5480.759499,0.005500,-0.020500,1.005000,192.000000,0.000000,0.000000,0.000000,0.000000,0.000000,0.000000,0.000000,0.000000,0.000000,1768312485.223564,0.000000
14.000000,1885.369645,7166.528066,-22594.484400,-17389.679538,-10012.329818,-15004.815460,-5029.455427,-5173.601827,4142.962890,223.785665,-4003.331542,-2989.970504,3978.498754,9491.981207,-3109.194709,-5466.454383,0.005500,-0.020500,1.005000,192.000000,0.000000,0.000000,0.000000,0.000000,0.000000,0.000000,0.000000,0.000000,0.000000,1768312485.223583,0.000000
16.000000,1949.720317,7223.256793,-22483.373878,-17301.837182,-9933.294050,-14921.510508,-4952.833647,-5078.137526,4235.767333,223.003354,-4029.796008,-3009.170653,3974.408385,9466.276701,-3131.032363,-5467.527266,0.005500,-0.020500,1.005000,192.000000,0.000000,0.000000,0.000000,0.000000,0.000000,0.000000,0.000000,0.000000,0.000000,1768312485.223602,0.000000
18.000000,1921.110084,7183.649502,-22531.586591,-17335.230688,-9965.771135,-14954.881663,-4986.920057,-5122.975126,4114.799692,243.298738,-3955.275292,-2939.232044,4032.165293,9515.830519,-3067.598113,-5486.682711,0.005500,-0.020500,1.005000,192.000000,0.000000,0.000000,0.000000,0.000000,0.000000,0.000000,0.000000,0.000000,0.000000,1768312485.223620,0.000000
20.000000,1897.193718,7192.590200,-22570.880958,-17372.021660,-9991.050958,-14990.532695,-5010.657610,-5157.329757,4218.310621,201.478625,-4055.478162,-3039.300804,3988.981722,9446.629518,-3149.003166,-5450.964624,0.003750,-0.021250,1.003500,192.000000,0.000000,8.000000,127.500000,40.000000,15.500000,40.000000,0.000000,0.000000,0.000000,1768312485.223639,0.000000
22.000000,1957.252855,7206.180061,-22460.999782,-17276.244435,-9910.562326,-14899.695206,-4936.874501,-5056.903369,4170.321425,239.409535,-3974.073109,-2958.186323,4027.426723,9500.474870,-3084.294866,-5489.342569,0.003750,-0.021250,1.003500,192.000000,0.000000,0.000000,0.000000,0.000000,0.000000,0.000000,0.000000,0.000000,0.000000,1768312485.223658,0.000000
24.000000,1897.976029,7183.694206,-22589.634072,-17384.113954,-10005.110205,-15000.188649,-5024.672154,-5160.906036,4151.613015,228.188959,-3991.686284,-2983.734367,3995.106100,9488.762556,-3108.971192,-5468.443688,0.003750,-0.021250,1.003500,192.000000,0.000000,0.000000,0.000000,0.000000,0.000000,0.000000,0.000000,0.000000,0.000000,1768312485.223676,0.000000
26.000000,1957.476372,7219.859328,-22482.524512,-17298.663235,-9932.154111,-14920.459976,-4949.078554,-5068.570980,4252.084106,236.950843,-4012.696923,-2998.352408,3990.501641,9478.458402,-3131.255881,-5473.852810,0.003750,-0.021250,1.003500,192.000000,0.000000,0.000000,0.000000,0.000000,0.000000,0.000000,0.000000,0.000000,0.000000,1768312485.223695,0.000000
28.000000,1927.078000,7192.299627,-22522.310617,-17333.174328,-9959.758515,-14948.511416,-4982.114432,-5108.804120,4122.801617,250.875980,-3944.725268,-2933.197073,4041.083639,9523.653629,-3068.559238,-5479.306636,0.003750,-0.021250,1.003500,192.000000,0.000000,0.000000,0.000000,0.000000,0.000000,0.000000,0.000000,0.000000,0.000000,1768312485.223714,0.000000
30.000000,1901.373494,7191.673778,-22566.723533,-17374.346241,-9986.357091,-14992.432593,-5010.009409,-5150.467771,4227.117208,213.950898,-4041.776543,-3030.158941,3971.055623,9460.621710,-3143.102305,-5456.105525,0.003750,-0.021250,1.003500,192.000000,0.000000,0.000000,127.500000,32.000000,15.500000,32.000000,0.000000,0.000000,0.000000,1768312485.223733,0.000000
32.000000,1962.684329,7211.343314,-22458.988125,-17274.478647,-9912.439872,-14898.219991,-4935.667507,-5057.037480,4174.925885,247.344404,-3971.033272,-2952.330166,4029.125456,9510.376693,-3083.601962,-5486.749767,0.003750,-0.021250,1.003500,192.000000,0.000000,0.000000,0.000000,0.000000,0.000000,0.000000,0.000000,0.000000,0.000000,1768312485.223751,0.000000
34.000000,1891.248154,7173.099479,-22596.831333,-17381.543503,-10010.944010,-15004.368425,-5030.170683,-5170.517286,4150.920111,229.686526,-3996.380150,-2982.370911,3993.653237,9492.562353,-3112.323953,-5466.052051,0.003750,-0.021250,1.003500,192.000000,0.000000,0.000000,0.000000,0.000000,0.000000,0.000000,0.000000,0.000000,0.000000,1768312485.223770,0.000000
36.000000,1955.062384,7222.608593,-22496.114373,-17297.165668,-9940.513663,-14929.020694,-4958.421583,-5079.456279,4243.523388,233.083991,-4023.917499,-3002.845109,3989.249943,9477.720794,-3140.062468,-5466.275569,0.003750,-0.021250,1.003500,192.000000,0.000000,0.000000,0.000000,0.000000,0.000000,0.000000,0.000000,0.000000,0.000000,1768312485.223789,0.000000
38.000000,1929.067305,7190.958523,-22531.944219,-17327.564040,-9970.532056,-14951.595956,-4987.791775,-5110.256983,4113.480939,253.334672,-3951.922530,-2933.375887,4019.804778,9524.927679,-3074.549505,-5486.727415,0.003750,-0.021250,1.003500,192.000000,0.000000,0.000000,0.000000,0.000000,0.000000,0.000000,0.000000,0.000000,0.000000,1768312485.223808,0.000000
40.000000,1900.904107,7185.191773,-22572.467932,-17373.251006,-9998.628199,-14993.796050,-5012.378694,-5146.042126,4225.329068,224.769142,-4039.049630,-3021.821740,3977.872905,9466.768440,-3147.863227,-5461.447592,0.003750,-0.021250,1.003500,192.000000,0.000000,0.000000,127.500000,48.000000,15.500000,32.000000,0.000000,0.000000,0.000000,1768312485.223827,0.000000
42.000000,1952.044899,7210.583354,-22467.682954,-17282.838199,-9924.018076,-14907.652427,-4938.305013,-5059.451468,4163.548847,247.791439,-3972.195562,-2954.073602,4015.803816,9504.855812,-3083.378444,-5490.840136,0.003750,-0.021250,1.003500,192.000000,0.000000,0.000000,0.000000,0.000000,0.000000,0.000000,0.000000,0.000000,0.000000,1768312485.223845,0.000000
44.000000,1883.447395,7160.873075,-22600.519371,-17392.942893,-10015.526118,-15015.119614,-5029.656593,-5171.970150,4133.061067,224.277404,-4004.493833,-2994.865536,3985.427795,9483.264027,-3109.842910,-5470.835325,0.003750,-0.021250,1.003500,192.000000,0.000000,0.000000,0.000000,0.000000,0.000000,0.000000,0.000000,0.000000,0.000000,1768312485.223864,0.000000
46.000000,1949.072117,7211.544479,-22490.884065,-17304.429985,-9942.704134,-14925.869098,-4955.649967,-5077.578733,4234.001545,228.300718,-4026.130322,-3009.125949,3991.283952,9468.713041,-3133.893387,-5473.450479,0.003750,-0.021250,1.003500,192.000000,0.000000,0.000000,0.000000,0.000000,0.000000,0.000000,0.000000,0.000000,0.000000,1768312485.223883,0.000000
48.000000,1928.016773,7185.951732,-22523.048225,-17330.268601,-9964.452382,-14946.142131,-4981.913266,-5106.300724,4108.138872,250.227779,-3947.340423,-2933.621756,4009.701790,9520.457330,-3070.705005,-5481.139479,0.003750,-0.021250,1.003500,192.000000,0.000000,0.000000,0.000000,0.000000,0.000000,0.000000,0.000000,0.000000,0.000000,1768312485.223902,0.000000
50.000000,1909.487177,7190.131508,-22563.683696,-17373.139247,-9989.553391,-14986.889361,-5008.265973,-5141.236501,4224.814978,222.109285,-4032.254700,-3020.190063,3977.336464,9462.543960,-3146.499770,-5458.050127,0.002875,-0.017625,1.007750,192.000000,0.000000,8.000000,127.500000,72.000000,15.500000,80.000000,0.000000,0.000000,0.000000,1768312485.223921,0.000000
52.000000,1964.405413,7218.361761,-22453.579003,-17282.189999,-9919.301858,-14902.735043,-4933.298222,-5046.666270,4178.300998,254.452259,-3959.343309,-2944.797628,4026.867929,9513.304772,-3083.423148,-5492.404758,0.002875,-0.017625,1.007750,192.000000,0.000000,0.000000,0.000000,0.000000,0.000000,0.000000,0.000000,0.000000,0.000000,1768312485.223940,0.000000
54.000000,1893.460976,7173.635921,-22588.784705,-17390.797125,-10011.100472,-15009.263457,-5025.454465,-5162.202437,4148.528474,233.329860,-3988.132356,-2981.655655,4008.383037,9487.332045,-3110.960497,-5471.841153,0.002875,-0.017625,1.007750,192.000000,0.000000,0.000000,0.000000,0.000000,0.000000,0.000000,0.000000,0.000000,0.000000,1768312485.223958,0.000000
56.000000,1958.437497,7215.858366,-22482.613919,-17299.222028,-9934.881024,-14922.538688,-4950.263196,-5068.325110,4246.630281,236.570863,-4016.876700,-3004.968525,4008.360685,9474.412736,-3136.419134,-5475.931522,0.002875,-0.017625,1.007750,192.000000,0.000000,0.000000,0.000000,0.000000,0.000000,0.000000,0.000000,0.000000,0.000000,1768312485.223977,0.000000
58.000000,1936.666898,7197.105252,-22519.896629,-17325.507680,-9961.144323,-14947.572642,-4979.231057,-5098.611724,4121.751085,260.554285,-3935.493998,-2924.949279,4011.266412,9529.442731,-3073.007235,-5490.214287,0.002875,-0.017625,1.007750,192.000000,0.000000,0.000000,0.000000,0.000000,0.000000,0.000000,0.000000,0.000000,0.000000,1768312485.223996,0.000000
60.000000,1911.275317,7204.280162,-22566.947051,-17367.864235,-9991.162716,-14991.024433,-5008.265973,-5139.671879,4234.292118,229.842988,-4027.046743,-3014.579775,4006.304324,9470.031794,-3145.695108,-5466.946121,0.003438,-0.016813,1.006875,192.000000,0.000000,16.000000,127.500000,64.000000,15.500000,56.000000,0.000000,0.000000,0.000000,1768312485.224014,0.000000
62.000000,1961.924370,7218.518224,-22458.831663,-17275.350365,-9919.435968,-14896.185982,-4932.784132,-5048.409706,4177.652797,254.251093,-3962.070222,-2942.182474,4022.352877,9512.857737,-3084.898363,-5489.543735,0.003438,-0.016813,1.006875,192.000000,0.000000,0.000000,0.000000,0.000000,0.000000,0.000000,0.000000,0.000000,0.000000,1768312485.224033,0.000000
64.000000,1887.828337,7163.018842,-22590.036403,-17391.624140,-10006.987751,-14997.841716,-5025.856796,-5162.224789,4145.086306,225.931433,-3989.451109,-2981.655655,3975.324807,9488.382577,-3108.457101,-5466.990825,0.003438,-0.016813,1.006875,192.000000,0.000000,0.000000,0.000000,0.000000,0.000000,0.000000,0.000000,0.000000,0.000000,1768312485.224052,0.000000
66.000000,1940.064363,7211.902107,-22492.202817,-17304.921723,-9939.820759,-14922.404578,-4954.219455,-5080.663273,4240.930586,219.717648,-4022.934022,-3010.578812,3977.068243,9465.650852,-3134.854512,-5464.129801,0.003438,-0.016813,1.006875,192.000000,0.000000,0.000000,0.000000,0.000000,0.000000,0.000000,0.000000,0.000000,0.000000,1768312485.224070,0.000000
68.000000,1908.682514,7166.773935,-22533.352379,-17333.844880,-9970.107373,-14953.652317,-4987.523554,-5123.645678,4107.222451,235.699145,-3960.885580,-2947.502190,4003.867984,9504.386426,-3074.124822,-5476.892647,0.003438,-0.016813,1.006875,192.000000,0.000000,0.000000,0.000000,0.000000,0.000000,0.000000,0.000000,0.000000,0.000000,1768312485.224088,0.000000
70.000000,1891.561078,7174.775860,-22577.027688,-17374.949738,-9998.628199,-14989.348053,-5017.519595,-5159.788449,4211.783911,202.998543,-4053.488857,-3037.065630,3961.757298,9453.536207,-3143.258768,-5452.305728,0.003438,-0.016813,1.006875,192.000000,0.000000,0.000000,0.000000,0.000000,0.000000,0.000000,0.000000,0.000000,0.000000,1768312485.224108,0.000000
72.000000,1950.972015,7210.717465,-22468.219396,-17280.021880,-9923.794559,-14898.979950,-4942.842417,-5061.217256,4164.957007,243.589311,-3978.766975,-2955.906445,4019.894185,9505.504013,-3082.752595,-5481.519458,0.004000,-0.018000,1.006000,192.000000,0.000000,16.000000,127.500000,56.000000,15.500000,56.000000,0.000000,0.000000,0.000000,1768312485.224125,0.000000
74.000000,1877.390072,7164.002319,-22601.994586,-17391.802954,-10017.291906,-15010.403396,-5032.070581,-5175.188801,4134.580986,224.545625,-4003.443301,-2985.567210,3981.985626,9486.281513,-3109.909965,-5471.170601,0.004000,-0.018000,1.006000,192.000000,0.000000,0.000000,0.000000,0.000000,0.000000,0.000000,0.000000,0.000000,0.000000,1768312485.703717,0.000000
76.000000,1929.670802,7202.000284,-22502.574027,-17309.280313,-9950.683707,-14932.775787,-4959.338005,-5091.101538,4220.344629,214.688505,-4039.653127,-3017.150225,3958.829219,9461.404021,-3139.950709,-5469.270703,0.004000,-0.018000,1.006000,192.000000,0.000000,0.000000,0.000000,0.000000,0.000000,0.000000,0.000000,0.000000,0.000000,1768312485.703790,0.000000
78.000000,1905.575622,7186.309360,-22533.821766,-17331.073264,-9969.123896,-14953.182930,-4984.573124,-5117.744817,4094.973695,236.995546,-3962.159629,-2947.882169,4005.633772,9512.589516,-3075.532982,-5484.067557,0.004000,-0.018000,1.006000,192.000000,0.000000,0.000000,0.000000,0.000000,0.000000,0.000000,0.000000,0.000000,0.000000,1768312485.703837,0.000000
80.000000,1892.633962,7178.776822,-22575.507769,-17373.340413,-9989.709853,-14990.063308,-5013.608040,-5153.261739,4209.705199,207.468892,-4048.951453,-3035.791580,3954.068298,9460.644062,-3148.824352,-5459.413583,0.004000,-0.018000,1.006000,192.000000,0.000000,0.000000,0.000000,0.000000,0.000000,0.000000,0.000000,0.000000,0.000000,1768312485.703891,0.000000
82.000000,1954.704756,7210.359837,-22466.967698,-17277.674947,-9914.809157,-14897.258866,-4938.640289,-5056.858666,4163.794716,242.717593,-3976.844725,-2955.414707,4008.807720,9509.460272,-3081.366787,-5487.330912,0.004000,-0.018000,1.006000,192.000000,0.000000,0.000000,127.500000,64.000000,15.500000,64.000000,0.000000,0.000000,0.000000,1768312485.703956,0.000000
84.000000,1886.442529,7175.491116,-22595.534932,-17390.439497,-10003.322065,-15002.714396,-5028.427247,-5167.633911,4133.306936,226.713744,-4000.023484,-2985.790728,4016.474368,9490.662454,-3103.807939,-5467.281397,0.004000,-0.018000,1.006000,192.000000,0.000000,0.000000,0.000000,0.000000,0.000000,0.000000,0.000000,0.000000,0.000000,1768312485.704003,0.000000
86.000000,1941.316061,7203.631962,-22496.136724,-17309.973217,-9936.847977,-14927.746645,-4956.275816,-5082.652579,4235.588519,224.813846,-4028.231386,-3014.199795,3967.926379,9468.444820,-3129.445389,-5473.629293,0.004000,-0.018000,1.006000,192.000000,0.000000,0.000000,0.000000,0.000000,0.000000,0.000000,0.000000,0.000000,0.000000,1768312485.704021,0.000000
88.000000,1913.510491,7176.742813,-22535.207574,-17335.990648,-9966.218169,-14953.629965,-4984.371958,-5118.102445,4099.667561,237.196712,-3956.124658,-2946.876341,4014.172138,9508.454443,-3067.441650,-5483.128784,0.004000,-0.018000,1.006000,192.000000,0.000000,0.000000,0.000000,0.000000,0.000000,0.000000,0.000000,0.000000,0.000000,1768312485.704037,0.000000
90.000000,1887.873040,7179.760299,-22585.029612,-17381.454096,-10004.886687,-14997.238218,-5017.519595,-5159.989614,4202.865565,199.176395,-4050.806648,-3039.814894,3948.815638,9448.708230,-3147.706765,-5460.598226,0.004000,-0.018000,1.006000,192.000000,0.000000,0.000000,0.000000,0.000000,0.000000,0.000000,0.000000,0.000000,0.000000,1768312485.704054,0.000000
92.000000,1964.137192,7220.105197,-22469.068762,-17280.178342,-9917.737236,-14905.730177,-4939.579062,-5056.724555,4161.157210,234.916834,-3978.476403,-2959.326262,4005.723179,9495.669245,-3088.452290,-5489.364921,0.002000,-0.012000,1.008000,192.000000,0.000000,8.000000,127.500000,80.000000,15.500000,64.000000,0.000000,0.000000,0.000000,1768312485.704072,0.000000
94.000000,1895.115005,7185.325883,-22601.078165,-17391.601788,-10008.194746,-15005.865992,-5034.372811,-5172.081908,4144.572216,228.121904,-3998.190641,-2985.455452,4014.641525,9488.047300,-3106.624258,-5472.511705,0.002000,-0.012000,1.008000,192.000000,0.000000,0.000000,0.000000,0.000000,0.000000,0.000000,0.000000,0.000000,0.000000,1768312485.704090,0.000000
96.000000,1933.492951,7211.410369,-22502.842248,-17309.481479,-9948.895568,-14925.422064,-4961.617882,-5087.078224,4225.776103,219.740000,-4033.953432,-3015.853824,3966.205295,9461.672242,-3132.328764,-5466.722604,0.002000,-0.012000,1.008000,192.000000,0.000000,0.000000,0.000000,0.000000,0.000000,0.000000,0.000000,0.000000,0.000000,1768312485.704109,0.000000
98.000000,1914.382209,7195.138299,-22539.230888,-17332.324962,-9974.309501,-14950.321907,-4986.629484,-5117.431893,4091.844450,240.996509,-3957.219894,-2940.841370,3991.954504,9512.365998,-3070.772060,-5482.145307,0.002000,-0.012000,1.008000,192.000000,0.000000,0.000000,0.000000,0.000000,0.000000,0.000000,0.000000,0.000000,0.000000,1768312485.704126,0.000000
100.000000,1889.482366,7179.290912,-22590.148162,-17376.380250,-10008.284153,-14992.656111,-5017.340781,-5160.056670,4195.914173,214.554395,-4051.387793,-3031.410638,3963.456030,9456.374878,-3150.433677,-5461.402888,0.002000,-0.012000,1.008000,192.000000,0.000000,0.000000,0.000000,0.000000,0.000000,0.000000,0.000000,0.000000,0.000000,1768312485.704144,0.000000
102.000000,1951.642567,7215.970125,-22477.651832,-17278.948996,-9929.114274,-14896.364796,-4940.428429,-5061.865456,4145.287471,247.813791,-3985.070167,-2955.548818,4014.350952,9506.576896,-3090.083967,-5491.711854,0.002000,-0.012000,1.008000,192.000000,0.000000,0.000000,127.500000,64.000000,15.500000,48.000000,0.000000,0.000000,0.000000,1768312485.704161,0.000000
104.000000,1877.904162,7166.505714,-22608.431889,-17391.624140,-10024.355057,-15007.967056,-5031.020049,-5173.355958,4112.341000,225.193825,-4008.695961,-2991.065740,3969.423946,9488.404928,-3111.496939,-5465.426202,0.002000,-0.012000,1.008000,192.000000,0.000000,0.000000,0.000000,0.000000,0.000000,0.000000,0.000000,0.000000,0.000000,1768312485.704179,0.000000
106.000000,1931.637756,7209.331657,-22507.692576,-17310.643770,-9949.521416,-14931.501738,-4959.650929,-5082.026730,4215.807225,224.836197,-4037.373249,-3011.495234,3963.791306,9463.102754,-3140.241282,-5466.834362,0.002000,-0.012000,1.008000,192.000000,0.000000,0.000000,0.000000,0.000000,0.000000,0.000000,0.000000,0.000000,0.000000,1768312485.704196,0.000000
108.000000,1926.899186,7193.864249,-22536.325161,-17336.437683,-9977.952835,-14956.379230,-4984.818993,-5111.508681,4091.576230,253.334672,-3955.074126,-2937.533312,3998.145938,9517.216327,-3076.985845,-5489.655493,0.002000,-0.012000,1.008000,192.000000,0.000000,0.000000,0.000000,0.000000,0.000000,0.000000,0.000000,0.000000,0.000000,1768312485.704213,0.000000
110.000000,1892.857479,7197.932267,-22584.470819,-17376.112029,-10015.503766,-14996.210038,-5013.563337,-5154.289920,4200.496280,217.236604,-4044.972842,-3029.801313,3956.839914,9457.894797,-3151.797134,-5464.979168,0.002000,-0.012000,1.008000,192.000000,0.000000,0.000000,0.000000,0.000000,0.000000,0.000000,0.000000,0.000000,0.000000,1768312485.704231,0.000000
112.000000,1969.121631,7229.962317,-22466.855939,-17271.237644,-9927.929631,-14899.874020,-4934.125237,-5049.281424,4160.821934,254.452259,-3970.429775,-2949.178570,4021.168234,9510.220231,-3090.776872,-5489.677845,-0.002000,-0.018000,1.000000,192.000000,127.500000,120.000000,127.500000,56.000000,15.500000,32.000000,0.000000,0.000000,0.000000,1768312485.704248,0.000000
114.000000,1891.583430,7173.300645,-22596.205484,-17383.398698,-10013.514461,-15006.447137,-5024.783912,-5158.469696,4133.753971,241.644709,-3989.205240,-2975.575981,3993.988513,9498.731434,-3108.278287,-5473.897514,-0.002000,-0.018000,1.000000,192.000000,0.000000,0.000000,0.000000,0.000000,0.000000,0.000000,0.000000,0.000000,0.000000,1768312485.704269,0.000000
116.000000,1943.372422,7217.288878,-22497.097849,-17303.200639,-9945.006364,-14932.261697,-4952.744240,-5071.655520,4231.699316,235.967366,-4024.230423,-3002.263963,3983.796118,9476.647911,-3134.139256,-5478.993711,-0.002000,-0.018000,1.000000,192.000000,0.000000,0.000000,0.000000,0.000000,0.000000,0.000000,0.000000,0.000000,0.000000,1768312485.704287,0.000000
118.000000,1928.173235,7197.932267,-22529.664341,-17325.485328,-9965.860542,-14957.608576,-4977.666435,-5099.058759,4100.114596,252.999395,-3948.525065,-2929.844311,4010.752322,9522.938373,-3069.207438,-5487.912057,-0.002000,-0.018000,1.000000,192.000000,0.000000,0.000000,0.000000,0.000000,0.000000,0.000000,0.000000,0.000000,0.000000,1768312485.704305,0.000000
120.000000,1921.490064,7211.432721,-22578.972289,-17369.384154,-10006.004275,-14998.959303,-5006.388427,-5139.023678,4217.550661,228.725401,-4030.935947,-3013.484539,3993.005036,9469.875332,-3146.991509,-5459.234769,-0.002000,-0.018000,1.000000,192.000000,0.000000,0.000000,0.000000,0.000000,0.000000,0.000000,0.000000,0.000000,0.000000,1768312485.704322,0.000000
122.000000,1973.971960,7231.124607,-22464.486654,-17271.103534,-9927.639059,-14900.365758,-4929.967812,-5043.581729,4178.166888,263.549419,-3962.807830,-2944.350594,4029.505435,9518.624487,-3087.289999,-5493.097662,0.008000,-0.020000,1.000000,192.000000,0.000000,32.000000,127.500000,48.000000,15.500000,32.000000,0.000000,0.000000,0.000000,1768312485.704340,0.000000
124.000000,1900.993514,7184.878848,-22595.222008,-17383.644567,-10016.777815,-15005.329550,-5021.587613,-5156.011004,4140.928881,246.003299,-3980.845687,-2971.217390,3979.772804,9506.666303,-3108.747674,-5478.949008,0.008000,-0.020000,1.000000,192.000000,0.000000,0.000000,0.000000,0.000000,0.000000,0.000000,0.000000,0.000000,0.000000,1768312485.704358,0.000000
126.000000,1960.493858,7228.420046,-22496.337890,-17305.435813,-9942.681783,-14920.683494,-4951.559597,-5067.140468,4244.730383,242.449372,-4016.787293,-2999.380588,3975.168344,9485.052167,-3135.078029,-5473.651644,0.008000,-0.020000,1.000000,192.000000,0.000000,0.000000,0.000000,0.000000,0.000000,0.000000,0.000000,0.000000,0.000000,1768312485.704376,0.000000
128.000000,1938.879721,7206.940020,-22527.831498,-17329.173366,-9967.738088,-14938.162558,-4978.359339,-5095.549535,4109.256459,267.259808,-3943.697088,-2923.474064,4025.683287,9534.360115,-3068.872162,-5487.375616,0.008000,-0.020000,1.000000,192.000000,0.000000,0.000000,0.000000,0.000000,0.000000,0.000000,0.000000,0.000000,0.000000,1768312485.704394,0.000000
130.000000,1918.249061,7212.349142,-22581.363926,-17374.815628,-9995.901286,-14979.557989,-5012.982191,-5137.280242,4217.952993,239.610701,-4031.472389,-3012.746932,4000.448167,9482.727585,-3144.599872,-5459.055955,0.008000,-0.020000,1.000000,192.000000,0.000000,0.000000,0.000000,0.000000,0.000000,0.000000,0.000000,0.000000,0.000000,1768312485.704411,0.000000
132.000000,1980.431614,7242.367535,-22469.247576,-17274.344537,-9917.781939,-14887.826429,-4936.896853,-5041.301851,4173.987111,276.669893,-3963.232513,-2936.415724,4030.287746,9525.464121,-3087.178241,-5484.022854,0.006000,-0.020000,1.012000,192.000000,0.000000,24.000000,127.500000,48.000000,15.500000,80.000000,0.000000,0.000000,0.000000,1768312485.704429,0.000000
134.000000,1904.659200,7200.905049,-22599.155915,-17382.102297,-10007.367731,-14993.594884,-5027.309659,-5161.107202,4140.124218,256.083936,-3988.512336,-2967.507001,3989.808737,9513.483586,-3106.870128,-5466.230865,0.006000,-0.020000,1.012000,192.000000,0.000000,0.000000,0.000000,0.000000,0.000000,0.000000,0.000000,0.000000,0.000000,1768312485.704446,0.000000
136.000000,1950.033242,7219.546404,-22501.881123,-17297.635054,-9949.677879,-14909.842898,-4955.381746,-5079.344520,4238.382487,249.959558,-4027.203205,-3000.788748,3999.464691,9489.209591,-3136.754410,-5467.951950,0.006000,-0.020000,1.012000,192.000000,0.000000,0.000000,0.000000,0.000000,0.000000,0.000000,0.000000,0.000000,0.000000,1768312485.704464,0.000000
138.000000,1933.604709,7198.334598,-22530.290190,-17320.098557,-9965.391155,-14934.116892,-4977.442918,-5100.243402,4105.031980,263.616474,-3953.755373,-2927.609137,4022.107008,9537.556414,-3069.788583,-5474.903342,0.006000,-0.020000,1.012000,192.000000,0.000000,0.000000,0.000000,0.000000,0.000000,0.000000,0.000000,0.000000,0.000000,1768312485.704481,0.000000
140.000000,1911.498834,7192.701959,-22581.788609,-17371.373459,-10000.662208,-14983.804820,-5012.021066,-5141.616481,4215.248432,231.407610,-4038.446133,-3018.178406,3983.952580,9478.480754,-3144.443410,-5446.203702,0.006000,-0.020000,1.012000,192.000000,0.000000,0.000000,0.000000,0.000000,0.000000,0.000000,0.000000,0.000000,0.000000,1768312485.704499,0.000000
142.000000,1978.285847,7237.092523,-22465.559538,-17271.818789,-9917.200794,-14893.190848,-4934.460513,-5040.161912,4178.591571,264.957579,-3969.334539,-2942.182474,4013.054551,9523.296001,-3085.144232,-5476.982054,0.006000,-0.021000,1.012000,192.000000,0.000000,24.000000,127.500000,40.000000,15.500000,80.000000,0.000000,0.000000,0.000000,1768312485.704516,0.000000
144.000000,1905.821491,7190.869116,-22599.602950,-17382.169352,-10006.674827,-14996.165335,-5026.661459,-5152.613539,4139.073686,250.563055,-3989.294647,-2968.401071,3999.419987,9509.147347,-3103.986753,-5461.425240,0.006000,-0.021000,1.012000,192.000000,0.000000,0.000000,0.000000,0.000000,0.000000,0.000000,0.000000,0.000000,0.000000,1768312485.704535,0.000000
146.000000,1954.637701,7237.181930,-22502.059937,-17302.217162,-9940.625422,-14916.637828,-4956.834609,-5066.961654,4240.349441,250.004262,-4021.861139,-2997.547745,4007.354856,9480.447707,-3134.251015,-5462.252255,0.006000,-0.021000,1.012000,192.000000,0.000000,0.000000,0.000000,0.000000,0.000000,0.000000,0.000000,0.000000,0.000000,1768312485.704557,0.000000
148.000000,1933.738820,7208.415235,-22529.194955,-17320.880869,-9966.933425,-14938.251965,-4978.672263,-5098.701131,4110.709323,269.584390,-3944.725268,-2919.070771,4031.092409,9541.915004,-3069.162735,-5478.390214,0.006000,-0.021000,1.012000,192.000000,0.000000,0.000000,0.000000,0.000000,0.000000,0.000000,0.000000,0.000000,0.000000,1768312485.704575,0.000000
150.000000,1903.631020,7190.891467,-22583.196769,-17369.406506,-10001.556277,-14984.095393,-5012.445749,-5151.250082,4208.274687,228.479532,-4043.698793,-3019.653621,3972.575542,9476.938483,-3148.958462,-5454.898531,0.006000,-0.021000,1.012000,192.000000,0.000000,0.000000,0.000000,0.000000,0.000000,0.000000,0.000000,0.000000,0.000000,1768312485.704593,0.000000
152.000000,1963.332529,7229.135302,-22464.397247,-17269.337746,-9912.238707,-14888.072299,-4932.515911,-5048.923796,4165.985187,259.257884,-3977.023539,-2947.904521,4029.013697,9522.714856,-3087.848793,-5484.380482,0.006000,-0.018500,1.012000,192.000000,0.000000,24.000000,127.500000,64.000000,15.500000,80.000000,0.000000,0.000000,0.000000,1768312485.704611,0.000000
154.000000,1889.281200,7179.782650,-22596.317243,-17385.969148,-10008.395911,-14995.517134,-5027.868453,-5165.018757,4132.614032,247.791439,-3992.043911,-2972.849068,4024.453941,9510.667266,-3105.909003,-5467.817839,0.006000,-0.018500,1.012000,192.000000,0.000000,0.000000,0.000000,0.000000,0.000000,0.000000,0.000000,0.000000,0.000000,1768312485.704628,0.000000
156.000000,1944.110029,7219.144072,-22500.227094,-17310.152031,-9941.675954,-14925.086787,-4959.785039,-5081.937323,4231.699316,236.816733,-4032.634679,-3006.197871,3976.263580,9479.866562,-3138.028459,-5465.336795,0.006000,-0.018500,1.012000,192.000000,0.000000,0.000000,0.000000,0.000000,0.000000,0.000000,0.000000,0.000000,0.000000,1768312485.704646,0.000000
158.000000,1922.540596,7195.451223,-22531.452481,-17331.788520,-9958.640928,-14948.846692,-4983.299075,-5109.921707,4102.975619,258.229704,-3954.113001,-2932.906500,4016.831996,9527.341667,-3068.358072,-5486.548601,0.006000,-0.018500,1.012000,192.000000,0.000000,0.000000,0.000000,0.000000,0.000000,0.000000,0.000000,0.000000,0.000000,1768312485.704664,0.000000
160.000000,1894.846784,7179.849706,-22585.186074,-17382.884608,-10000.841022,-14994.846582,-5017.363133,-5156.770963,4201.010370,217.638936,-4050.896055,-3025.643888,3969.133373,9463.929768,-3142.699974,-5456.373746,0.006000,-0.018500,1.012000,192.000000,0.000000,0.000000,0.000000,0.000000,0.000000,0.000000,0.000000,0.000000,0.000000,1768312485.704682,0.000000
162.000000,1952.179009,7211.499776,-22469.292279,-17280.379508,-9922.609916,-14898.264694,-4935.443990,-5054.802305,4153.535265,243.566959,-3984.869001,-2953.917140,4000.112891,9505.615771,-3083.691369,-5488.180278,0.006000,-0.017250,1.010000,192.000000,0.000000,24.000000,127.500000,64.000000,15.500000,64.000000,0.000000,0.000000,0.000000,1768312485.704699,0.000000
164.000000,1879.491136,7166.975101,-22600.206447,-17388.450192,-10010.005237,-15003.452003,-5026.750866,-5167.410394,4118.823006,229.395953,-4002.817452,-2978.034673,4010.461749,9490.036606,-3100.879860,-5476.490316,0.006000,-0.017250,1.010000,192.000000,0.000000,0.000000,0.000000,0.000000,0.000000,0.000000,0.000000,0.000000,0.000000,1768312485.704717,0.000000
166.000000,1938.253872,7205.598915,-22504.339815,-17304.899371,-9941.720658,-14926.807872,-4959.293301,-5083.054910,4221.149292,222.221043,-4041.217749,-3012.232842,3987.126528,9468.802448,-3131.144122,-5465.180333,0.006000,-0.017250,1.010000,192.000000,0.000000,0.000000,0.000000,0.000000,0.000000,0.000000,0.000000,0.000000,0.000000,1768312485.704735,0.000000
168.000000,1934.655241,7188.611590,-22530.916039,-17321.596124,-9961.300786,-14938.520186,-4982.002673,-5103.864384,4095.756006,250.428945,-3958.985681,-2933.845274,4007.958354,9524.681810,-3064.781793,-5470.969435,0.006000,-0.017250,1.010000,192.000000,0.000000,0.000000,0.000000,0.000000,0.000000,0.000000,0.000000,0.000000,0.000000,1768312485.704753,0.000000
170.000000,1897.171366,7197.440529,-22585.141371,-17372.803971,-10002.539754,-14986.509381,-5015.999677,-5147.360879,4205.123091,225.596157,-4044.436400,-3023.229900,3975.145993,9467.573102,-3143.214064,-5452.529246,0.006000,-0.017250,1.010000,192.000000,0.000000,0.000000,0.000000,0.000000,0.000000,0.000000,0.000000,0.000000,0.000000,1768312485.704771,0.000000
172.000000,1964.897152,7225.581375,-22468.465265,-17269.829484,-9914.093901,-14889.167534,-4934.214644,-5040.184264,4164.532323,257.961483,-3978.610513,-2946.541065,4047.699755,9510.823728,-3085.747729,-5474.121031,0.005000,-0.016625,1.008000,192.000000,0.000000,16.000000,127.500000,64.000000,15.500000,56.000000,0.000000,0.000000,0.000000,1768312485.704788,0.000000
174.000000,1900.613535,7194.266581,-22596.943092,-17381.096468,-10010.675789,-14992.320835,-5026.817921,-5149.886626,4129.976526,249.065488,-3992.289781,-2965.070661,4027.940813,9501.346588,-3102.466834,-5458.452458,0.005000,-0.016625,1.008000,192.000000,0.000000,0.000000,0.000000,0.000000,0.000000,0.000000,0.000000,0.000000,0.000000,1768312485.704806,0.000000
176.000000,1949.161523,7228.710619,-22500.271797,-17302.395976,-9941.564195,-14916.615476,-4959.069784,-5068.816849,4235.677926,243.924587,-4026.890281,-2996.810138,3962.919588,9472.915169,-3135.100381,-5458.765383,0.005000,-0.016625,1.008000,192.000000,0.000000,0.000000,0.000000,0.000000,0.000000,0.000000,0.000000,0.000000,0.000000,1768312485.704823,0.000000
178.000000,1937.113933,7200.592125,-22525.328103,-17314.935305,-9954.796428,-14926.785520,-4977.286455,-5090.855669,4106.417788,269.204410,-3947.519237,-2920.702448,4016.697886,9539.813941,-3065.966435,-5470.701214,0.005000,-0.016625,1.008000,192.000000,0.000000,0.000000,0.000000,0.000000,0.000000,0.000000,0.000000,0.000000,0.000000,1768312485.704843,0.000000
180.000000,1900.859404,7191.562020,-22585.096667,-17369.495913,-10000.058711,-14978.328643,-5016.670229,-5145.170408,4205.972458,232.927529,-4038.513188,-3008.120121,3961.712594,9480.581818,-3143.258768,-5447.455400,0.005000,-0.016625,1.008000,192.000000,0.000000,0.000000,0.000000,0.000000,0.000000,0.000000,0.000000,0.000000,0.000000,1768312485.704861,0.000000
182.000000,1966.327663,7220.529881,-22468.219396,-17271.863493,-9919.011285,-14889.681624,-4936.986260,-5047.515636,4160.330195,254.072279,-3980.219839,-2945.825809,4003.756226,9516.791644,-3088.452290,-5475.842115,0.005500,-0.018313,1.009000,192.000000,0.000000,24.000000,127.500000,48.000000,15.500000,72.000000,0.000000,0.000000,0.000000,1768312485.704878,0.000000
184.000000,1882.933305,7172.987720,-22599.290025,-17384.516285,-10006.406606,-14996.277093,-5027.801398,-5160.794277,4117.548957,237.308471,-3997.587144,-2973.027882,4006.170214,9502.173603,-3102.310372,-5470.231828,0.005500,-0.018313,1.009000,192.000000,0.000000,0.000000,0.000000,0.000000,0.000000,0.000000,0.000000,0.000000,0.000000,1768312485.704896,0.000000
186.000000,1939.974957,7213.042046,-22504.764498,-17308.028615,-9945.229881,-14920.772901,-4961.081441,-5082.540820,4219.182339,228.457180,-4037.082677,-3011.517586,3972.016748,9467.059012,-3135.033326,-5467.549618,0.005500,-0.018313,1.009000,192.000000,0.000000,0.000000,0.000000,0.000000,0.000000,0.000000,0.000000,0.000000,0.000000,1768312485.704914,0.000000
188.000000,1918.785503,7178.955636,-22529.843155,-17322.378435,-9956.115181,-14935.212128,-4982.695577,-5109.765245,4089.922200,247.344404,-3963.657196,-2938.315623,4025.795046,9531.588499,-3061.831362,-5478.792546,0.005500,-0.018313,1.009000,192.000000,0.000000,0.000000,0.000000,0.000000,0.000000,0.000000,0.000000,0.000000,0.000000,1768312485.704931,0.000000
190.000000,1881.681607,7171.221932,-22586.504827,-17374.547407,-9993.733167,-14981.904922,-5021.900537,-5161.196609,4192.069673,214.621450,-4057.109840,-3029.868368,3977.090594,9471.618768,-3138.073163,-5450.316423,0.005500,-0.018313,1.009000,192.000000,0.000000,0.000000,0.000000,0.000000,0.000000,0.000000,0.000000,0.000000,0.000000,1768312485.704949,0.000000
192.000000,1932.040087,7190.131508,-22469.739314,-17276.803228,-9916.507890,-14893.436717,-4943.669432,-5064.212389,4148.841399,239.454238,-3993.921458,-2959.840353,4011.400522,9512.500109,-3082.327912,-5470.030662,0.005750,-0.020156,1.011500,192.000000,0.000000,24.000000,127.500000,40.000000,15.500000,88.000000,0.000000,0.000000,0.000000,1768312485.704967,0.000000
194.000000,1858.838124,7142.164665,-22597.568941,-17387.667881,-10006.808937,-14996.098279,-5034.305755,-5174.585304,4108.094169,220.477607,-4010.193528,-2984.673141,3986.657141,9494.886934,-3093.526136,-5460.844095,0.005750,-0.020156,1.011500,192.000000,0.000000,0.000000,0.000000,0.000000,0.000000,0.000000,0.000000,0.000000,0.000000,1768312486.183967,0.000000
196.000000,1904.681552,7181.280217,-22505.122126,-17308.743871,-9939.664297,-14921.286991,-4966.736432,-5094.297838,4209.235812,217.057790,-4050.672537,-3019.295993,3981.493888,9474.502143,-3128.618375,-5460.955854,0.005750,-0.020156,1.011500,192.000000,0.000000,0.000000,0.000000,0.000000,0.000000,0.000000,0.000000,0.000000,0.000000,1768312486.184037,0.000000
198.000000,1887.090729,7162.348290,-22529.060844,-17322.557249,-9952.650661,-14930.071226,-4985.847173,-5117.476597,4083.015511,249.512523,-3972.396728,-2940.684908,4021.145883,9530.336801,-3060.534961,-5479.105470,0.005750,-0.020156,1.011500,192.000000,0.000000,0.000000,0.000000,0.000000,0.000000,0.000000,0.000000,0.000000,0.000000,1768312486.184085,0.000000
200.000000,1844.778877,7125.043228,-22590.237569,-17377.296672,-9987.385271,-14978.328643,-5025.677982,-5172.953626,4180.513821,206.731284,-4067.212828,-3035.925691,3991.038083,9466.924902,-3135.793285,-5453.199798,0.005750,-0.020156,1.011500,192.000000,0.000000,0.000000,0.000000,0.000000,0.000000,0.000000,0.000000,0.000000,0.000000,1768312486.184138,0.000000
202.000000,1895.070302,7144.712763,-22471.415695,-17274.568054,-9906.315494,-14879.332766,-4945.055240,-5071.543762,4139.587777,233.531026,-4001.699865,-2966.702338,4022.174063,9521.574917,-3079.422185,-5474.053976,0.005875,-0.020078,1.012750,192.000000,0.000000,24.000000,127.500000,48.000000,15.500000,88.000000,0.000000,0.000000,0.000000,1768312486.184203,0.000000
204.000000,1806.982077,7090.085100,-22601.368737,-17387.667881,-9995.767176,-14980.541465,-5035.937433,-5186.856411,4089.430462,213.593270,-4021.369400,-2994.105577,4012.562813,9506.219269,-3091.737997,-5459.458287,0.005875,-0.020078,1.012750,192.000000,0.000000,0.000000,0.000000,0.000000,0.000000,0.000000,0.000000,0.000000,0.000000,1768312486.184234,0.000000
206.000000,1844.845932,7102.065635,-22508.832515,-17315.203525,-9932.534091,-14913.083901,-4969.575103,-5110.391094,4188.962780,200.316334,-4064.552970,-3033.623461,4000.783444,9470.679995,-3123.857453,-5457.848961,0.005875,-0.020078,1.012750,192.000000,0.000000,0.000000,0.000000,0.000000,0.000000,0.000000,0.000000,0.000000,0.000000,1768312486.184254,0.000000
208.000000,1817.621507,7067.912169,-22531.005446,-17326.759377,-9947.375649,-14920.884659,-4985.221325,-5128.272489,4050.381964,220.298793,-3989.004074,-2953.626568,4023.537519,9530.985001,-3057.070441,-5476.177392,0.005875,-0.020078,1.012750,192.000000,0.000000,0.000000,0.000000,0.000000,0.000000,0.000000,0.000000,0.000000,0.000000,1768312486.184273,0.000000
210.000000,1770.481678,7060.066707,-22587.376545,-17379.889474,-9981.216190,-14969.209131,-5021.967592,-5179.234466,4149.534303,183.172546,-4077.740500,-3045.760458,3975.525972,9471.194085,-3130.607680,-5451.568121,0.005875,-0.020078,1.012750,192.000000,0.000000,0.000000,0.000000,0.000000,0.000000,0.000000,0.000000,0.000000,0.000000,1768312486.184303,0.000000
212.000000,1829.646746,7080.809126,-22472.957965,-17279.083106,-9904.795576,-14879.600987,-4945.256406,-5080.775032,4110.977544,213.012125,-4012.048723,-2983.287332,4022.643450,9523.117187,-3074.974188,-5473.629293,0.005875,-0.020078,1.012750,192.000000,0.000000,0.000000,0.000000,0.000000,0.000000,0.000000,0.000000,0.000000,0.000000,1768312486.184322,0.000000
214.000000,1754.969568,7034.786884,-22605.101479,-17390.350090,-9998.292923,-14985.347090,-5037.055020,-5195.394778,4061.311968,191.666209,-4032.858197,-3004.946173,3998.145938,9506.509841,-3091.782700,-5455.122048,0.008000,-0.018000,1.010000,192.000000,0.000000,32.000000,127.500000,56.000000,15.500000,72.000000,0.000000,0.000000,0.000000,1768312486.184340,0.000000
216.000000,1812.145330,7076.137611,-22508.676053,-17312.856592,-9930.120102,-14914.022674,-4969.061013,-5110.793425,4169.561466,183.887802,-4071.549066,-3040.843074,3981.829164,9478.458402,-3125.735000,-5453.266853,0.008000,-0.018000,1.010000,192.000000,0.000000,0.000000,0.000000,0.000000,0.000000,0.000000,0.000000,0.000000,0.000000,1768312486.184361,0.000000
218.000000,1799.494243,7054.210550,-22532.592420,-17326.669970,-9942.212396,-14923.432758,-4987.858830,-5132.094637,4043.095296,217.460122,-3990.367531,-2963.818963,4016.787293,9535.835330,-3059.327967,-5474.836287,0.008000,-0.018000,1.010000,192.000000,0.000000,0.000000,0.000000,0.000000,0.000000,0.000000,0.000000,0.000000,0.000000,1768312486.184375,0.000000
220.000000,1774.169716,7049.337870,-22594.149124,-17381.655262,-9994.090795,-14972.874817,-5026.192072,-5184.665940,4151.411849,185.564182,-4081.942628,-3050.946063,3976.487097,9475.329158,-3132.999317,-5448.997670,0.008000,-0.018000,1.010000,192.000000,0.000000,0.000000,0.000000,0.000000,0.000000,0.000000,0.000000,0.000000,0.000000,1768312486.184389,0.000000
222.000000,1836.352269,7086.352359,-22476.154265,-17282.547627,-9912.104596,-14880.405650,-4945.301109,-5081.780861,4105.389608,213.548567,-4018.866005,-2985.634266,4034.534578,9511.002542,-3079.980979,-5475.752708,0.008000,-0.018000,1.010000,192.000000,0.000000,0.000000,0.000000,0.000000,0.000000,0.000000,0.000000,0.000000,0.000000,1768312486.184402,0.000000
224.000000,1788.296019,7062.301882,-22601.368737,-17391.378271,-10000.706911,-14987.068175,-5035.088066,-5190.320932,4072.778412,207.401837,-4028.678421,-3001.146376,3995.553135,9496.406853,-3092.855584,-5466.208514,0.006000,-0.018000,1.004000,192.000000,0.000000,24.000000,127.500000,56.000000,15.500000,48.000000,0.000000,0.000000,0.000000,1768312486.184418,0.000000
226.000000,1851.484400,7119.432940,-22502.775193,-17314.041235,-9928.533128,-14914.782633,-4964.098926,-5102.813852,4191.421472,204.451407,-4061.870761,-3030.650679,3985.718368,9484.135745,-3124.505654,-5461.827572,0.006000,-0.018000,1.004000,192.000000,0.000000,0.000000,0.000000,0.000000,0.000000,0.000000,0.000000,0.000000,0.000000,1768312486.184437,0.000000
228.000000,1851.998490,7106.938315,-22524.322274,-17327.496985,-9942.279451,-14925.757340,-4982.047377,-5120.069399,4070.386776,236.995546,-3975.593028,-2951.056117,4051.432496,9517.573955,-3052.644795,-5478.479621,0.006000,-0.018000,1.004000,192.000000,0.000000,0.000000,0.000000,0.000000,0.000000,0.000000,0.000000,0.000000,0.000000,1768312486.184453,0.000000
230.000000,1830.853740,7112.079216,-22584.761391,-17379.643605,-9983.317254,-14978.909788,-5019.039514,-5166.829248,4176.848135,203.602040,-4062.094279,-3036.976223,4024.029258,9482.280550,-3130.294756,-5450.204664,0.006000,-0.018000,1.004000,192.000000,0.000000,0.000000,0.000000,0.000000,0.000000,0.000000,0.000000,0.000000,0.000000,1768312486.184469,0.000000
232.000000,1908.436645,7152.155894,-22463.078494,-17275.216255,-9901.643980,-14881.344423,-4934.616975,-5057.462163,4148.439067,237.531988,-3992.915629,-2958.968634,4035.428647,9520.144405,-3074.750671,-5478.300807,0.006000,-0.018000,1.004000,192.000000,0.000000,0.000000,0.000000,0.000000,0.000000,0.000000,0.000000,0.000000,0.000000,1768312486.184488,0.000000
234.000000,1839.660327,7107.653571,-22595.423173,-17384.225712,-10001.332760,-14987.381099,-5025.767389,-5170.740804,4109.994067,223.808017,-4004.024446,-2975.128946,3995.620191,9506.889821,-3091.469776,-5464.956816,0.004000,-0.018000,1.002000,192.000000,0.000000,16.000000,127.500000,56.000000,15.500000,40.000000,0.000000,0.000000,0.000000,1768312486.184503,0.000000
236.000000,1890.979933,7148.512560,-22504.339815,-17313.929476,-9940.491312,-14924.259773,-4963.629539,-5095.884811,4212.074484,212.430979,-4050.761944,-3018.536033,3976.777670,9470.992919,-3125.019744,-5461.000557,0.004000,-0.018000,1.002000,192.000000,0.000000,0.000000,0.000000,0.000000,0.000000,0.000000,0.000000,0.000000,0.000000,1768312486.184520,0.000000
238.000000,1884.229706,7129.245356,-22525.484565,-17327.586392,-9951.331908,-14934.496872,-4983.544944,-5114.481463,4086.971770,236.347346,-3969.647464,-2943.724745,4020.095351,9523.340705,-3056.332833,-5475.328025,0.004000,-0.018000,1.002000,192.000000,0.000000,0.000000,0.000000,0.000000,0.000000,0.000000,0.000000,0.000000,0.000000,1768312486.184536,0.000000
240.000000,1850.836200,7128.999487,-22584.604929,-17381.968186,-9991.185068,-14985.660015,-5020.984116,-5164.482315,4192.382597,205.814863,-4053.153581,-3030.605975,3983.416138,9469.450649,-3130.741791,-5451.165790,0.004000,-0.018000,1.002000,192.000000,0.000000,0.000000,0.000000,0.000000,0.000000,0.000000,0.000000,0.000000,0.000000,1768312486.184554,0.000000
242.000000,1919.321945,7162.169476,-22468.398210,-17280.111287,-9909.645904,-14896.543610,-4940.160208,-5062.021919,4153.669376,233.598081,-3993.966161,-2963.818963,4039.384906,9507.023931,-3077.857563,-5476.356206,0.004000,-0.018000,1.002000,192.000000,0.000000,0.000000,0.000000,0.000000,0.000000,0.000000,0.000000,0.000000,0.000000,1768312486.184576,0.000000
244.000000,1859.262807,7133.335725,-22594.193827,-17388.584302,-9994.716644,-14993.594884,-5029.053095,-5168.639740,4112.542166,224.925604,-4002.817452,-2979.979274,3988.355874,9501.637161,-3089.279305,-5461.849923,0.004000,-0.018000,1.002000,192.000000,0.000000,0.000000,127.500000,56.000000,15.500000,56.000000,0.000000,0.000000,0.000000,1768312486.184590,0.000000
246.000000,1918.718448,7186.287008,-22496.583759,-17311.694302,-9937.250309,-14921.443453,-4959.807391,-5080.953846,4223.205653,226.624337,-4037.552063,-3010.243536,3988.110004,9477.631387,-3126.182035,-5463.973339,0.004000,-0.018000,1.002000,192.000000,0.000000,0.000000,0.000000,0.000000,0.000000,0.000000,0.000000,0.000000,0.000000,1768312486.184603,0.000000
248.000000,1919.836035,7173.099479,-22510.933579,-17319.852688,-9948.180312,-14934.318058,-4972.391423,-5092.464994,4103.824985,255.279273,-3948.905045,-2925.083390,4075.080642,9532.035533,-3053.158886,-5484.335778,0.004000,-0.018000,1.002000,192.000000,0.000000,0.000000,0.000000,0.000000,0.000000,0.000000,0.000000,0.000000,0.000000,1768312486.184616,0.000000
250.000000,1882.374511,7151.172418,-22573.317298,-17374.435648,-9996.460080,-14985.190628,-5011.775197,-5143.292861,4206.263030,227.004317,-4033.707563,-3010.936440,3983.729063,9475.351509,-3133.289889,-5454.049165,0.004000,-0.018000,1.002000,192.000000,0.000000,0.000000,0.000000,0.000000,0.000000,0.000000,0.000000,0.000000,0.000000,1768312486.184630,0.000000
252.000000,1947.507494,7187.158726,-22456.820006,-17271.058830,-9915.367951,-14895.046043,-4930.258385,-5041.480665,4169.762632,252.798230,-3972.910818,-2941.646033,4009.567679,9517.238679,-3081.076214,-5484.626351,0.004000,-0.018000,1.002000,192.000000,0.000000,0.000000,0.000000,0.000000,0.000000,0.000000,0.000000,0.000000,0.000000,1768312486.184649,0.000000
254.000000,1882.955656,7150.166589,-22585.409592,-17381.118820,-10000.014007,-15000.859201,-5018.480720,-5152.300614,4122.242823,234.849779,-3985.807775,-2965.383585,4003.711522,9503.559411,-3094.509613,-5468.354281,0.002000,-0.022000,1.008000,192.000000,0.000000,8.000000,127.500000,40.000000,15.500000,64.000000,0.000000,0.000000,0.000000,1768312486.184667,0.000000
0.000000,1934.945814,7192.791366,-22494.527399,-17309.950866,-9931.528262,-14930.428854,-4953.593606,-5073.287198,4227.497188,225.953785,-4029.170159,-3002.934516,3998.145938,9474.211571,-3126.941994,-5468.242522,0.002000,-0.022000,1.008000,192.000000,0.000000,0.000000,0.000000,0.000000,0.000000,0.000000,0.000000,0.000000,0.000000,1768312486.184685,0.000000
2.000000,1934.901111,7187.114023,-22510.575951,-17316.678741,-9948.537940,-14932.306401,-4967.339929,-5081.199715,4101.790977,255.323977,-3944.948786,-2920.814207,4050.940758,9531.499092,-3054.678804,-5483.285246,0.002000,-0.022000,1.008000,192.000000,0.000000,0.000000,0.000000,0.000000,0.000000,0.000000,0.000000,0.000000,0.000000,1768312486.184702,0.000000
4.000000,1912.303497,7186.622284,-22573.563167,-17371.351108,-9988.256990,-14980.809686,-5009.249450,-5131.714658,4211.761559,234.581558,-4026.242080,-3001.436949,4015.468540,9474.748012,-3133.111076,-5461.000557,0.002000,-0.022000,1.008000,192.000000,0.000000,0.000000,0.000000,0.000000,0.000000,0.000000,0.000000,0.000000,0.000000,1768312486.184721,0.000000
6.000000,1954.168314,7208.504642,-22459.479864,-17268.153103,-9913.669218,-14889.525162,-4930.593661,-5036.429171,4171.707233,262.878867,-3969.915684,-2936.348669,4012.763979,9523.698333,-3081.992636,-5476.177392,0.002000,-0.022000,1.008000,192.000000,0.000000,0.000000,0.000000,0.000000,0.000000,0.000000,0.000000,0.000000,0.000000,1768312486.184738,0.000000
8.000000,1893.349218,7163.912912,-22588.091801,-17374.078020,-10003.970266,-14988.319872,-5018.905403,-5145.349222,4120.745256,246.316224,-3982.656179,-2956.778164,4001.990438,9512.991847,-3093.056749,-5457.267816,0.002000,-0.020000,1.012000,192.000000,0.000000,8.000000,127.500000,48.000000,15.500000,80.000000,0.000000,0.000000,0.000000,1768312486.184755,0.000000
10.000000,1946.144038,7209.041084,-22496.047318,-17299.624360,-9935.439817,-14916.459014,-4952.721888,-5066.179343,4233.465103,237.777858,-4024.230423,-2993.077397,3999.822319,9485.365091,-3128.931299,-5450.383478,0.002000,-0.020000,1.012000,192.000000,0.000000,0.000000,0.000000,0.000000,0.000000,0.000000,0.000000,0.000000,0.000000,1768312486.184772,0.000000
12.000000,1939.684384,7192.344331,-22510.777117,-17310.911991,-9940.446608,-14922.516337,-4968.099888,-5079.970369,4113.078608,266.231628,-3938.869111,-2915.069808,4052.706546,9538.919871,-3053.851790,-5468.533095,0.002000,-0.020000,1.012000,192.000000,0.000000,0.000000,0.000000,0.000000,0.000000,0.000000,0.000000,0.000000,0.000000,1768312486.184789,0.000000
14.000000,1905.150939,7179.045043,-22572.110304,-17370.211169,-9990.268647,-14976.920483,-5011.059941,-5135.715620,4215.918984,237.733154,-4024.856272,-3003.135682,4007.265449,9483.286379,-3127.187863,-5447.008365,0.002000,-0.020000,1.012000,192.000000,0.000000,0.000000,0.000000,0.000000,0.000000,0.000000,0.000000,0.000000,0.000000,1768312486.184803,0.000000
16.000000,1960.471506,7204.101348,-22459.099884,-17270.164760,-9910.003532,-14887.200581,-4931.554786,-5039.491360,4170.880219,258.542628,-3970.608589,-2938.650899,4024.900976,9522.513690,-3075.354168,-5465.649720,0.002000,-0.020000,1.012000,192.000000,0.000000,0.000000,0.000000,0.000000,0.000000,0.000000,0.000000,0.000000,0.000000,1768312486.184816,0.000000
18.000000,1887.738930,7163.085897,-22590.394031,-17377.609596,-9999.052882,-14987.425803,-5022.034648,-5152.814705,4117.928936,243.075221,-3987.461804,-2960.533257,4006.751359,9507.918001,-3087.513517,-5452.596301,0.002000,-0.020000,1.012000,192.000000,0.000000,0.000000,127.500000,40.000000,15.500000,80.000000,0.000000,0.000000,0.000000,1768312486.184831,0.000000
20.000000,1938.611500,7198.021674,-22501.389384,-17303.334749,-9936.937384,-14921.979895,-4957.013423,-5074.203619,4228.324202,234.805076,-4033.037011,-3000.252306,3995.284914,9480.850039,-3125.824407,-5453.356260,0.002000,-0.020000,1.012000,192.000000,0.000000,0.000000,0.000000,0.000000,0.000000,0.000000,0.000000,0.000000,0.000000,1768312486.184844,0.000000
22.000000,1928.352049,7183.940075,-22517.147364,-17311.291970,-9945.699268,-14927.389017,-4970.268008,-5086.832355,4102.103901,263.974102,-3947.675699,-2915.986230,4031.360630,9536.796455,-3055.483467,-5470.477697,0.002000,-0.020000,1.012000,192.000000,0.000000,0.000000,0.000000,0.000000,0.000000,0.000000,0.000000,0.000000,0.000000,1768312486.184857,0.000000
24.000000,1904.167462,7184.834145,-22577.966461,-17368.087753,-9990.559219,-14977.725146,-5011.663438,-5137.593167,4205.391312,237.576692,-4032.366458,-3000.855804,3985.003112,9482.884047,-3129.668907,-5444.840246,0.002000,-0.020000,1.012000,192.000000,0.000000,0.000000,0.000000,0.000000,0.000000,0.000000,0.000000,0.000000,0.000000,1768312486.184870,0.000000
26.000000,1969.054576,7218.585279,-22460.753913,-17263.280423,-9906.024922,-14873.342499,-4929.006687,-5034.395162,4178.658626,269.606742,-3968.663987,-2930.716029,4036.613290,9522.670153,-3078.148136,-5479.351339,0.002000,-0.020000,1.012000,192.000000,0.000000,0.000000,0.000000,0.000000,0.000000,0.000000,0.000000,0.000000,0.000000,1768312486.184883,0.000000
28.000000,1892.924534,7162.661214,-22593.322109,-17376.961395,-10008.150042,-14989.616274,-5021.833482,-5154.982824,4123.427465,247.791439,-3986.657141,-2955.012376,4008.248926,9511.941315,-3091.536831,-5455.367917,0.002000,-0.020000,1.012000,192.000000,0.000000,0.000000,127.500000,32.000000,15.500000,64.000000,0.000000,0.000000,0.000000,1768312486.184895,0.000000
30.000000,1931.257776,7195.183002,-22502.439916,-17309.459127,-9941.385381,-14925.600877,-4959.181542,-5080.305646,4224.189129,230.088857,-4037.619118,-3002.532184,3983.304379,9477.005539,-3126.964346,-5446.203702,0.002000,-0.020000,1.012000,192.000000,0.000000,0.000000,0.000000,0.000000,0.000000,0.000000,0.000000,0.000000,0.000000,1768312486.184908,0.000000
32.000000,1923.881701,7175.893447,-22518.913152,-17315.002360,-9943.195873,-14926.293782,-4971.832630,-5092.576753,4097.521794,255.480439,-3953.196580,-2922.132960,4072.621950,9530.962650,-3056.310482,-5476.937351,0.002000,-0.020000,1.012000,192.000000,0.000000,0.000000,0.000000,0.000000,0.000000,0.000000,0.000000,0.000000,0.000000,1768312486.184921,0.000000
34.000000,1892.075168,7173.926493,-22588.337670,-17376.603767,-9995.856583,-14982.396660,-5018.301906,-5150.512475,4200.384522,232.212273,-4036.590938,-3008.053065,4001.297534,9483.979283,-3135.055677,-5449.712926,0.002000,-0.020000,1.012000,192.000000,0.000000,0.000000,0.000000,0.000000,0.000000,0.000000,0.000000,0.000000,0.000000,1768312486.184933,0.000000
36.000000,1958.862181,7209.823395,-22469.113465,-17275.015089,-9914.049198,-14890.508639,-4936.338059,-5048.052078,4163.995882,253.468782,-3983.460842,-2949.536198,4017.502548,9515.964629,-3078.908095,-5464.174505,0.002000,-0.020000,1.012000,192.000000,0.000000,0.000000,0.000000,0.000000,0.000000,0.000000,0.000000,0.000000,0.000000,1768312486.184946,0.000000
38.000000,1893.863308,7173.770031,-22597.837162,-17382.079945,-10002.785623,-14985.391794,-5025.141540,-5155.608673,4116.498425,242.829352,-3994.346141,-2966.724690,4019.737723,9507.470966,-3089.614581,-5453.311557,0.002000,-0.023000,1.008000,192.000000,0.000000,8.000000,127.500000,24.000000,15.500000,48.000000,0.000000,0.000000,0.000000,1768312486.184961,0.000000
40.000000,1939.527922,7202.514375,-22502.529323,-17311.090804,-9937.987916,-14918.202450,-4959.494467,-5074.404785,4226.848987,236.548512,-4034.288708,-3004.633248,3973.424908,9482.772289,-3129.601852,-5447.075420,0.002000,-0.023000,1.008000,192.000000,0.000000,0.000000,0.000000,0.000000,0.000000,0.000000,0.000000,0.000000,0.000000,1768312486.184980,0.000000
42.000000,1932.732991,7178.396842,-22514.979245,-17318.802156,-9948.895568,-14928.618363,-4973.084327,-5086.519430,4105.769587,262.185962,-3944.859379,-2917.886128,4035.741572,9532.594327,-3054.254121,-5472.422298,0.002000,-0.023000,1.008000,192.000000,0.000000,0.000000,0.000000,0.000000,0.000000,0.000000,0.000000,0.000000,0.000000,1768312486.184993,0.000000
44.000000,1893.460976,7169.947883,-22584.180246,-17378.995404,-10000.528097,-14991.560875,-5018.681886,-5148.947853,4203.759635,221.483436,-4036.121552,-3013.551594,3975.347158,9477.407870,-3132.574634,-5446.628385,0.002000,-0.023000,1.008000,192.000000,0.000000,0.000000,0.000000,0.000000,0.000000,0.000000,0.000000,0.000000,0.000000,1768312486.185006,0.000000
46.000000,1966.171201,7208.348180,-22462.072666,-17274.165723,-9916.932573,-14887.424098,-4934.102885,-5044.744020,4184.715949,249.132544,-3979.437528,-2949.849123,4013.300420,9511.494280,-3082.082043,-5475.037453,0.002000,-0.023000,1.008000,192.000000,0.000000,0.000000,0.000000,0.000000,0.000000,0.000000,0.000000,0.000000,0.000000,1768312486.185020,0.000000
48.000000,1886.777805,7159.554322,-22591.265749,-17382.482276,-10006.294847,-14989.236294,-5024.470988,-5157.955606,4149.422544,237.643747,-3988.110004,-2966.143544,4006.527842,9507.381559,-3091.380369,-5462.453420,0.002000,-0.023000,1.008000,192.000000,0.000000,0.000000,127.500000,24.000000,15.500000,48.000000,0.000000,0.000000,0.000000,1768312486.185039,0.000000
50.000000,1937.762134,7202.782595,-22501.702309,-17309.950866,-9942.167692,-14922.717502,-4960.857923,-5077.645788,4253.916950,229.463009,-4034.691040,-3008.298934,3986.634789,9476.290283,-3130.361811,-5456.954891,0.002000,-0.023000,1.008000,192.000000,0.000000,0.000000,0.000000,0.000000,0.000000,0.000000,0.000000,0.000000,0.000000,1768312486.185055,0.000000
52.000000,1936.666898,7188.768052,-22513.749899,-17316.835203,-9947.979146,-14926.517299,-4974.000749,-5088.240515,4133.686916,259.146125,-3947.139257,-2921.954146,4041.642432,9531.700257,-3058.456249,-5476.065633,0.002000,-0.023000,1.008000,192.000000,0.000000,0.000000,0.000000,0.000000,0.000000,0.000000,0.000000,0.000000,0.000000,1768312486.185072,0.000000
54.000000,1908.928383,7180.900238,-22581.810961,-17374.256834,-9986.312388,-14976.562855,-5018.838348,-5145.639795,4234.672098,232.614605,-4033.148770,-3009.483577,4014.619173,9488.606094,-3129.780666,-5450.897569,0.002000,-0.023000,1.008000,192.000000,0.000000,0.000000,0.000000,0.000000,0.000000,0.000000,0.000000,0.000000,0.000000,1768312486.185089,0.000000
56.000000,1974.150774,7220.284011,-22460.843320,-17268.488380,-9911.031712,-14877.186999,-4934.862844,-5036.563282,4209.302868,264.756413,-3972.821411,-2937.421553,4023.001078,9528.213385,-3079.198668,-5477.362034,0.002000,-0.023000,1.008000,192.000000,0.000000,0.000000,0.000000,0.000000,0.000000,0.000000,0.000000,0.000000,0.000000,1768312486.185110,0.000000
58.000000,1897.998380,7172.875961,-22595.736098,-17382.281111,-10001.422167,-14982.977805,-5029.164854,-5156.502742,4156.955082,249.892503,-3983.192621,-2956.375832,4018.843653,9518.825652,-3092.565011,-5460.106487,0.000000,-0.022500,1.008000,192.000000,127.500000,120.000000,127.500000,40.000000,15.500000,64.000000,0.000000,0.000000,0.000000,1768312486.664912,0.000000
60.000000,1942.679518,7202.313209,-22509.547771,-17317.036368,-9943.195873,-14928.864232,-4968.144592,-5084.932457,4257.470877,227.250186,-4037.552063,-3009.505929,3995.083749,9478.100774,-3126.807884,-5450.182313,0.000000,-0.022500,1.008000,192.000000,0.000000,0.000000,0.000000,0.000000,0.000000,0.000000,0.000000,0.000000,0.000000,1768312486.665022,0.000000
62.000000,1943.014794,7185.057662,-22518.622579,-17325.217107,-9950.303727,-14932.552270,-4979.409871,-5096.622419,4132.234053,252.105326,-3953.040117,-2929.173759,4034.869854,9529.353324,-3052.018947,-5471.997615,0.000000,-0.022500,1.008000,192.000000,0.000000,0.000000,0.000000,0.000000,0.000000,0.000000,0.000000,0.000000,0.000000,1768312486.665099,0.000000
64.000000,1882.754491,7167.109211,-22588.449429,-17382.951663,-10002.182126,-14985.816477,-5024.269822,-5156.972129,4227.184263,214.889671,-4042.469447,-3021.888795,3991.976856,9467.193123,-3131.389991,-5443.320327,0.000000,-0.022500,1.008000,192.000000,0.000000,0.000000,0.000000,0.000000,0.000000,0.000000,0.000000,0.000000,0.000000,1768312486.665172,0.000000
66.000000,1951.731974,7195.875906,-22463.927861,-17274.657461,-9913.266887,-14888.117002,-4939.444952,-5048.633224,4197.367036,244.863361,-3981.091557,-2954.140658,4011.691095,9515.584650,-3082.305560,-5468.533095,0.000000,-0.022500,1.008000,192.000000,0.000000,0.000000,0.000000,0.000000,0.000000,0.000000,0.000000,0.000000,0.000000,1768312486.665237,0.000000
68.000000,1887.582468,7157.229740,-22593.277406,-17380.358861,-10007.591248,-14989.683329,-5027.689639,-5157.799144,4145.533341,235.006241,-3989.585220,-2967.261132,3998.503566,9508.432091,-3088.720511,-5460.464115,0.001000,-0.022250,1.007000,192.000000,0.000000,8.000000,127.500000,40.000000,15.500000,56.000000,0.000000,0.000000,0.000000,1768312486.665268,0.000000
70.000000,1939.773791,7195.026540,-22507.804335,-17312.543668,-9953.276509,-14925.265601,-4965.752955,-5083.390186,4258.677871,228.747753,-4036.412124,-3007.494272,3982.186792,9479.911265,-3131.211177,-5456.530208,0.001000,-0.022250,1.007000,192.000000,0.000000,0.000000,0.000000,0.000000,0.000000,0.000000,0.000000,0.000000,0.000000,1768312486.665282,0.000000
72.000000,1935.839884,7177.011034,-22516.633274,-17316.946962,-9956.450457,-14932.529918,-4975.453612,-5091.056835,4132.010535,254.564018,-3952.146048,-2923.071733,4022.196415,9540.640955,-3060.423203,-5481.385348,0.001000,-0.022250,1.007000,192.000000,0.000000,0.000000,0.000000,0.000000,0.000000,0.000000,0.000000,0.000000,0.000000,1768312486.665295,0.000000
74.000000,1894.958543,7168.383261,-22583.889673,-17382.124648,-10004.439652,-14994.354843,-5022.481683,-5153.328795,4226.692525,220.611718,-4038.513188,-3012.948097,3987.148879,9478.838382,-3133.446352,-5453.870351,0.001000,-0.022250,1.007000,192.000000,0.000000,0.000000,0.000000,0.000000,0.000000,0.000000,0.000000,0.000000,0.000000,1768312486.665308,0.000000
76.000000,1963.757213,7212.013866,-22457.602317,-17276.289138,-9915.658524,-14889.815735,-4936.606280,-5044.587558,4200.876260,248.596102,-3979.951618,-2952.263111,4012.831034,9515.495243,-3080.249200,-5477.384386,0.001000,-0.022250,1.007000,192.000000,0.000000,0.000000,0.000000,0.000000,0.000000,0.000000,0.000000,0.000000,0.000000,1768312486.665321,0.000000
78.000000,1894.779729,7164.404650,-22589.634072,-17381.476448,-9998.784661,-14985.212980,-5027.287308,-5153.082925,4153.177637,242.024689,-3987.282990,-2963.573094,4043.408220,9515.405836,-3086.217116,-5463.503952,0.002500,-0.021125,1.005500,192.000000,0.000000,16.000000,127.500000,48.000000,15.500000,48.000000,0.000000,0.000000,0.000000,1768312486.665333,0.000000
80.000000,1947.462791,7218.875851,-22505.233884,-17309.034444,-9944.268756,-14922.538688,-4965.082403,-5075.052986,4265.741022,237.084953,-4035.853331,-3002.934516,3989.920496,9480.939446,-3127.925471,-5455.278510,0.002500,-0.021125,1.005500,192.000000,0.000000,0.000000,0.000000,0.000000,0.000000,0.000000,0.000000,0.000000,0.000000,1768312486.665345,0.000000
82.000000,1948.602730,7190.176212,-22513.794603,-17309.280313,-9942.838245,-14924.885622,-4972.883162,-5078.919837,4143.544035,265.046986,-3945.418173,-2915.293326,4020.877662,9547.771162,-3054.678804,-5471.125897,0.002500,-0.021125,1.005500,192.000000,0.000000,0.000000,0.000000,0.000000,0.000000,0.000000,0.000000,0.000000,0.000000,1768312486.665368,0.000000
84.000000,1914.449264,7184.744738,-22587.376545,-17372.356936,-9997.577667,-14974.886474,-5020.760598,-5141.482370,4242.383449,233.598081,-4028.790179,-2999.358237,3997.810662,9492.316484,-3130.562977,-5440.928691,0.002500,-0.021125,1.005500,192.000000,0.000000,0.000000,0.000000,0.000000,0.000000,0.000000,0.000000,0.000000,0.000000,1768312486.665380,0.000000
86.000000,1979.425785,7230.029372,-22462.564404,-17265.426191,-9909.556497,-14874.638900,-4935.689859,-5036.384468,4214.488472,261.560114,-3974.922475,-2938.650899,4031.226519,9530.917946,-3081.456194,-5466.096755,0.002500,-0.021125,1.005500,192.000000,0.000000,0.000000,0.000000,0.000000,0.000000,0.000000,0.000000,0.000000,0.000000,1768312486.665392,0.000000
88.000000,1919.813683,7188.879810,-22584.850798,-17371.932253,-9990.939199,-14971.310195,-5022.615793,-5144.790428,4165.180524,251.725346,-3979.951618,-2951.681966,4018.240156,9527.498129,-3087.759386,-5457.960720,0.002500,-0.021125,1.005500,192.000000,0.000000,0.000000,0.000000,0.000000,0.000000,0.000000,0.000000,0.000000,0.000000,1768312486.665404,0.000000
90.000000,1954.034204,7213.153805,-22501.411736,-17307.402767,-9937.093846,-14913.240363,-4964.098926,-5074.717709,4276.827488,242.069392,-4026.152674,-2994.418501,3991.865098,9491.198896,-3124.349192,-5455.949063,-0.004000,-0.022000,1.004000,192.000000,127.500000,112.000000,127.500000,40.000000,15.500000,48.000000,0.000000,0.000000,0.000000,1768312486.665416,0.000000
92.000000,1948.535675,7193.104290,-22510.978283,-17313.504793,-9942.346506,-14919.632962,-4974.738356,-5083.412538,4144.572216,264.108212,-3944.457048,-2915.606250,4039.854293,9549.112266,-3053.136534,-5470.142421,-0.004000,-0.022000,1.004000,192.000000,0.000000,0.000000,0.000000,0.000000,0.000000,0.000000,0.000000,0.000000,0.000000,1768312486.665428,0.000000
94.000000,1907.922555,7183.247171,-22582.325051,-17380.381212,-9988.055824,-14984.408317,-5023.487511,-5148.098486,4239.656537,231.608776,-4028.879586,-3004.901469,4015.535595,9487.868486,-3127.970174,-5452.506894,-0.004000,-0.022000,1.004000,192.000000,0.000000,0.000000,0.000000,0.000000,0.000000,0.000000,0.000000,0.000000,0.000000,1768312486.665444,0.000000
96.000000,1969.769832,7219.255831,-22461.357410,-17279.530141,-9910.115291,-14890.195714,-4941.836589,-5047.515636,4210.353400,252.462954,-3980.197487,-2950.050288,4038.490836,9515.919926,-3071.777889,-5470.432993,-0.004000,-0.022000,1.004000,192.000000,0.000000,0.000000,0.000000,0.000000,0.000000,0.000000,0.000000,0.000000,0.000000,1768312486.665463,0.000000
98.000000,1897.327828,7168.673833,-22586.549531,-17384.426878,-9997.868240,-14987.582265,-5028.583709,-5152.546484,4153.155285,234.469799,-3987.037121,-2967.886981,4004.918516,9505.995751,-3082.372616,-5454.295034,-0.004000,-0.022000,1.004000,192.000000,0.000000,0.000000,0.000000,0.000000,0.000000,0.000000,0.000000,0.000000,0.000000,1768312486.665481,0.000000
100.000000,1941.897207,7208.571697,-22505.367995,-17316.611685,-9936.535053,-14924.751511,-4968.591627,-5081.646750,4266.500982,229.641823,-4033.819322,-3004.253269,3999.062359,9480.335949,-3124.148026,-5450.562292,0.008000,-0.016000,1.008000,192.000000,0.000000,32.000000,127.500000,64.000000,15.500000,64.000000,0.000000,0.000000,0.000000,1768312486.665499,0.000000
102.000000,1942.657166,7196.635866,-22513.258161,-17315.427043,-9948.895568,-14919.029465,-4976.526496,-5087.972294,4142.560559,261.336596,-3951.028460,-2919.718971,4024.453941,9545.021897,-3054.030604,-5471.639987,0.008000,-0.016000,1.008000,192.000000,0.000000,0.000000,0.000000,0.000000,0.000000,0.000000,0.000000,0.000000,0.000000,1768312486.665518,0.000000
104.000000,1905.799139,7182.800136,-22582.973252,-17378.548369,-9991.430937,-14973.500666,-5023.442808,-5149.037260,4234.940318,227.786628,-4035.920386,-3008.433045,3988.445281,9484.560428,-3128.193692,-5437.665336,0.008000,-0.016000,1.008000,192.000000,0.000000,0.000000,0.000000,0.000000,0.000000,0.000000,0.000000,0.000000,0.000000,1768312486.665536,0.000000
106.000000,1971.379157,7208.772863,-22463.480826,-17272.824618,-9901.487518,-14874.236569,-4940.674298,-5045.839256,4208.140577,258.453221,-3980.309246,-2945.602291,4036.210959,9530.694429,-3072.604903,-5466.253217,0.008000,-0.016000,1.008000,192.000000,0.000000,0.000000,0.000000,0.000000,0.000000,0.000000,0.000000,0.000000,0.000000,1768312486.665553,0.000000
108.000000,1892.991590,7169.433793,-22590.326976,-17379.487143,-9994.448423,-14977.680442,-5028.896633,-5151.630062,4151.367146,241.532951,-3988.110004,-2960.712071,4013.367476,9521.709027,-3084.205459,-5444.527321,0.008000,-0.016000,1.008000,192.000000,0.000000,0.000000,0.000000,0.000000,0.000000,0.000000,0.000000,0.000000,0.000000,1768312486.665572,0.000000
110.000000,1940.377288,7214.651372,-22507.871390,-17312.744834,-9932.243518,-14916.079034,-4967.339929,-5076.729366,4263.550551,234.670965,-4031.025354,-2999.335885,4009.970011,9492.428242,-3126.159683,-5444.192045,0.006000,-0.010000,1.006000,192.000000,0.000000,24.000000,127.500000,88.000000,15.500000,56.000000,0.000000,0.000000,0.000000,1768312486.665591,0.000000
112.000000,1937.672727,7198.602819,-22511.984111,-17316.969313,-9940.670126,-14923.700979,-4974.179563,-5083.479593,4136.905567,260.196657,-3947.027498,-2917.684962,4052.415973,9545.446580,-3049.336737,-5471.796450,0.006000,-0.010000,1.006000,192.000000,0.000000,0.000000,0.000000,0.000000,0.000000,0.000000,0.000000,0.000000,0.000000,1768312486.665610,0.000000
114.000000,1901.731122,7181.369624,-22581.632147,-17381.811724,-9988.927542,-14983.514247,-5022.973421,-5145.796257,4232.839254,225.976136,-4032.232348,-3006.108464,4005.857290,9487.019120,-3125.578538,-5446.963662,0.006000,-0.010000,1.006000,192.000000,0.000000,0.000000,0.000000,0.000000,0.000000,0.000000,0.000000,0.000000,0.000000,1768312486.665633,0.000000
116.000000,1970.395681,7221.334543,-22456.887061,-17276.110324,-9907.366026,-14883.356080,-4938.908510,-5038.440828,4211.940373,259.369643,-3974.006054,-2942.495399,4033.685211,9525.397065,-3075.398871,-5472.467002,0.006000,-0.010000,1.006000,192.000000,0.000000,0.000000,0.000000,0.000000,0.000000,0.000000,0.000000,0.000000,0.000000,1768312486.665651,0.000000
118.000000,1907.810796,7183.202467,-22583.621452,-17381.677613,-9998.136461,-14983.313082,-5026.259127,-5147.316175,4158.162076,249.087840,-3978.521106,-2956.353480,4025.392714,9520.434978,-3082.417319,-5463.503952,0.006000,-0.010000,1.006000,192.000000,0.000000,0.000000,0.000000,0.000000,0.000000,0.000000,0.000000,0.000000,0.000000,1768312486.665671,0.000000
120.000000,1953.944797,7215.210165,-22505.189181,-17315.628209,-9930.768303,-14921.152880,-4965.954121,-5078.182230,4271.932456,240.057735,-4030.377153,-3001.638115,3986.120699,9476.580855,-3125.109151,-5457.826609,0.006000,-0.010000,1.006000,192.000000,0.000000,0.000000,127.500000,64.000000,15.500000,32.000000,0.000000,0.000000,0.000000,1768312486.665703,0.000000
122.000000,1934.655241,7190.846764,-22511.917056,-17316.097595,-9944.827550,-14925.064436,-4973.464307,-5087.100576,4138.738410,262.275369,-3951.028460,-2918.601384,4029.706601,9552.934414,-3056.846923,-5478.144345,0.006000,-0.010000,1.006000,192.000000,0.000000,0.000000,0.000000,0.000000,0.000000,0.000000,0.000000,0.000000,0.000000,1768312486.665722,0.000000
124.000000,1892.142223,7190.578543,-22585.051964,-17381.811724,-9992.794394,-14985.816477,-5022.615793,-5150.981861,4228.033629,228.010145,-4034.981613,-3009.572984,3989.071129,9482.101736,-3129.601852,-5447.544807,0.006000,-0.010000,1.006000,192.000000,0.000000,0.000000,0.000000,0.000000,0.000000,0.000000,0.000000,0.000000,0.000000,1768312486.665740,0.000000
126.000000,1963.287826,7212.729122,-22460.351582,-17275.551531,-9910.517622,-14887.602912,-4937.813275,-5044.319337,4202.485586,252.462954,-3980.935094,-2946.809285,4026.823226,9524.123016,-3079.869220,-5474.813935,0.006000,-0.010000,1.006000,192.000000,0.000000,0.000000,0.000000,0.000000,0.000000,0.000000,0.000000,0.000000,0.000000,1768312486.665758,0.000000
128.000000,1895.427930,7168.025633,-22589.477609,-17382.079945,-10002.807975,-14991.538524,-5027.242604,-5154.200513,4149.601358,241.577654,-3986.411272,-2959.795649,4011.556984,9512.947144,-3084.652494,-5459.301824,0.006000,-0.010000,1.006000,192.000000,0.000000,0.000000,0.000000,0.000000,0.000000,0.000000,0.000000,0.000000,0.000000,1768312486.665776,0.000000
130.000000,1932.911805,7207.118834,-22508.564294,-17315.963485,-9944.268756,-14931.099407,-4966.222342,-5080.260942,4261.740060,230.759410,-4038.244967,-3004.297972,3982.991455,9480.447707,-3127.701953,-5453.177447,0.002000,-0.022000,1.000000,192.000000,0.000000,8.000000,127.500000,40.000000,15.500000,32.000000,0.000000,0.000000,0.000000,1768312486.665794,0.000000
132.000000,1937.069230,7196.032369,-22508.519591,-17315.158822,-9943.061762,-14928.260735,-4969.440993,-5079.948018,4138.179617,261.805983,-3946.759277,-2913.438131,4041.217749,9534.583632,-3052.264816,-5484.402834,0.002000,-0.022000,1.000000,192.000000,0.000000,0.000000,0.000000,0.000000,0.000000,0.000000,0.000000,0.000000,0.000000,1768312486.665812,0.000000
134.000000,1898.333657,7181.816659,-22585.990737,-17383.063422,-10003.187955,-14994.712471,-5019.933584,-5149.417239,4228.860644,232.100514,-4031.584147,-3002.532184,3994.100272,9482.861696,-3128.238395,-5457.625444,0.002000,-0.022000,1.000000,192.000000,0.000000,0.000000,0.000000,0.000000,0.000000,0.000000,0.000000,0.000000,0.000000,1768312486.665831,0.000000
136.000000,1960.784431,7220.105197,-22462.944384,-17277.630243,-9917.603125,-14899.963427,-4935.376934,-5043.380564,4201.032722,250.183076,-3983.393786,-2950.430268,4019.670668,9513.193013,-3083.803127,-5472.690519,0.002000,-0.022000,1.000000,192.000000,0.000000,0.000000,0.000000,0.000000,0.000000,0.000000,0.000000,0.000000,0.000000,1768312486.665849,0.000000
138.000000,1894.399750,7175.044081,-22585.543702,-17381.141172,-10005.803109,-14991.896152,-5021.632316,-5148.098486,4144.259291,242.896407,-3984.712539,-2957.761640,4030.868892,9513.885917,-3086.328874,-5464.398022,0.002000,-0.022000,1.000000,192.000000,0.000000,0.000000,0.000000,0.000000,0.000000,0.000000,0.000000,0.000000,0.000000,1768312486.665868,0.000000
140.000000,1940.980785,7220.954564,-22506.217361,-17316.544630,-9945.028716,-14926.114968,-4965.663548,-5080.126832,4265.875133,237.576692,-4031.047706,-2999.626458,3995.419025,9487.868486,-3130.115942,-5461.984034,0.004000,-0.018000,1.002000,192.000000,0.000000,16.000000,127.500000,56.000000,15.500000,40.000000,0.000000,0.000000,0.000000,1768312486.665886,0.000000
142.000000,1942.970090,7194.825374,-22511.179449,-17316.030540,-9949.454361,-14928.014866,-4973.352548,-5088.106404,4138.827817,260.621340,-3950.089687,-2919.271936,4034.176950,9540.417438,-3054.164714,-5474.635121,0.004000,-0.018000,1.002000,192.000000,0.000000,0.000000,0.000000,0.000000,0.000000,0.000000,0.000000,0.000000,0.000000,1768312486.665905,0.000000
144.000000,1890.599953,7173.948845,-22586.214255,-17382.750497,-9999.812841,-14985.347090,-5023.196938,-5151.920635,4227.161911,229.664174,-4034.959261,-3006.868423,3990.702807,9479.821858,-3129.355982,-5443.454438,0.004000,-0.018000,1.002000,192.000000,0.000000,0.000000,0.000000,0.000000,0.000000,0.000000,0.000000,0.000000,0.000000,1768312486.665923,0.000000
146.000000,1966.975864,7218.652334,-22458.518739,-17272.936377,-9905.734349,-14884.071336,-4935.980432,-5038.574939,4208.833481,258.520276,-3975.593028,-2941.646033,4031.293575,9527.229908,-3077.611694,-5469.896551,0.004000,-0.018000,1.002000,192.000000,0.000000,0.000000,0.000000,0.000000,0.000000,0.000000,0.000000,0.000000,0.000000,1768312486.665945,0.000000
148.000000,1892.946886,7173.993549,-22587.801228,-17381.699965,-10001.288057,-14989.415108,-5025.208595,-5152.412373,4151.769477,250.898332,-3977.716443,-2951.927835,4069.403299,9521.552565,-3085.278342,-5457.871313,0.004000,-0.018000,1.002000,192.000000,0.000000,0.000000,0.000000,0.000000,0.000000,0.000000,0.000000,0.000000,0.000000,1768312486.665963,0.000000
150.000000,1952.111954,7225.648430,-22504.205704,-17317.729273,-9942.525320,-14924.662104,-4965.440031,-5079.165707,4265.718671,235.967366,-4031.561796,-3002.934516,3987.886487,9474.144515,-3126.360849,-5454.317385,0.002000,-0.014000,1.000000,192.000000,0.000000,8.000000,127.500000,72.000000,15.500000,32.000000,0.000000,0.000000,0.000000,1768312486.665980,0.000000
152.000000,1944.981747,7199.295723,-22510.061861,-17318.243363,-9950.840169,-14929.311267,-4972.883162,-5083.993683,4147.254425,268.287989,-3941.059582,-2913.974573,4048.727935,9538.964574,-3053.874141,-5486.012159,0.002000,-0.014000,1.000000,192.000000,0.000000,0.000000,0.000000,0.000000,0.000000,0.000000,0.000000,0.000000,0.000000,1768312486.665996,0.000000
154.000000,1884.095595,7176.116964,-22589.768182,-17388.405489,-10009.759368,-15002.580285,-5026.437941,-5153.664071,4224.502054,226.445523,-4035.138075,-3011.629344,3975.771841,9475.686786,-3127.545491,-5447.365993,0.002000,-0.014000,1.000000,192.000000,0.000000,0.000000,0.000000,0.000000,0.000000,0.000000,0.000000,0.000000,0.000000,1768312486.666013,0.000000
156.000000,1958.705718,7213.980819,-22463.033791,-17279.083106,-9920.397093,-14897.527086,-4938.707344,-5043.268805,4206.173623,254.094631,-3977.738795,-2944.417649,4023.783389,9515.785815,-3076.628217,-5474.389252,0.002000,-0.014000,1.000000,192.000000,0.000000,0.000000,0.000000,0.000000,0.000000,0.000000,0.000000,0.000000,0.000000,1768312486.666032,0.000000
158.000000,1889.862345,7183.135412,-22590.103458,-17383.599863,-9999.052882,-14988.476335,-5026.415590,-5151.875931,4144.058126,242.851704,-3984.846650,-2957.001681,4016.362609,9516.098740,-3080.986807,-5456.261987,0.002000,-0.014000,1.000000,192.000000,0.000000,0.000000,0.000000,0.000000,0.000000,0.000000,0.000000,0.000000,0.000000,1768312486.666050,0.000000
160.000000,1951.687271,7217.467692,-22507.938446,-17314.130642,-9941.921823,-14916.548421,-4966.244694,-5076.796422,4266.858610,240.057735,-4031.852368,-2998.665333,4006.237269,9490.930675,-3123.857453,-5452.551598,0.003000,-0.018000,1.000000,192.000000,0.000000,16.000000,127.500000,40.000000,15.500000,32.000000,0.000000,0.000000,0.000000,1768312486.666068,0.000000
162.000000,1950.435573,7203.117872,-22511.760594,-17315.561153,-9948.806161,-14924.706808,-4974.157211,-5085.871230,4147.880274,263.683529,-3943.473571,-2914.198090,4040.010755,9543.591385,-3052.041298,-5467.460211,0.003000,-0.018000,1.000000,192.000000,0.000000,0.000000,0.000000,0.000000,0.000000,0.000000,0.000000,0.000000,0.000000,1768312486.666085,0.000000
164.000000,1897.596049,7182.397805,-22590.617548,-17384.225712,-9994.202554,-14987.805782,-5026.437941,-5150.557178,4227.206615,222.355154,-4032.388810,-3010.265888,4003.286839,9479.575989,-3122.024610,-5438.067667,0.003000,-0.018000,1.000000,192.000000,0.000000,0.000000,0.000000,0.000000,0.000000,0.000000,0.000000,0.000000,0.000000,1768312486.666104,0.000000
166.000000,1968.048748,7232.465712,-22459.703381,-17273.673984,-9908.707131,-14883.333729,-4937.925033,-5038.060848,4213.147368,259.682567,-3972.553190,-2941.131942,4053.377098,9522.401932,-3071.979054,-5461.402888,0.003000,-0.018000,1.000000,192.000000,0.000000,0.000000,0.000000,0.000000,0.000000,0.000000,0.000000,0.000000,0.000000,1768312486.666122,0.000000
168.000000,1906.849671,7189.125680,-22582.906196,-17378.771887,-9998.494088,-14986.643492,-5025.812093,-5146.109181,4154.451687,251.390070,-3974.229571,-2954.207713,4026.152674,9521.239641,-3075.622389,-5452.462191,0.003000,-0.018000,1.000000,192.000000,0.000000,0.000000,0.000000,0.000000,0.000000,0.000000,0.000000,0.000000,0.000000,1768312486.666139,0.000000
170.000000,1964.517172,7230.387000,-22505.166829,-17313.370682,-9942.502969,-14923.969200,-4966.199990,-5073.913047,4273.877057,244.684547,-4027.449075,-2994.798481,4006.438435,9495.065748,-3123.231604,-5450.182313,0.004500,-0.017000,1.002000,192.000000,0.000000,24.000000,127.500000,64.000000,15.500000,48.000000,0.000000,0.000000,0.000000,1768312486.666156,0.000000
172.000000,1935.906939,7205.710674,-22506.127954,-17311.962523,-9949.856693,-14922.717502,-4970.715042,-5074.293026,4145.801562,272.892448,-3939.025574,-2905.257393,4036.970918,9551.079220,-3054.969377,-5473.875162,0.004500,-0.017000,1.002000,192.000000,0.000000,0.000000,0.000000,0.000000,0.000000,0.000000,0.000000,0.000000,0.000000,1768312486.666174,0.000000
174.000000,1903.698075,7187.851630,-22581.945071,-17383.957491,-9994.202554,-14988.208114,-5022.727552,-5141.035335,4228.212443,235.162703,-4020.944717,-2998.978257,4002.236307,9482.235847,-3127.366677,-5447.298938,0.004500,-0.017000,1.002000,192.000000,0.000000,0.000000,0.000000,0.000000,0.000000,0.000000,0.000000,0.000000,0.000000,1768312486.666193,0.000000
176.000000,1974.307236,7223.927346,-22454.651887,-17275.037441,-9909.780015,-14889.681624,-4935.131065,-5032.987002,4216.410722,259.637864,-3963.590141,-2940.059059,4045.710450,9532.907251,-3076.359996,-5478.211400,0.004500,-0.017000,1.002000,192.000000,0.000000,0.000000,0.000000,0.000000,0.000000,0.000000,0.000000,0.000000,0.000000,1768312486.666212,0.000000
178.000000,1908.458997,7182.911895,-22583.040307,-17377.162561,-9999.186993,-14984.430669,-5022.816959,-5142.734068,4156.955082,247.456163,-3968.820449,-2948.642129,4042.022412,9523.497167,-3076.561162,-5460.464115,0.004500,-0.017000,1.002000,192.000000,0.000000,0.000000,0.000000,0.000000,0.000000,0.000000,0.000000,0.000000,0.000000,1768312487.145829,0.000000
180.000000,1949.742669,7224.732009,-22509.480716,-17314.085938,-9942.122989,-14921.242287,-4967.339929,-5077.846954,4267.037423,236.704974,-4028.544310,-2998.978257,3991.485118,9490.796565,-3125.265613,-5441.979223,0.005250,-0.020500,1.000000,192.000000,0.000000,24.000000,127.500000,32.000000,15.500000,24.000000,0.000000,0.000000,0.000000,1768312487.145934,0.000000
182.000000,1943.528884,7206.671799,-22509.726585,-17306.195772,-9946.503931,-14917.755415,-4968.658682,-5076.617608,4137.978451,269.226762,-3940.769010,-2910.711218,4053.131229,9553.113228,-3052.175409,-5464.576836,0.005250,-0.020500,1.000000,192.000000,0.000000,0.000000,0.000000,0.000000,0.000000,0.000000,0.000000,0.000000,0.000000,1768312487.146014,0.000000
184.000000,1905.597974,7203.453148,-22587.510656,-17380.560026,-9994.157850,-14986.554085,-5021.721723,-5143.784600,4223.205653,233.866302,-4024.208072,-2996.854841,4026.555005,9494.126975,-3125.623241,-5438.671164,0.005250,-0.020500,1.000000,192.000000,0.000000,0.000000,0.000000,0.000000,0.000000,0.000000,0.000000,0.000000,0.000000,1768312487.146071,0.000000
186.000000,1979.939876,7221.021619,-22455.903584,-17272.109362,-9911.344637,-14886.753546,-4933.052353,-5032.875244,4213.952030,259.995492,-3967.591103,-2938.740306,4037.395601,9532.951955,-3078.773985,-5465.426202,0.005250,-0.020500,1.000000,192.000000,0.000000,0.000000,0.000000,0.000000,0.000000,0.000000,0.000000,0.000000,0.000000,1768312487.146160,0.000000
188.000000,1914.069285,7184.320055,-22580.760429,-17376.715526,-9993.241429,-14984.631835,-5020.559433,-5142.577606,4157.983262,249.914855,-3968.574580,-2947.301024,4026.577357,9527.140501,-3082.394967,-5461.939330,0.005250,-0.020500,1.000000,192.000000,0.000000,0.000000,0.000000,0.000000,0.000000,0.000000,0.000000,0.000000,0.000000,1768312487.146218,0.000000
190.000000,1951.486105,7228.889433,-22503.110469,-17313.236572,-9937.540881,-14918.671837,-4963.786002,-5077.243457,4277.296874,242.203503,-4022.554043,-2997.726559,4013.814511,9488.986074,-3126.986698,-5450.852865,0.005250,-0.020500,1.000000,192.000000,0.000000,0.000000,127.500000,16.000000,15.500000,40.000000,0.000000,0.000000,0.000000,1768312487.146286,0.000000
192.000000,1952.402526,7206.582392,-22502.551675,-17303.982950,-9933.338753,-14908.926476,-4965.082403,-5073.421308,4152.037698,273.808870,-3937.282138,-2906.777311,4067.682215,9563.529141,-3051.638967,-5468.980130,0.005250,-0.020500,1.000000,192.000000,0.000000,0.000000,0.000000,0.000000,0.000000,0.000000,0.000000,0.000000,0.000000,1768312487.146333,0.000000
194.000000,1915.969183,7199.876869,-22583.353231,-17376.939044,-9987.385271,-14974.730012,-5019.061866,-5143.538731,4237.868397,243.008166,-4021.570566,-2993.680894,4018.776598,9504.319370,-3124.706820,-5441.800409,0.005250,-0.020500,1.000000,192.000000,0.000000,0.000000,0.000000,0.000000,0.000000,0.000000,0.000000,0.000000,0.000000,1768312487.146390,0.000000
196.000000,1982.040940,7234.209148,-22458.451683,-17270.701202,-9902.023959,-14873.208388,-4935.555748,-5036.004488,4224.189129,268.645617,-3972.217914,-2937.063925,4052.058345,9537.690525,-3079.399834,-5460.955854,0.005250,-0.020500,1.000000,192.000000,0.000000,0.000000,0.000000,0.000000,0.000000,0.000000,0.000000,0.000000,0.000000,1768312487.146446,0.000000
198.000000,1913.890471,7189.818584,-22582.235644,-17375.307366,-9985.552428,-14968.315061,-5023.621622,-5141.929405,4160.196085,258.766146,-3967.680510,-2942.204826,4032.567624,9536.215310,-3077.701101,-5449.198836,0.005250,-0.020500,1.000000,192.000000,0.000000,0.000000,0.000000,0.000000,0.000000,0.000000,0.000000,0.000000,0.000000,1768312487.146504,0.000000
200.000000,1960.873838,7222.809759,-22505.367995,-17313.840069,-9936.691515,-14910.781671,-4965.864714,-5075.678834,4279.219124,243.365794,-4020.162406,-2992.295085,4013.322772,9497.300923,-3123.745695,-5443.253272,0.003625,-0.024250,1.004000,192.000000,0.000000,8.000000,127.500000,16.000000,15.500000,64.000000,0.000000,0.000000,0.000000,1768312487.146533,0.000000
202.000000,1958.839829,7210.561003,-22505.278588,-17307.760395,-9934.076361,-14911.027540,-4967.630502,-5074.695358,4154.406983,270.813736,-3936.253957,-2907.224346,4057.109840,9557.784743,-3047.258025,-5465.336795,0.003625,-0.024250,1.004000,192.000000,0.000000,0.000000,0.000000,0.000000,0.000000,0.000000,0.000000,0.000000,0.000000,1768312487.146552,0.000000
204.000000,1927.659145,7197.015845,-22580.581615,-17376.112029,-9989.285170,-14973.768887,-5019.397142,-5140.320079,4242.271691,241.354137,-4018.173101,-2992.004513,4021.056476,9504.833460,-3123.924509,-5448.014194,0.003625,-0.024250,1.004000,192.000000,0.000000,0.000000,0.000000,0.000000,0.000000,0.000000,0.000000,0.000000,0.000000,1768312487.146568,0.000000
206.000000,1991.227507,7239.238291,-22457.155282,-17268.175455,-9904.639114,-14873.431906,-4934.281699,-5036.138598,4229.240624,266.276332,-3968.932208,-2935.275785,4070.409128,9536.639993,-3079.221020,-5464.688595,0.003625,-0.024250,1.004000,192.000000,0.000000,0.000000,0.000000,0.000000,0.000000,0.000000,0.000000,0.000000,0.000000,1768312487.146587,0.000000
208.000000,1910.045971,7187.941037,-22582.995603,-17373.206302,-9989.329873,-14972.986576,-5021.922889,-5144.812780,4158.832629,251.613587,-3971.055623,-2948.843294,4054.919369,9531.230871,-3074.393043,-5453.333909,0.003625,-0.024250,1.004000,192.000000,0.000000,0.000000,0.000000,0.000000,0.000000,0.000000,0.000000,0.000000,0.000000,1768312487.146604,0.000000
210.000000,1954.168314,7218.451168,-22508.653701,-17311.917819,-9939.910166,-14916.123738,-4965.685900,-5075.321206,4276.916895,242.225855,-4020.922365,-2989.970504,4018.128397,9498.597324,-3125.042096,-5445.242577,0.002812,-0.025125,1.003000,192.000000,0.000000,8.000000,127.500000,24.000000,15.500000,40.000000,0.000000,0.000000,0.000000,1768312487.146632,0.000000
212.000000,1960.940893,7210.069264,-22505.211533,-17308.118022,-9940.290146,-14911.340465,-4967.004653,-5072.974273,4153.557617,272.579524,-3933.549396,-2904.899765,4054.584092,9549.961632,-3049.873179,-5467.683729,0.002812,-0.025125,1.003000,192.000000,0.000000,0.000000,0.000000,0.000000,0.000000,0.000000,0.000000,0.000000,0.000000,1768312487.146648,0.000000
214.000000,1921.311250,7194.847726,-22582.682679,-17379.017756,-9994.537830,-14977.054593,-5019.777122,-5142.219978,4240.684717,241.130619,-4015.334429,-2996.743083,4013.188662,9499.983132,-3123.276308,-5434.849016,0.002812,-0.025125,1.003000,192.000000,0.000000,0.000000,0.000000,0.000000,0.000000,0.000000,0.000000,0.000000,0.000000,1768312487.146668,0.000000
216.000000,1992.143928,7242.993384,-22453.333134,-17272.042307,-9904.594410,-14875.622377,-4933.253519,-5035.222177,4224.189129,263.772936,-3966.294702,-2939.276748,4059.814401,9532.147292,-3068.402775,-5460.240598,0.002812,-0.025125,1.003000,192.000000,0.000000,0.000000,0.000000,0.000000,0.000000,0.000000,0.000000,0.000000,0.000000,1768312487.146683,0.000000
218.000000,1909.353067,7175.915799,-22580.313394,-17373.720392,-9992.347359,-14978.395698,-5020.917060,-5144.991594,4153.557617,255.703957,-3969.848629,-2948.731536,4034.758095,9525.441769,-3070.973226,-5442.917996,0.002812,-0.025125,1.003000,192.000000,0.000000,0.000000,0.000000,0.000000,0.000000,0.000000,0.000000,0.000000,0.000000,1768312487.146700,0.000000
220.000000,1952.670747,7222.318020,-22506.373823,-17311.157860,-9942.882948,-14923.835090,-4965.440031,-5077.042291,4265.271636,241.309433,-4023.336354,-2992.429196,4005.499662,9498.262048,-3122.114017,-5441.219263,0.002406,-0.025563,1.002500,192.000000,0.000000,8.000000,127.500000,24.000000,15.500000,40.000000,0.000000,0.000000,0.000000,1768312487.146715,0.000000
222.000000,1967.512306,7224.217918,-22497.924864,-17300.652540,-9945.878082,-14914.268543,-4962.400194,-5067.028709,4145.913320,273.987684,-3932.185940,-2901.122320,4064.776488,9555.258996,-3043.726449,-5466.454383,0.002406,-0.025563,1.002500,192.000000,0.000000,0.000000,0.000000,0.000000,0.000000,0.000000,0.000000,0.000000,0.000000,1768312487.146734,0.000000
224.000000,1929.871968,7204.950715,-22580.536912,-17373.027488,-9997.197687,-14980.228541,-5017.296078,-5133.614556,4238.606005,246.316224,-4012.741627,-2987.556516,4024.498644,9501.815975,-3116.883709,-5443.499141,0.002406,-0.025563,1.002500,192.000000,0.000000,0.000000,0.000000,0.000000,0.000000,0.000000,0.000000,0.000000,0.000000,1768312487.146750,0.000000
226.000000,1995.027303,7243.283956,-22451.321477,-17265.001507,-9910.092939,-14879.176304,-4928.872577,-5021.632316,4228.793589,274.322960,-3957.912798,-2925.843349,4061.803706,9537.131731,-3075.309464,-5465.672072,0.002406,-0.025563,1.002500,192.000000,0.000000,0.000000,0.000000,0.000000,0.000000,0.000000,0.000000,0.000000,0.000000,1768312487.146769,0.000000
228.000000,1929.491988,7197.328770,-22574.591348,-17370.769962,-9996.705949,-14979.133305,-5016.379656,-5130.686478,4164.040585,264.935227,-3954.068298,-2930.872492,4063.793011,9535.298888,-3073.610732,-5455.099697,0.002406,-0.025563,1.002500,192.000000,0.000000,0.000000,0.000000,0.000000,0.000000,0.000000,0.000000,0.000000,0.000000,1768312487.146784,0.000000
230.000000,1967.266436,7234.902052,-22502.462268,-17311.023749,-9946.973318,-14922.985723,-4962.221380,-5067.922779,4282.281313,252.440602,-4013.590993,-2983.577905,4012.741627,9497.457385,-3123.499825,-5446.784848,0.002406,-0.025563,1.002500,192.000000,0.000000,0.000000,0.000000,0.000000,0.000000,0.000000,0.000000,0.000000,0.000000,1768312487.146802,0.000000
232.000000,1966.841753,7218.853500,-22496.092021,-17302.261865,-9940.044277,-14917.308380,-4962.780173,-5066.380509,4153.155285,275.865230,-3927.961460,-2899.289477,4049.286729,9552.241510,-3047.034508,-5471.505877,0.004000,-0.022000,1.008000,192.000000,0.000000,16.000000,127.500000,40.000000,15.500000,64.000000,0.000000,0.000000,0.000000,1768312487.146818,0.000000
234.000000,1925.803951,7206.135357,-22578.726420,-17376.000270,-9997.644722,-14985.682367,-5019.464197,-5139.202492,4238.158970,245.131581,-4013.009848,-2988.316475,4013.076903,9490.885972,-3117.956593,-5441.040449,0.004000,-0.022000,1.008000,192.000000,0.000000,0.000000,0.000000,0.000000,0.000000,0.000000,0.000000,0.000000,0.000000,1768312487.146837,0.000000
236.000000,1994.848489,7246.971994,-22449.019247,-17265.649708,-9910.696436,-14883.579598,-4930.951289,-5027.220252,4228.950051,267.036291,-3963.791306,-2935.879282,4049.107915,9538.450484,-3071.800240,-5462.654586,0.004000,-0.022000,1.008000,192.000000,0.000000,0.000000,0.000000,0.000000,0.000000,0.000000,0.000000,0.000000,0.000000,1768312487.146857,0.000000
238.000000,1931.771866,7202.760244,-22572.244414,-17365.070267,-9998.851716,-14981.636701,-5015.530290,-5129.613594,4162.632425,263.370605,-3958.583350,-2932.906500,4041.083639,9537.690525,-3071.822592,-5457.133705,0.004000,-0.022000,1.008000,192.000000,0.000000,0.000000,0.000000,0.000000,0.000000,0.000000,0.000000,0.000000,0.000000,1768312487.146870,0.000000
240.000000,1969.456907,7251.263529,-22499.802411,-17306.352235,-9941.810065,-14921.331694,-4960.723813,-5063.564189,4280.560229,257.536800,-4013.836862,-2979.040501,4040.122514,9495.781004,-3120.616450,-5449.042374,0.004000,-0.022000,1.008000,192.000000,0.000000,0.000000,0.000000,0.000000,0.000000,0.000000,0.000000,0.000000,0.000000,1768312487.146884,0.000000
242.000000,1972.295579,7226.363686,-22496.472001,-17295.288121,-9935.193948,-14913.419177,-4960.790868,-5062.178381,4156.150419,288.471614,-3929.190806,-2891.846346,4082.076738,9565.429040,-3043.055897,-5474.121031,0.004000,-0.022000,1.006000,192.000000,0.000000,16.000000,127.500000,40.000000,15.500000,56.000000,0.000000,0.000000,0.000000,1768312487.146920,0.000000
244.000000,1925.379267,7203.162575,-22580.045173,-17374.010965,-9990.402757,-14986.554085,-5019.352438,-5138.308422,4236.504941,249.065488,-4015.043857,-2982.795594,4025.258604,9501.368940,-3117.598965,-5438.022964,0.004000,-0.022000,1.006000,192.000000,0.000000,0.000000,0.000000,0.000000,0.000000,0.000000,0.000000,0.000000,0.000000,1768312487.146938,0.000000
246.000000,1992.702722,7243.775695,-22451.992029,-17267.795475,-9904.929686,-14882.193790,-4931.264213,-5028.293136,4223.138597,271.014902,-3967.501696,-2932.571224,4059.836752,9529.956821,-3070.973226,-5462.676938,0.004000,-0.022000,1.006000,192.000000,0.000000,0.000000,0.000000,0.000000,0.000000,0.000000,0.000000,0.000000,0.000000,1768312487.146956,0.000000
248.000000,1934.632890,7203.028465,-22567.908176,-17369.898244,-9992.861449,-14976.160523,-5015.172662,-5129.479483,4165.962835,267.863306,-3957.868094,-2934.225253,4035.294537,9535.075371,-3070.615598,-5454.898531,0.004000,-0.022000,1.006000,192.000000,0.000000,0.000000,0.000000,0.000000,0.000000,0.000000,0.000000,0.000000,0.000000,1768312487.146973,0.000000
250.000000,1964.226599,7235.729067,-22501.679957,-17314.577677,-9946.883911,-14924.460939,-4965.149458,-5071.119079,4283.644770,254.206390,-4013.769807,-2987.087129,4013.076903,9495.959818,-3118.425979,-5445.197874,0.004000,-0.022000,1.006000,192.000000,0.000000,0.000000,0.000000,0.000000,0.000000,0.000000,0.000000,0.000000,0.000000,1768312487.146990,0.000000
252.000000,1963.287826,7229.291764,-22495.533227,-17303.513563,-9947.129780,-14920.348218,-4962.802525,-5071.275541,4152.954120,276.982817,-3931.873015,-2903.402198,4056.729860,9545.871263,-3043.480580,-5467.951950,0.004000,-0.022000,1.006000,192.000000,0.000000,0.000000,127.500000,32.000000,15.500000,88.000000,0.000000,0.000000,0.000000,1768312487.147006,0.000000
254.000000,1922.674706,7198.267543,-22577.050039,-17372.133419,-10003.567934,-14983.737765,-5016.893746,-5143.046992,4234.381525,245.086878,-4017.726066,-2990.417539,4003.197432,9502.240658,-3116.391971,-5440.213435,0.004000,-0.022000,1.006000,192.000000,0.000000,0.000000,0.000000,0.000000,0.000000,0.000000,0.000000,0.000000,0.000000,1768312487.147022,0.000000
0.000000,1991.607486,7242.836922,-22446.180576,-17260.642917,-9906.807233,-14874.080107,-4928.336135,-5028.315488,4230.201749,277.943942,-3964.461859,-2928.793779,4047.498589,9539.746885,-3071.643778,-5465.001519,0.004000,-0.022000,1.006000,192.000000,0.000000,0.000000,0.000000,0.000000,0.000000,0.000000,0.000000,0.000000,0.000000,1768312487.147041,0.000000
2.000000,1923.389962,7200.167441,-22572.356173,-17367.953642,-9987.139402,-14981.212018,-5015.373828,-5134.866254,4164.554675,271.908971,-3957.979853,-2931.520692,4040.167217,9541.110342,-3067.687520,-5455.412621,0.004000,-0.022000,1.006000,192.000000,0.000000,0.000000,0.000000,0.000000,0.000000,0.000000,0.000000,0.000000,0.000000,1768312487.147054,0.000000
4.000000,1969.546314,7242.926329,-22502.194047,-17309.928514,-9946.548634,-14928.573659,-4961.550827,-5069.152125,4279.867325,257.357986,-4016.496720,-2983.242629,4023.291650,9498.418510,-3117.040171,-5445.533150,0.004000,-0.022000,1.006000,192.000000,0.000000,0.000000,0.000000,0.000000,0.000000,0.000000,0.000000,0.000000,0.000000,1768312487.147070,0.000000
6.000000,1968.294617,7226.453093,-22498.438954,-17301.792479,-9937.809102,-14914.045026,-4961.349662,-5067.565151,4158.407945,290.080940,-3929.101399,-2894.953238,4093.833756,9550.274557,-3043.882912,-5467.415508,0.002000,-0.020000,1.016000,192.000000,0.000000,8.000000,127.500000,48.000000,15.500000,96.000000,0.000000,0.000000,0.000000,1768312487.147090,0.000000
8.000000,1927.301517,7203.319037,-22581.632147,-17374.145076,-9991.922676,-14977.881608,-5019.352438,-5143.941062,4241.176455,253.267616,-4015.960278,-2989.165841,4042.178874,9502.173603,-3116.369619,-5436.212472,0.002000,-0.020000,1.016000,192.000000,0.000000,0.000000,0.000000,0.000000,0.000000,0.000000,0.000000,0.000000,0.000000,1768312487.147105,0.000000
10.000000,1989.886402,7242.769866,-22450.941497,-17260.195882,-9901.286352,-14871.286138,-4931.644193,-5034.551625,4233.263938,278.815660,-3966.518219,-2932.437114,4060.484953,9533.756618,-3072.627255,-5455.345566,0.002000,-0.020000,1.016000,192.000000,0.000000,0.000000,0.000000,0.000000,0.000000,0.000000,0.000000,0.000000,0.000000,1768312487.147123,0.000000
12.000000,1922.540596,7190.064453,-22572.132656,-17363.595052,-9984.300731,-14970.147904,-5017.206671,-5138.889568,4163.481791,273.428890,-3959.075088,-2932.928852,4040.301328,9538.539891,-3069.520363,-5450.539941,0.002000,-0.020000,1.016000,192.000000,0.000000,0.000000,0.000000,0.000000,0.000000,0.000000,0.000000,0.000000,0.000000,1768312487.147136,0.000000
14.000000,1967.087623,7232.778637,-22501.992882,-17309.839107,-9943.061762,-14920.750549,-4964.255388,-5072.907218,4278.928552,256.709785,-4015.915575,-2987.198888,4014.239194,9494.216382,-3116.593136,-5439.252310,0.002000,-0.020000,1.016000,192.000000,0.000000,0.000000,0.000000,0.000000,0.000000,0.000000,0.000000,0.000000,0.000000,1768312487.147152,0.000000
16.000000,1975.938913,7229.649392,-22493.476867,-17297.679758,-9940.021925,-14905.014921,-4960.790868,-5063.675948,4158.139725,287.801062,-3924.675754,-2898.641276,4065.223523,9549.916929,-3044.888740,-5463.705118,0.004000,-0.020000,1.010000,192.000000,0.000000,16.000000,127.500000,48.000000,15.500000,72.000000,0.000000,0.000000,0.000000,1768312487.147171,0.000000
18.000000,1935.258738,7207.543517,-22579.240510,-17371.753439,-9997.465908,-14977.166352,-5018.301906,-5138.129608,4240.170627,259.481401,-4005.924345,-2981.163917,4008.450092,9514.936449,-3118.090703,-5435.497217,0.004000,-0.020000,1.010000,192.000000,0.000000,0.000000,0.000000,0.000000,0.000000,0.000000,0.000000,0.000000,0.000000,1768312487.147186,0.000000
20.000000,1981.526849,7239.171235,-22452.796692,-17263.839217,-9909.936477,-14879.690394,-4931.711248,-5033.434037,4224.010315,277.809832,-3964.752431,-2932.548873,4037.887339,9533.063714,-3067.665168,-5459.301824,0.004000,-0.020000,1.010000,192.000000,0.000000,0.000000,0.000000,0.000000,0.000000,0.000000,0.000000,0.000000,0.000000,1768312487.147204,0.000000
22.000000,1918.137302,7197.820508,-22575.485417,-17365.986689,-9990.492164,-14973.902997,-5018.950107,-5142.510550,4149.020213,266.164573,-3964.752431,-2934.605233,4043.564682,9533.510749,-3065.318235,-5446.203702,0.004000,-0.020000,1.010000,192.000000,0.000000,0.000000,0.000000,0.000000,0.000000,0.000000,0.000000,0.000000,0.000000,1768312487.147221,0.000000
24.000000,1964.606579,7236.041991,-22500.540018,-17310.107328,-9941.430085,-14919.811776,-4966.982301,-5077.645788,4272.826525,256.128640,-4018.463673,-2988.964676,4024.610403,9496.295094,-3115.207328,-5441.331022,0.004000,-0.020000,1.010000,192.000000,0.000000,0.000000,0.000000,0.000000,0.000000,0.000000,0.000000,0.000000,0.000000,1768312487.147240,0.000000
26.000000,1976.967094,7217.087712,-22488.894759,-17296.472764,-9929.471902,-14905.976046,-4960.254426,-5063.877113,4155.010480,289.544498,-3924.675754,-2899.915326,4075.684139,9558.678813,-3042.251234,-5464.286264,0.004000,-0.020000,1.010000,192.000000,0.000000,0.000000,127.500000,48.000000,15.500000,88.000000,0.000000,0.000000,0.000000,1768312487.147260,0.000000
28.000000,1927.145055,7204.794252,-22581.162760,-17375.329718,-9997.242391,-14980.742631,-5020.425322,-5142.890530,4242.428153,257.223875,-4007.734836,-2984.919010,4038.937871,9494.328141,-3115.855529,-5435.340754,0.004000,-0.020000,1.010000,192.000000,0.000000,0.000000,0.000000,0.000000,0.000000,0.000000,0.000000,0.000000,0.000000,1768312487.147277,0.000000
30.000000,1987.047730,7242.009907,-22454.406018,-17265.023859,-9908.550669,-14874.951825,-4933.499388,-5034.372811,4223.518577,278.055701,-3965.825315,-2933.889977,4035.518054,9532.370810,-3074.750671,-5456.038470,0.004000,-0.020000,1.010000,192.000000,0.000000,0.000000,0.000000,0.000000,0.000000,0.000000,0.000000,0.000000,0.000000,1768312487.147296,0.000000
32.000000,1929.246119,7199.452186,-22575.664231,-17363.349183,-9989.575742,-14964.627023,-5019.508901,-5136.967318,4154.541094,268.846782,-3961.332615,-2932.101838,4035.763924,9531.163815,-3070.481488,-5449.355298,0.004000,-0.020000,1.010000,192.000000,0.000000,0.000000,0.000000,0.000000,0.000000,0.000000,0.000000,0.000000,0.000000,1768312487.147315,0.000000
34.000000,1976.587114,7241.808741,-22501.881123,-17306.843973,-9931.595317,-14911.742796,-4967.250522,-5074.158916,4282.437775,264.510544,-4013.926269,-2984.896658,4036.054496,9507.560373,-3116.347267,-5445.510798,0.004000,-0.020000,1.010000,192.000000,0.000000,0.000000,0.000000,0.000000,0.000000,0.000000,0.000000,0.000000,0.000000,1768312487.147332,0.000000
36.000000,1973.301407,7227.503625,-22493.745088,-17295.891618,-9933.897547,-14907.741834,-4964.255388,-5067.386337,4159.860809,290.013884,-3926.307431,-2900.496471,4065.000005,9561.070449,-3040.060763,-5461.000557,0.004000,-0.020000,1.010000,192.000000,0.000000,0.000000,127.500000,48.000000,15.500000,96.000000,0.000000,0.000000,0.000000,1768312487.147352,0.000000
38.000000,1930.766038,7212.505604,-22579.151103,-17370.993480,-9989.776908,-14976.361689,-5021.297040,-5140.320079,4238.203673,258.922608,-4009.232403,-2982.147393,4036.143903,9507.448615,-3112.860395,-5432.815007,0.004000,-0.020000,1.010000,192.000000,0.000000,0.000000,0.000000,0.000000,0.000000,0.000000,0.000000,0.000000,0.000000,1768312487.147370,0.000000
40.000000,1997.195422,7244.893282,-22451.992029,-17260.017068,-9902.672160,-14875.778839,-4932.001821,-5030.327145,4233.778028,285.096501,-3963.433679,-2927.162102,4054.517037,9539.612775,-3070.414432,-5456.686670,0.004000,-0.020000,1.010000,192.000000,0.000000,0.000000,0.000000,0.000000,0.000000,0.000000,0.000000,0.000000,0.000000,1768312487.147388,0.000000
42.000000,1936.197512,7204.526032,-22571.685621,-17360.890491,-9984.010158,-14965.319927,-5015.217366,-5131.759361,4162.900646,277.541611,-3957.510466,-2928.145579,4052.415973,9539.992754,-3065.027662,-5447.880083,0.004000,-0.020000,1.010000,192.000000,0.000000,0.000000,0.000000,0.000000,0.000000,0.000000,0.000000,0.000000,0.000000,1768312487.625823,0.000000
44.000000,1971.669730,7246.882587,-22508.430184,-17309.906162,-9939.150207,-14912.815680,-4966.557618,-5074.918875,4281.208429,265.494021,-4016.228499,-2981.633303,4019.223633,9503.268838,-3117.733075,-5439.341717,0.004000,-0.020000,1.010000,192.000000,0.000000,0.000000,0.000000,0.000000,0.000000,0.000000,0.000000,0.000000,0.000000,1768312487.625908,0.000000
46.000000,1969.255742,7225.581375,-22496.002614,-17299.736118,-9936.088018,-14903.271485,-4961.215551,-5066.089936,4153.445858,289.991533,-3930.129579,-2899.915326,4064.083584,9551.593310,-3042.117124,-5460.821743,0.005000,-0.018000,1.013000,192.000000,0.000000,24.000000,127.500000,64.000000,15.500000,96.000000,0.000000,0.000000,0.000000,1768312487.625962,0.000000
48.000000,1924.328735,7207.565869,-22584.806095,-17377.117858,-9999.298751,-14982.664881,-5020.827654,-5145.125704,4233.688621,253.513486,-4011.758150,-2990.037559,4008.383037,9498.642027,-3116.011991,-5438.201778,0.005000,-0.018000,1.013000,192.000000,0.000000,0.000000,0.000000,0.000000,0.000000,0.000000,0.000000,0.000000,0.000000,1768312487.626020,0.000000
50.000000,1984.589038,7238.076000,-22461.133893,-17268.778952,-9914.697399,-14889.234589,-4935.198120,-5039.781933,4216.656591,269.539686,-3972.866115,-2941.266053,4040.100162,9524.167719,-3077.231714,-5457.603092,0.005000,-0.018000,1.013000,192.000000,0.000000,0.000000,0.000000,0.000000,0.000000,0.000000,0.000000,0.000000,0.000000,1768312487.626073,0.000000
52.000000,1918.718448,7188.298665,-22581.967423,-17369.048878,-9999.611676,-14979.848561,-5020.581784,-5142.063515,4144.706326,261.336596,-3967.099365,-2942.271881,4040.100162,9516.791644,-3068.358072,-5448.975319,0.005000,-0.018000,1.013000,192.000000,0.000000,0.000000,0.000000,0.000000,0.000000,0.000000,0.000000,0.000000,0.000000,1768312487.626126,0.000000
54.000000,1965.657111,7231.079904,-22508.653701,-17312.789537,-9946.258062,-14926.539651,-4968.479868,-5077.355215,4272.938284,251.837105,-4020.743551,-2995.111405,4007.556022,9503.402949,-3121.041134,-5439.095847,0.005000,-0.018000,1.013000,192.000000,0.000000,0.000000,0.000000,0.000000,0.000000,0.000000,0.000000,0.000000,0.000000,1768312487.626150,0.000000
56.000000,1971.647378,7225.044933,-22492.448687,-17296.226894,-9937.116198,-14911.586334,-4961.416717,-5063.854762,4159.905512,287.354027,-3926.530948,-2902.597535,4079.260418,9554.499037,-3044.352298,-5467.326101,0.005500,-0.019000,1.011500,192.000000,0.000000,24.000000,127.500000,48.000000,15.500000,72.000000,0.000000,0.000000,0.000000,1768312487.626169,0.000000
58.000000,1927.145055,7207.811738,-22578.189978,-17371.887549,-9996.303618,-14982.866047,-5017.474892,-5138.196664,4242.092877,255.189866,-4005.365551,-2983.421443,4015.222670,9501.793623,-3115.117921,-5435.608975,0.005500,-0.019000,1.011500,192.000000,0.000000,0.000000,0.000000,0.000000,0.000000,0.000000,0.000000,0.000000,0.000000,1768312487.626187,0.000000
60.000000,1999.743521,7249.542445,-22449.756855,-17263.079257,-9903.365064,-14881.903217,-4928.403190,-5026.817921,4238.918929,283.531878,-3958.762164,-2930.917195,4070.945569,9522.603097,-3074.415395,-5464.330967,0.005500,-0.019000,1.011500,192.000000,0.000000,0.000000,0.000000,0.000000,0.000000,0.000000,0.000000,0.000000,0.000000,1768312487.626204,0.000000
62.000000,1940.399640,7191.718482,-22571.730324,-17364.310308,-9994.090795,-14981.726108,-5014.099778,-5133.726315,4160.151382,270.277294,-3954.917664,-2930.403105,4029.706601,9539.612775,-3072.359034,-5452.685708,0.005500,-0.019000,1.011500,192.000000,0.000000,0.000000,0.000000,0.000000,0.000000,0.000000,0.000000,0.000000,0.000000,1768312487.626222,0.000000
64.000000,1961.164410,7237.248985,-22504.116297,-17311.113156,-9936.847977,-14926.964334,-4965.864714,-5074.047157,4282.795403,256.150991,-4015.490891,-2984.963713,4018.977764,9495.512783,-3116.928413,-5442.672127,0.005500,-0.019000,1.011500,192.000000,0.000000,0.000000,0.000000,0.000000,0.000000,0.000000,0.000000,0.000000,0.000000,1768312487.626240,0.000000
66.000000,1976.207134,7228.800026,-22487.821876,-17297.031557,-9932.221166,-14912.480403,-4959.516818,-5061.440773,4168.466230,288.762187,-3924.854568,-2897.210765,4062.496610,9551.950938,-3039.859598,-5462.967511,0.006750,-0.018500,1.011750,192.000000,0.000000,32.000000,127.500000,56.000000,15.500000,80.000000,0.000000,0.000000,0.000000,1768312487.626258,0.000000
68.000000,1922.518244,7205.263639,-22576.938281,-17376.536712,-9990.000426,-14984.721242,-5020.268860,-5141.683536,4246.295005,253.334672,-4006.103159,-2988.204716,4024.297479,9497.993827,-3113.396837,-5438.827627,0.006750,-0.018500,1.011750,192.000000,0.000000,0.000000,0.000000,0.000000,0.000000,0.000000,0.000000,0.000000,0.000000,1768312487.626275,0.000000
70.000000,1999.899983,7251.464695,-22447.029942,-17263.682754,-9897.598314,-14883.378432,-4927.531472,-5025.365058,4247.412592,277.921591,-3959.902103,-2933.353535,4065.089412,9530.515615,-3073.320159,-5467.169639,0.006750,-0.018500,1.011750,192.000000,0.000000,0.000000,0.000000,0.000000,0.000000,0.000000,0.000000,0.000000,0.000000,1768312487.626293,0.000000
72.000000,1927.502683,7204.347218,-22571.506807,-17364.109142,-9986.781774,-14980.049727,-5012.557508,-5131.669954,4167.013367,269.070300,-3953.196580,-2930.246643,4046.559816,9531.946126,-3066.212304,-5458.385403,0.006750,-0.018500,1.011750,192.000000,0.000000,0.000000,0.000000,0.000000,0.000000,0.000000,0.000000,0.000000,0.000000,1768312487.626312,0.000000
74.000000,1968.316968,7233.516244,-22507.580818,-17309.101499,-9942.748838,-14925.265601,-4964.143630,-5073.801288,4283.823584,256.061584,-4015.155615,-2984.963713,4038.356726,9487.644969,-3121.443465,-5439.811103,0.006750,-0.018500,1.011750,192.000000,0.000000,0.000000,0.000000,0.000000,0.000000,0.000000,0.000000,0.000000,0.000000,1768312487.626330,0.000000
76.000000,1973.435518,7223.815587,-22493.834495,-17291.555380,-9934.657506,-14912.569810,-4958.041603,-5060.904331,4164.778193,287.801062,-3925.972155,-2895.020294,4081.920276,9548.575824,-3046.095734,-5461.335833,0.006375,-0.020250,1.012875,192.000000,0.000000,24.000000,127.500000,40.000000,15.500000,88.000000,0.000000,0.000000,0.000000,1768312487.626347,0.000000
78.000000,1931.324831,7211.678590,-22581.341574,-17369.138285,-9992.123841,-14982.709585,-5017.676058,-5138.174312,4242.249339,255.323977,-4006.684304,-2982.080338,4018.441322,9492.316484,-3114.022686,-5437.575929,0.006375,-0.020250,1.012875,192.000000,0.000000,0.000000,0.000000,0.000000,0.000000,0.000000,0.000000,0.000000,0.000000,1768312487.626365,0.000000
80.000000,1997.396588,7251.844675,-22452.617878,-17258.608908,-9905.600239,-14879.757450,-4928.917280,-5029.053095,4243.523388,280.134413,-3961.422022,-2930.671326,4054.449982,9529.219214,-3075.845906,-5452.730412,0.006375,-0.020250,1.012875,192.000000,0.000000,0.000000,0.000000,0.000000,0.000000,0.000000,0.000000,0.000000,0.000000,1768312487.626382,0.000000
82.000000,1931.615404,7202.760244,-22571.082124,-17362.097485,-9981.171487,-14971.220788,-5013.362171,-5133.100466,4170.477887,271.149012,-3953.464801,-2931.632451,4047.900921,9533.801321,-3067.173429,-5446.337813,0.006375,-0.020250,1.012875,192.000000,0.000000,0.000000,0.000000,0.000000,0.000000,0.000000,0.000000,0.000000,0.000000,1768312487.626400,0.000000
84.000000,1976.900038,7237.763076,-22505.926789,-17311.359025,-9941.497140,-14922.605744,-4964.233037,-5073.063680,4293.144261,252.708823,-4013.747455,-2987.489460,4041.307156,9497.524440,-3115.095570,-5434.871368,0.006375,-0.020250,1.012875,192.000000,0.000000,0.000000,0.000000,0.000000,0.000000,0.000000,0.000000,0.000000,0.000000,1768312487.626417,0.000000
86.000000,1973.368463,7238.254814,-22489.185332,-17294.282293,-9932.847015,-14906.825412,-4955.582911,-5057.886846,4170.120260,282.928381,-3924.161664,-2898.283648,4055.656976,9553.984946,-3041.312461,-5459.793563,0.005188,-0.020125,1.013437,192.000000,0.000000,16.000000,127.500000,48.000000,15.500000,88.000000,0.000000,0.000000,0.000000,1768312487.626435,0.000000
88.000000,1917.690267,7204.369569,-22584.493170,-17375.597939,-9995.186030,-14985.347090,-5018.570127,-5141.370611,4243.143409,249.601930,-4006.617249,-2984.516678,4028.521958,9499.938428,-3108.702971,-5440.638118,0.005188,-0.020125,1.013437,192.000000,0.000000,0.000000,0.000000,0.000000,0.000000,0.000000,0.000000,0.000000,0.000000,1768312487.626452,0.000000
90.000000,1978.777585,7245.385020,-22455.903584,-17263.034554,-9913.892736,-14880.785630,-4930.079571,-5032.271747,4231.408743,266.343387,-3969.781574,-2938.449733,4045.174008,9524.145368,-3073.968360,-5453.311557,0.005188,-0.020125,1.013437,192.000000,0.000000,0.000000,0.000000,0.000000,0.000000,0.000000,0.000000,0.000000,0.000000,1768312487.626470,0.000000
92.000000,1925.692192,7197.239363,-22574.144313,-17361.739857,-9997.912943,-14972.986576,-5014.435055,-5135.492103,4160.620768,264.197619,-3959.052737,-2934.001736,4033.819322,9531.275574,-3068.916865,-5450.964624,0.005188,-0.020125,1.013437,192.000000,0.000000,0.000000,0.000000,0.000000,0.000000,0.000000,0.000000,0.000000,0.000000,1768312487.626488,0.000000
94.000000,1965.590056,7239.551215,-22511.760594,-17310.733177,-9956.964547,-14927.925459,-4966.021176,-5077.221105,4285.723482,254.139334,-4018.977764,-2989.344655,4010.886432,9483.867524,-3123.656288,-5440.459304,0.005188,-0.020125,1.013437,192.000000,0.000000,0.000000,0.000000,0.000000,0.000000,0.000000,0.000000,0.000000,0.000000,1768312487.626506,0.000000
96.000000,1972.787317,7229.761151,-22497.947216,-17292.672967,-9948.560291,-14912.547459,-4955.337042,-5056.813962,4165.381690,285.923515,-3927.737943,-2897.546041,4078.187535,9548.128789,-3047.526246,-5468.130764,0.004594,-0.022062,1.008719,192.000000,0.000000,16.000000,127.500000,32.000000,15.500000,48.000000,0.000000,0.000000,0.000000,1768312487.626523,0.000000
98.000000,1917.734971,7203.587258,-22591.757487,-17377.676651,-10006.831289,-14990.800916,-5018.592479,-5139.805989,4232.548682,249.713689,-4010.104121,-2986.126004,4047.230369,9503.894687,-3119.923546,-5438.246481,0.004594,-0.022062,1.008719,192.000000,0.000000,0.000000,0.000000,0.000000,0.000000,0.000000,0.000000,0.000000,0.000000,1768312487.626542,0.000000
