Sample_index,EXG Channel 0,EXG Channel 1,EXG Channel 2,EXG Channel 3,EXG Channel 4,EXG Channel 5,EXG Channel 6,EXG Channel 7,EXG Channel 8,EXG Channel 9,EXG Channel 10,EXG Channel 11,EXG Channel 12,EXG Channel 13,EXG Channel 14,EXG Channel 15,Accel Channel 0,Accel Channel 1,Accel Channel 2,Not Used,Digital Channel 0 (D11),Digital Channel 1 (D12),Digital Channel 2 (D13),Digital Channel 3 (D17),Not Used,Digital Channel 4 (D18),Analog Channel 0,Analog Channel 1,Analog Channel 2,Timestamp,Marker Channel
88.000000,23222.456661,14483.103392,8068.823286,8171.238979,7577.442536,10572.933921,-12083.487163,-12395.808088,-3836.967508,-4793.689226,-4454.970891,25279.621813,18809.171773,22398.549008,14217.408206,-5031.042401,-0.006000,-0.014000,1.010000,192.000000,0.000000,0.000000,0.000000,0.000000,0.000000,0.000000,0.000000,0.000000,0.000000,1771317477.163392,101.000000
90.000000,23244.786053,14498.749614,8070.142039,8175.664625,7576.324949,10571.928092,-12082.883666,-12391.650664,-3891.639875,-4840.493779,-4506.379903,25233.532516,18782.752011,22344.234269,14223.666695,-5080.707977,-0.006000,-0.014000,1.010000,192.000000,0.000000,0.000000,0.000000,0.000000,0.000000,0.000000,0.000000,0.000000,0.000000,1771317477.163500,0.000000
92.000000,23286.002670,14534.467701,8102.485013,8215.204861,7613.138272,10609.635485,-12045.422142,-12355.351431,-3821.343639,-4788.078938,-4453.965062,25295.446848,18813.530363,22394.592749,14216.827061,-5029.522482,-0.006000,-0.014000,1.010000,192.000000,0.000000,0.000000,0.000000,0.000000,0.000000,0.000000,0.000000,0.000000,0.000000,1771317477.163542,0.000000
94.000000,23217.002835,14465.132590,8052.662975,8160.957177,7563.025661,10559.232302,-12102.687311,-12415.231754,-3863.208456,-4816.264488,-4488.163231,25259.482891,18789.166962,22370.452865,14223.353770,-5053.327090,-0.006000,-0.014000,1.010000,192.000000,0.000000,0.000000,127.500000,72.000000,15.500000,72.000000,0.000000,0.000000,0.000000,1771317477.163586,0.000000
96.000000,23270.803484,14523.336533,8097.165298,8208.097006,7608.734978,10606.618000,-12054.586357,-12366.884931,-3871.478602,-4819.550195,-4491.158365,25249.893993,18797.347700,22370.609328,14216.067101,-5056.188113,-0.006000,-0.014000,1.010000,192.000000,0.000000,0.000000,0.000000,0.000000,0.000000,0.000000,0.000000,0.000000,0.000000,1771317477.163625,0.000000
98.000000,23235.934762,14481.695233,8069.762059,8182.839535,7583.924542,10581.829915,-12082.101355,-12396.098661,-3828.429142,-4792.392825,-4454.210932,25280.694697,18809.954084,22396.000909,14215.597715,-5019.106569,-0.006000,-0.014000,1.010000,192.000000,0.000000,0.000000,0.000000,0.000000,0.000000,0.000000,0.000000,0.000000,0.000000,1771317477.163668,0.000000
100.000000,23227.061120,14483.058689,8063.861199,8184.851192,7580.728242,10586.166154,-12083.509515,-12395.986902,-3891.148137,-4842.460733,-4508.950354,25232.794909,18785.456572,22342.714351,14222.057369,-5062.915988,-0.006000,-0.014000,1.010000,192.000000,0.000000,0.000000,0.000000,0.000000,0.000000,0.000000,0.000000,0.000000,0.000000,1771317477.163712,0.000000
102.000000,23268.568309,14515.379311,8092.717301,8214.444901,7611.551298,10612.630619,-12051.792389,-12362.124009,-3844.120067,-4798.137223,-4464.336272,25280.962918,18795.268988,22401.499438,14207.908715,-5021.565261,-0.006000,-0.014000,1.010000,192.000000,0.000000,0.000000,0.000000,0.000000,0.000000,0.000000,0.000000,0.000000,0.000000,1771317477.163750,0.000000
104.000000,23218.947437,14478.811858,8051.299519,8164.555808,7571.407565,10566.474267,-12102.374387,-12411.275495,-3865.980073,-4817.493834,-4488.051473,25260.153444,18778.862808,22376.443133,14222.794977,-5047.649747,-0.002000,-0.016000,1.010000,192.000000,127.500000,120.000000,127.500000,64.000000,15.500000,72.000000,0.000000,0.000000,0.000000,1771317477.163780,0.000000
106.000000,23279.274795,14537.708704,8099.579287,8206.800605,7616.111054,10608.920230,-12055.011041,-12361.118181,-3854.580683,-4811.995305,-4481.994150,25267.440113,18797.705328,22362.517996,14227.868823,-5048.096782,-0.002000,-0.016000,1.010000,192.000000,0.000000,0.000000,0.000000,0.000000,0.000000,0.000000,0.000000,0.000000,0.000000,1771317477.163816,0.000000
108.000000,23259.739370,14494.726300,8071.639606,8181.565485,7585.846792,10589.340101,-12081.721375,-12384.296940,-3821.053066,-4781.663988,-4448.734754,25287.646090,18819.140651,22402.572322,14222.996142,-5016.089084,-0.002000,-0.016000,1.010000,192.000000,0.000000,0.000000,0.000000,0.000000,0.000000,0.000000,0.000000,0.000000,0.000000,1771317477.163832,0.000000
110.000000,23243.623763,14487.864314,8069.247969,8180.984340,7581.421147,10582.947502,-12080.804954,-12387.783812,-3876.016006,-4828.982631,-4496.522784,25244.641333,18785.680090,22365.334316,14231.333343,-5063.072451,-0.002000,-0.016000,1.010000,192.000000,0.000000,0.000000,0.000000,0.000000,0.000000,0.000000,0.000000,0.000000,0.000000,1771317477.163848,0.000000
112.000000,23254.665524,14513.702931,8093.298446,8206.487680,7607.103301,10608.249677,-12052.529997,-12365.275605,-3843.583625,-4800.327694,-4459.664757,25271.999868,18800.275779,22404.673386,14211.596753,-5028.539005,-0.002000,-0.016000,1.010000,192.000000,0.000000,0.000000,0.000000,0.000000,0.000000,0.000000,0.000000,0.000000,0.000000,1771317477.163865,0.000000
114.000000,23214.052405,14460.908110,8044.728106,8160.018404,7559.047050,10564.462610,-12106.285942,-12423.010161,-3865.130706,-4824.735799,-4489.861964,25242.719083,18783.154343,22390.748249,14218.391683,-5049.974328,-0.004000,-0.014000,1.010000,192.000000,127.500000,112.000000,127.500000,72.000000,15.500000,72.000000,0.000000,0.000000,0.000000,1771317477.163881,0.000000
116.000000,23248.317629,14503.041149,8090.549182,8213.573183,7603.951705,10607.780291,-12051.904148,-12365.655585,-3870.472773,-4828.334430,-4496.679246,25249.424606,18784.383688,22352.593822,14216.804709,-5049.527293,-0.004000,-0.014000,1.010000,192.000000,0.000000,0.000000,0.000000,0.000000,0.000000,0.000000,0.000000,0.000000,0.000000,1771317477.163896,0.000000
118.000000,23223.551896,14475.280282,8060.597844,8185.611151,7577.040205,10571.481058,-12082.280169,-12391.673016,-3851.987881,-4796.974933,-4460.737641,25292.697584,18792.586779,22390.234159,14211.797918,-5016.379656,-0.004000,-0.014000,1.010000,192.000000,0.000000,0.000000,0.000000,0.000000,0.000000,0.000000,0.000000,0.000000,0.000000,1771317477.163912,0.000000
120.000000,23237.074701,14485.115049,8069.471487,8190.036796,7583.924542,10580.891142,-12077.273378,-12383.715795,-3880.978093,-4835.598747,-4500.881374,25249.156386,18770.972642,22355.276031,14222.549107,-5060.546703,-0.004000,-0.014000,1.010000,192.000000,0.000000,0.000000,0.000000,0.000000,0.000000,0.000000,0.000000,0.000000,0.000000,1771317477.163928,0.000000
122.000000,23271.898719,14513.501765,8099.959266,8217.775311,7616.133406,10606.796814,-12045.533901,-12356.200797,-3835.827569,-4795.253848,-4453.674490,25290.484761,18809.462346,22393.251645,14209.830965,-5020.894709,-0.004000,-0.014000,1.010000,192.000000,0.000000,0.000000,0.000000,0.000000,0.000000,0.000000,0.000000,0.000000,0.000000,1771317477.163943,0.000000
124.000000,23206.966902,14457.600052,8055.568702,8171.462497,7575.296769,10569.938787,-12095.713567,-12410.515536,-3872.730300,-4826.143959,-4483.156441,25257.538290,18799.962854,22380.220578,14221.900907,-5040.497189,-0.004000,-0.010000,1.012000,192.000000,127.500000,112.000000,127.500000,88.000000,15.500000,80.000000,0.000000,0.000000,0.000000,1771317477.163959,0.000000
126.000000,23254.754931,14494.547486,8091.487955,8210.309829,7615.127577,10617.078616,-12054.295785,-12368.807181,-3871.076270,-4836.939852,-4489.481984,25249.268144,18791.871523,22375.258490,14220.045712,-5043.715840,-0.004000,-0.010000,1.012000,192.000000,0.000000,0.000000,0.000000,0.000000,0.000000,0.000000,0.000000,0.000000,0.000000,1771317477.163975,0.000000
128.000000,23235.286562,14476.867256,8070.432612,8182.817183,7594.206344,10593.117546,-12081.341396,-12390.220152,-3835.358183,-4803.948677,-4457.027251,25283.019278,18807.204820,22399.174857,14220.425692,-5011.574031,-0.004000,-0.010000,1.012000,192.000000,0.000000,0.000000,0.000000,0.000000,0.000000,0.000000,0.000000,0.000000,0.000000,1771317477.163990,0.000000
130.000000,23242.059140,14489.719509,8076.065251,8180.179677,7591.837059,10585.473250,-12077.608654,-12382.151172,-3876.328930,-4844.740611,-4494.421720,25248.686999,18790.016328,22349.352819,14230.886308,-5062.603064,-0.004000,-0.010000,1.012000,192.000000,0.000000,0.000000,0.000000,0.000000,0.000000,0.000000,0.000000,0.000000,0.000000,1771317477.164006,0.000000
132.000000,23268.434199,14507.735015,8100.518060,8207.985247,7610.836042,10608.227325,-12044.304555,-12350.992841,-3838.867407,-4809.938945,-4450.791115,25285.455619,18807.338930,22384.378002,14215.642418,-5022.459331,-0.004000,-0.010000,1.012000,192.000000,0.000000,0.000000,0.000000,0.000000,0.000000,0.000000,0.000000,0.000000,0.000000,1771317477.164021,0.000000
134.000000,23212.264265,14459.634061,8051.612443,8161.270101,7561.997481,10562.808581,-12096.697044,-12406.715740,-3859.408660,-4835.777561,-4480.317769,25259.169967,18783.891950,22366.451903,14218.794014,-5049.281424,-0.006000,-0.008000,1.006000,192.000000,127.500000,104.000000,127.500000,96.000000,15.500000,56.000000,0.000000,0.000000,0.000000,1771317477.164037,0.000000
136.000000,23247.758835,14504.181088,8094.684254,8204.677189,7605.605734,10597.006750,-12050.943023,-12365.834399,-3873.423204,-4834.548215,-4487.425624,25250.698656,18787.736450,22358.695848,14216.760006,-5051.382488,-0.006000,-0.008000,1.006000,192.000000,0.000000,0.000000,0.000000,0.000000,0.000000,0.000000,0.000000,0.000000,0.000000,1771317477.164055,0.000000
138.000000,23219.550934,14464.506741,8063.280054,8173.563561,7574.469754,10563.523837,-12083.621273,-12400.211382,-3845.505875,-4807.994343,-4458.502467,25279.264185,18799.292302,22402.259398,14212.848450,-5020.447674,-0.006000,-0.008000,1.006000,192.000000,0.000000,0.000000,0.000000,0.000000,0.000000,0.000000,0.000000,0.000000,0.000000,1771317477.164073,0.000000
140.000000,23215.728785,14455.431933,8065.224655,8176.022253,7576.213190,10571.726927,-12083.040128,-12396.344530,-3894.009160,-4858.442230,-4508.972705,25226.335254,18774.213645,22336.120586,14218.838718,-5069.956788,-0.006000,-0.008000,1.006000,192.000000,0.000000,0.000000,0.000000,0.000000,0.000000,0.000000,0.000000,0.000000,0.000000,1771317477.164089,0.000000
142.000000,23253.324420,14495.575666,8097.612333,8214.511957,7605.426920,10606.148613,-12045.578604,-12359.330041,-3849.819761,-4813.828148,-4457.608397,25275.084409,18803.539133,22391.508209,14212.043787,-5018.324258,-0.006000,-0.008000,1.006000,192.000000,0.000000,0.000000,0.000000,0.000000,0.000000,0.000000,0.000000,0.000000,0.000000,1771317477.164105,0.000000
144.000000,23218.343940,14452.548558,8050.383097,8168.668529,7557.638890,10552.839703,-12095.422995,-12404.838193,-3880.128727,-4837.923329,-4488.766728,25252.285630,18778.058145,22359.947546,14214.524831,-5048.700279,-0.006000,-0.008000,1.012000,192.000000,127.500000,104.000000,127.500000,96.000000,15.500000,80.000000,0.000000,0.000000,0.000000,1771317477.164121,0.000000
146.000000,23242.372065,14500.269532,8091.845583,8211.069788,7598.408472,10596.626770,-12049.959546,-12359.285338,-3873.065576,-4832.089523,-4488.118528,25262.679191,18777.924034,22364.373191,14212.401415,-5050.488418,-0.006000,-0.008000,1.012000,192.000000,0.000000,0.000000,0.000000,0.000000,0.000000,0.000000,0.000000,0.000000,0.000000,1771317477.164136,0.000000
148.000000,23213.404204,14464.439686,8068.599769,8184.895895,7578.493068,10572.285720,-12079.553256,-12391.516553,-3854.759497,-4803.456939,-4456.177885,25292.071735,18792.184447,22389.563607,14207.327569,-5019.039514,-0.006000,-0.008000,1.012000,192.000000,0.000000,0.000000,0.000000,0.000000,0.000000,0.000000,0.000000,0.000000,0.000000,1771317477.164153,0.000000
150.000000,23226.055291,14479.057727,8073.070118,8185.745261,7585.779737,10573.313901,-12077.720413,-12387.448536,-3894.366788,-4847.400468,-4502.758921,25240.618019,18772.604319,22351.900918,14220.917430,-5067.743965,-0.006000,-0.008000,1.012000,192.000000,0.000000,0.000000,0.000000,0.000000,0.000000,0.000000,0.000000,0.000000,0.000000,1771317477.164168,0.000000
152.000000,23257.951231,14501.454175,8099.780452,8211.717988,7610.925449,10599.688959,-12047.992593,-12355.262024,-3856.882913,-4810.117759,-4455.864961,25283.354555,18800.454593,22390.591787,14213.474299,-5020.648840,-0.006000,-0.008000,1.012000,192.000000,0.000000,0.000000,0.000000,0.000000,0.000000,0.000000,0.000000,0.000000,0.000000,1771317477.164184,0.000000
154.000000,23214.946474,14458.538825,8054.965205,8162.924130,7569.977053,10554.292566,-12099.066329,-12405.084062,-3875.568971,-4833.564738,-4482.821164,25254.878432,18785.747145,22365.133150,14221.185651,-5050.108439,-0.005000,-0.010000,1.009000,192.000000,127.500000,112.000000,127.500000,80.000000,15.500000,56.000000,0.000000,0.000000,0.000000,1771317477.164199,0.000000
156.000000,23256.476016,14500.671864,8092.560839,8203.827823,7606.499804,10599.398386,-12055.301613,-12362.638100,-3870.361015,-4836.381058,-4488.453804,25257.270069,18788.652872,22359.165234,14217.721131,-5053.595311,-0.005000,-0.010000,1.009000,192.000000,0.000000,0.000000,0.000000,0.000000,0.000000,0.000000,0.000000,0.000000,0.000000,1771317477.164215,0.000000
158.000000,23225.518850,14472.754535,8069.225618,8180.984340,7579.387138,10569.379994,-12080.201457,-12389.661359,-3837.794523,-4801.154709,-4453.674490,25287.444924,18801.102793,22392.379927,14210.903849,-5022.973421,-0.005000,-0.010000,1.009000,192.000000,0.000000,0.000000,0.000000,0.000000,0.000000,0.000000,0.000000,0.000000,0.000000,1771317477.164230,0.000000
160.000000,23225.384739,14462.450381,8067.750402,8176.223418,7571.631082,10562.719174,-12082.101355,-12393.751728,-3899.083006,-4857.302291,-4502.982438,25236.751167,18770.011517,22335.450034,14216.245915,-5073.197791,-0.005000,-0.010000,1.009000,192.000000,0.000000,0.000000,0.000000,0.000000,0.000000,0.000000,0.000000,0.000000,0.000000,1771317477.164245,0.000000
162.000000,23260.611088,14506.639779,8099.847507,8210.890974,7600.844812,10595.553886,-12046.427971,-12358.815951,-3835.805218,-4813.850500,-4453.316862,25275.062057,18799.895799,22382.388697,14206.567610,-5028.091970,-0.005000,-0.010000,1.009000,192.000000,0.000000,0.000000,0.000000,0.000000,0.000000,0.000000,0.000000,0.000000,0.000000,1771317477.164260,0.000000
164.000000,23207.190419,14446.692401,8052.908844,8164.935787,7553.883797,10550.448066,-12097.971093,-12410.381426,-3869.690462,-4838.683288,-4485.011635,25245.177775,18775.957081,22369.402333,14213.809575,-5048.610872,-0.004500,-0.011000,1.008500,192.000000,127.500000,112.000000,127.500000,80.000000,15.500000,64.000000,0.000000,0.000000,0.000000,1771317477.164276,0.000000
166.000000,23249.971658,14495.687425,8092.784356,8205.660666,7589.668940,10588.758956,-12054.921634,-12363.934501,-3880.553410,-4841.812532,-4488.967894,25250.385732,18781.589720,22358.584089,14211.440290,-5053.215331,-0.004500,-0.011000,1.008500,192.000000,0.000000,0.000000,0.000000,0.000000,0.000000,0.000000,0.000000,0.000000,0.000000,1771317477.164292,0.000000
168.000000,23228.089300,14467.904206,8068.130382,8179.240904,7565.462001,10555.678374,-12082.682500,-12388.499068,-3840.968471,-4814.118721,-4455.127353,25278.839502,18791.625654,22380.444095,14199.884439,-5027.868453,-0.004500,-0.011000,1.008500,192.000000,0.000000,0.000000,0.000000,0.000000,0.000000,0.000000,0.000000,0.000000,0.000000,1771317477.164307,0.000000
170.000000,23227.329341,14470.497009,8070.298501,8184.247695,7571.608731,10560.998089,-12078.748593,-12383.984015,-3892.556297,-4852.228445,-4494.444072,25241.757958,18775.979433,22349.151653,14215.553011,-5067.743965,-0.004500,-0.011000,1.008500,192.000000,0.000000,0.000000,0.000000,0.000000,0.000000,0.000000,0.000000,0.000000,0.000000,1771317477.164322,0.000000
172.000000,23247.132986,14507.310332,8091.957342,8209.818090,7599.391949,10585.875581,-12051.345354,-12354.949099,-3851.764363,-4817.337372,-4459.910626,25281.611119,18788.317596,22384.780334,14200.532639,-5029.053095,-0.004500,-0.011000,1.008500,192.000000,0.000000,0.000000,0.000000,0.000000,0.000000,0.000000,0.000000,0.000000,0.000000,1771317477.164337,0.000000
174.000000,23213.024224,14469.915863,8052.439457,8168.869694,7565.216132,10554.896063,-12096.317064,-12401.373673,-3878.318236,-4830.480198,-4481.882391,25258.901746,18776.761744,22374.744400,14212.580229,-5048.521465,-0.004250,-0.010500,1.010250,192.000000,127.500000,112.000000,127.500000,88.000000,15.500000,80.000000,0.000000,0.000000,0.000000,1771317477.164354,0.000000
176.000000,23252.631516,14495.307445,8093.544316,8209.147538,7608.533813,10600.583029,-12052.887625,-12359.777076,-3884.822593,-4830.569605,-4484.251676,25259.326429,18783.802543,22361.087484,14214.346017,-5047.537988,-0.004250,-0.010500,1.010250,192.000000,0.000000,0.000000,0.000000,0.000000,0.000000,0.000000,0.000000,0.000000,0.000000,1771317477.164369,0.000000
178.000000,23239.779263,14466.965433,8065.068193,8175.865790,7580.638836,10573.738584,-12083.598922,-12392.567085,-3838.487427,-4805.021561,-4453.227455,25287.511979,18796.207761,22399.465430,14211.216773,-5011.618735,-0.004250,-0.010500,1.010250,192.000000,0.000000,0.000000,0.000000,0.000000,0.000000,0.000000,0.000000,0.000000,0.000000,1771317477.164384,0.000000
180.000000,23215.706434,14467.993613,8067.191609,8175.731680,7577.755460,10566.809543,-12081.386099,-12392.187106,-3894.478547,-4855.134172,-4508.235098,25232.102005,18767.619880,22352.012676,14217.676427,-5065.598198,-0.004250,-0.010500,1.010250,192.000000,0.000000,0.000000,0.000000,0.000000,0.000000,0.000000,0.000000,0.000000,0.000000,1771317477.164400,0.000000
182.000000,23244.048446,14489.183067,8094.483089,8205.168927,7599.548411,10594.525706,-12051.770038,-12363.040431,-3853.083116,-4817.046799,-4461.497600,25276.291403,18789.904569,22385.182665,14204.108918,-5028.270784,-0.004250,-0.010500,1.010250,192.000000,0.000000,0.000000,0.000000,0.000000,0.000000,0.000000,0.000000,0.000000,0.000000,1771317477.164416,0.000000
184.000000,23202.563608,14453.867311,8051.746553,8166.612168,7558.890588,10547.274118,-12097.948742,-12408.950914,-3884.017931,-4836.135189,-4490.152537,25257.828862,18767.977508,22358.382923,14210.210944,-5054.176456,-0.003125,-0.008250,1.010125,192.000000,127.500000,120.000000,127.500000,104.000000,15.500000,72.000000,0.000000,0.000000,0.000000,1771317477.164432,0.000000
186.000000,23238.751082,14492.468773,8093.521964,8209.594573,7597.179126,10586.210857,-12051.434761,-12364.917977,-3881.782756,-4831.061343,-4492.834746,25258.275897,18781.254444,22369.357630,14211.306180,-5051.471895,-0.003125,-0.008250,1.010125,192.000000,0.000000,0.000000,0.000000,0.000000,0.000000,0.000000,0.000000,0.000000,0.000000,1771317477.164447,0.000000
188.000000,23223.618951,14477.314291,8065.023490,8181.833706,7567.160734,10561.936863,-12081.207285,-12394.288170,-3850.132686,-4804.865099,-4457.988376,25281.834636,18788.496409,22389.429496,14202.678407,-5024.202767,-0.003125,-0.008250,1.010125,192.000000,0.000000,0.000000,0.000000,0.000000,0.000000,0.000000,0.000000,0.000000,0.000000,1771317477.164462,0.000000
190.000000,23216.868724,14471.413430,8061.268397,8180.425546,7562.735088,10562.786229,-12083.107183,-12397.730338,-3899.753559,-4857.391698,-4511.409046,25236.058263,18763.194235,22356.706543,14209.786261,-5068.369814,-0.003125,-0.008250,1.010125,192.000000,0.000000,0.000000,0.000000,0.000000,0.000000,0.000000,0.000000,0.000000,0.000000,1771317477.164478,0.000000
192.000000,23245.009571,14478.521285,8093.097281,8210.041608,7596.039187,10590.569447,-12050.227767,-12362.548693,-3854.580683,-4816.376247,-4462.235208,25286.126171,18787.982319,22383.193360,14202.544296,-5024.783912,-0.003125,-0.008250,1.010125,192.000000,0.000000,0.000000,0.000000,0.000000,0.000000,0.000000,0.000000,0.000000,0.000000,1771317477.164495,0.000000
194.000000,23198.294425,14447.295898,8052.417106,8171.350738,7562.243350,10553.800828,-12095.601809,-12408.749748,-3876.440689,-4839.800875,-4490.510165,25251.503319,18770.257386,22355.588955,14209.272171,-5048.767334,-0.003563,-0.010125,1.007062,192.000000,127.500000,112.000000,127.500000,80.000000,15.500000,48.000000,0.000000,0.000000,0.000000,1771317477.164511,0.000000
196.000000,23242.416768,14490.613579,8083.150754,8204.856003,7593.491089,10589.138936,-12061.582453,-12373.389289,-3886.655436,-4834.190587,-4493.013560,25255.683095,18785.590683,22370.586976,14207.662846,-5044.654613,-0.003563,-0.010125,1.007062,192.000000,0.000000,0.000000,0.000000,0.000000,0.000000,0.000000,0.000000,0.000000,0.000000,1771317477.164527,0.000000
198.000000,23204.619968,14455.722506,8061.000176,8182.459555,7576.302597,10569.402345,-12085.767041,-12400.144327,-3854.960663,-4807.323790,-4463.106926,25290.171837,18789.122258,22390.502380,14198.811555,-5014.300944,-0.003563,-0.010125,1.007062,192.000000,0.000000,0.000000,0.000000,0.000000,0.000000,0.000000,0.000000,0.000000,0.000000,1771317477.164543,0.000000
200.000000,23225.876477,14466.451343,8064.487048,8184.292398,7585.153888,10574.632654,-12085.990558,-12397.998559,-3900.111187,-4852.697832,-4517.242851,25245.669513,18766.435238,22344.860118,14208.959247,-5065.419384,-0.003563,-0.010125,1.007062,192.000000,0.000000,0.000000,0.000000,0.000000,0.000000,0.000000,0.000000,0.000000,0.000000,1771317477.164559,0.000000
202.000000,23258.308859,14517.838003,8093.141984,8216.791834,7618.748560,10611.334218,-12052.150017,-12364.426239,-3838.912110,-4794.560944,-4462.794001,25286.819075,18803.293264,22418.129136,14210.948552,-5011.439921,-0.003563,-0.010125,1.007062,192.000000,0.000000,0.000000,0.000000,0.000000,0.000000,0.000000,0.000000,0.000000,0.000000,1771317477.164574,0.000000
204.000000,23209.738518,14474.274453,8046.426838,8172.647139,7574.246237,10569.178828,-12101.793242,-12409.576763,-3862.582608,-4823.349991,-4492.030083,25256.465406,18782.059107,22387.283729,14211.976732,-5040.519540,-0.004781,-0.011062,1.005531,192.000000,127.500000,104.000000,127.500000,80.000000,15.500000,48.000000,0.000000,0.000000,0.000000,1771317477.164590,0.000000
206.000000,23251.111597,14499.263704,8093.164336,8219.295230,7617.787435,10605.790985,-12052.127666,-12359.151227,-3860.526247,-4815.772750,-4484.318731,25280.895863,18796.945369,22374.610290,14218.458738,-5035.691564,-0.004781,-0.011062,1.005531,192.000000,0.000000,0.000000,0.000000,0.000000,0.000000,0.000000,0.000000,0.000000,0.000000,1771317477.164605,0.000000
208.000000,23223.238972,14475.190875,8064.844676,8186.505221,7584.639798,10568.307110,-12084.247122,-12391.382443,-3851.898474,-4791.230534,-4454.814429,25295.089220,18803.919113,22394.570398,14206.232334,-5011.752845,-0.004781,-0.011062,1.005531,192.000000,0.000000,0.000000,0.000000,0.000000,0.000000,0.000000,0.000000,0.000000,0.000000,1771317477.643816,0.000000
210.000000,23238.125233,14488.065480,8070.656129,8183.800660,7580.080042,10559.098191,-12082.146058,-12385.816859,-3887.884782,-4836.448113,-4500.791967,25247.412949,18783.467267,22352.996153,14216.625895,-5062.290139,-0.004781,-0.011062,1.005531,192.000000,0.000000,0.000000,0.000000,0.000000,0.000000,0.000000,0.000000,0.000000,0.000000,1771317477.643901,0.000000
212.000000,23276.413772,14531.271402,8100.160432,8218.222346,7600.576592,10596.559715,-12045.802122,-12347.729486,-3832.698325,-4787.274276,-4445.449048,25298.062002,18813.776232,22392.983424,14204.846526,-5022.280517,-0.004781,-0.011062,1.005531,192.000000,0.000000,0.000000,0.000000,0.000000,0.000000,0.000000,0.000000,0.000000,0.000000,1771317477.643950,0.000000
214.000000,23214.320626,14465.043183,8052.707678,8171.171924,7554.599053,10545.418924,-12094.305407,-12397.216248,-3859.229846,-4812.352933,-4473.746356,25277.341935,18786.194180,22378.052459,14207.238162,-5048.409706,-0.004781,-0.011062,1.005531,192.000000,0.000000,0.000000,0.000000,0.000000,0.000000,0.000000,0.000000,0.000000,0.000000,1771317477.644006,0.000000
216.000000,23261.661620,14520.162585,8090.862106,8207.985247,7595.681560,10573.649177,-12053.893453,-12358.570082,-3868.371709,-4821.852424,-4483.648179,25273.452732,18787.267064,22365.714296,14206.142927,-5056.232817,-0.006000,-0.012000,1.008000,192.000000,127.500000,104.000000,127.500000,80.000000,15.500000,64.000000,0.000000,0.000000,0.000000,1771317477.644064,0.000000
218.000000,23223.395434,14480.376480,8070.611426,8184.784136,7578.202495,10560.193427,-12078.748593,-12388.029681,-3841.348450,-4793.622171,-4449.986452,25299.045479,18802.019215,22392.737555,14202.521944,-5015.329124,-0.006000,-0.012000,1.008000,192.000000,0.000000,0.000000,0.000000,0.000000,0.000000,0.000000,0.000000,0.000000,0.000000,1771317477.644081,0.000000
220.000000,23231.419710,14488.803087,8067.772754,8186.259352,7578.381309,10570.564636,-12082.593093,-12387.515591,-3888.220058,-4842.818361,-4500.389636,25249.536365,18782.796715,22348.972839,14214.658942,-5059.183247,-0.006000,-0.012000,1.008000,192.000000,0.000000,0.000000,0.000000,0.000000,0.000000,0.000000,0.000000,0.000000,0.000000,1771317477.644097,0.000000
222.000000,23270.848187,14520.341399,8099.288714,8216.545965,7612.355961,10607.042683,-12049.579567,-12353.540940,-3835.089962,-4791.856383,-4452.869827,25303.091145,18814.402081,22399.264264,14205.807651,-5015.731456,-0.006000,-0.012000,1.008000,192.000000,0.000000,0.000000,0.000000,0.000000,0.000000,0.000000,0.000000,0.000000,0.000000,1771317477.644113,0.000000
224.000000,23216.019358,14467.501875,8049.734896,8164.533456,7567.294844,10554.404325,-12104.922486,-12408.436824,-3866.561218,-4821.427741,-4481.949446,25266.613098,18790.262197,22376.398429,14209.406282,-5044.006413,-0.006000,-0.012000,1.008000,192.000000,0.000000,0.000000,0.000000,0.000000,0.000000,0.000000,0.000000,0.000000,0.000000,1771317477.644125,0.000000
226.000000,23258.241803,14513.814689,8095.555973,8215.048398,7613.585307,10601.611209,-12052.753514,-12359.307690,-3869.176372,-4818.656125,-4482.955275,25269.697639,18799.202895,22370.050534,14209.674503,-5046.107476,-0.008000,-0.006000,1.004000,192.000000,127.500000,96.000000,127.500000,104.000000,15.500000,48.000000,0.000000,0.000000,0.000000,1771317477.644135,0.000000
228.000000,23235.666542,14485.092698,8071.013757,8186.080538,7591.322969,10573.917398,-12080.872009,-12386.308597,-3826.395133,-4786.961351,-4446.901911,25305.214561,18816.413738,22404.986311,14203.170145,-5014.770331,-0.008000,-0.006000,1.004000,192.000000,0.000000,0.000000,0.000000,0.000000,0.000000,0.000000,0.000000,0.000000,0.000000,1771317477.644146,0.000000
230.000000,23227.664617,14487.461983,8070.119687,8179.754994,7593.312275,10556.997127,-12086.236428,-12391.494202,-3870.673939,-4836.425762,-4497.483909,25262.947412,18791.335081,22355.276031,14218.436386,-5063.005395,-0.008000,-0.006000,1.004000,192.000000,0.000000,0.000000,0.000000,0.000000,0.000000,0.000000,0.000000,0.000000,0.000000,1771317477.644157,0.000000
232.000000,23260.096998,14529.729131,8098.215830,8212.768520,7617.340400,10591.329407,-12051.904148,-12353.473884,-3835.626404,-4792.705750,-4452.109868,25306.600369,18818.246581,22392.625796,14207.036997,-5021.051171,-0.008000,-0.006000,1.004000,192.000000,0.000000,0.000000,0.000000,0.000000,0.000000,0.000000,0.000000,0.000000,0.000000,1771317477.644168,0.000000
234.000000,23225.272980,14475.302634,8050.696021,8169.696709,7566.713699,10561.445124,-12102.150870,-12403.832365,-3867.812916,-4812.464692,-4476.361510,25277.967784,18795.157229,22369.804665,14210.210944,-5040.944224,-0.008000,-0.006000,1.004000,192.000000,0.000000,0.000000,0.000000,0.000000,0.000000,0.000000,0.000000,0.000000,0.000000,1771317477.644178,0.000000
236.000000,23269.305917,14508.517326,8092.694949,8206.621791,7598.453176,10595.084500,-12056.486256,-12358.950062,-3856.659395,-4824.087599,-4478.842554,25265.160235,18789.390479,22374.275014,14206.657017,-5042.955881,-0.010000,-0.008000,1.004000,192.000000,127.500000,88.000000,127.500000,96.000000,15.500000,48.000000,0.000000,0.000000,0.000000,1771317477.644189,0.000000
238.000000,23213.113631,14469.290014,8064.196475,8176.066956,7563.807972,10553.018517,-12083.531866,-12393.841135,-3855.407698,-4806.787349,-4456.088478,25294.463372,18792.877351,22388.066040,14197.358691,-5019.508901,-0.010000,-0.008000,1.004000,192.000000,0.000000,0.000000,0.000000,0.000000,0.000000,0.000000,0.000000,0.000000,0.000000,1771317477.644200,0.000000
240.000000,23224.848297,14473.849770,8063.436516,8175.575218,7564.769097,10552.482075,-12084.336529,-12393.684673,-3899.306524,-4852.966053,-4504.748226,25248.016447,18766.278775,22328.431586,14207.081700,-5066.246398,-0.010000,-0.008000,1.004000,192.000000,0.000000,0.000000,0.000000,0.000000,0.000000,0.000000,0.000000,0.000000,0.000000,1771317477.644210,0.000000
242.000000,23262.801559,14513.166489,8088.604580,8207.314695,7591.926466,10586.970816,-12056.039221,-12363.398059,-3857.374651,-4808.955468,-4464.135106,25292.921101,18792.810296,22383.059249,14196.352863,-5023.375752,-0.010000,-0.008000,1.004000,192.000000,0.000000,0.000000,0.000000,0.000000,0.000000,0.000000,0.000000,0.000000,0.000000,1771317477.644221,0.000000
244.000000,23224.401262,14475.414392,8054.182894,8169.227322,7558.175332,10549.062258,-12098.038149,-12405.464042,-3870.249256,-4820.958355,-4483.737586,25275.039706,18782.550845,22357.041819,14208.445157,-5039.469008,-0.010000,-0.008000,1.004000,192.000000,0.000000,0.000000,0.000000,0.000000,0.000000,0.000000,0.000000,0.000000,0.000000,1771317477.644232,0.000000
246.000000,23255.783112,14518.843832,8086.771737,8203.917230,7588.193725,10578.499505,-12059.459038,-12369.701251,-3866.002424,-4825.875738,-4482.508240,25275.486741,18794.196104,22367.770656,14208.668674,-5042.262976,-0.004000,-0.008000,1.008000,192.000000,127.500000,112.000000,127.500000,96.000000,15.500000,64.000000,0.000000,0.000000,0.000000,1771317477.644243,0.000000
248.000000,23225.340036,14476.487276,8064.732917,8175.195238,7571.921655,10544.994240,-12087.555180,-12398.356187,-3849.596244,-4806.608535,-4461.139972,25293.725764,18789.055203,22384.489761,14191.793107,-5022.168758,-0.004000,-0.008000,1.008000,192.000000,0.000000,0.000000,0.000000,0.000000,0.000000,0.000000,0.000000,0.000000,0.000000,1771317477.644257,0.000000
250.000000,23237.499385,14486.500858,8058.697946,8175.441107,7575.140306,10554.694897,-12092.517268,-12399.406719,-3888.734149,-4844.003003,-4504.167080,25244.395464,18782.014404,22339.093368,14207.931067,-5068.101593,-0.004000,-0.008000,1.008000,192.000000,0.000000,0.000000,0.000000,0.000000,0.000000,0.000000,0.000000,0.000000,0.000000,1771317477.644268,0.000000
252.000000,23256.811292,14518.709721,8087.866972,8214.556660,7608.489109,10609.076692,-12057.447381,-12364.962681,-3846.914035,-4798.338389,-4464.157458,25292.295252,18801.147497,22392.692851,14196.509325,-5020.425322,-0.004000,-0.008000,1.008000,192.000000,0.000000,0.000000,0.000000,0.000000,0.000000,0.000000,0.000000,0.000000,0.000000,1771317477.644291,0.000000
254.000000,23219.953265,14477.470753,8045.175141,8165.762802,7561.170466,10554.180807,-12108.588172,-12414.583554,-3869.958683,-4817.963221,-4485.905705,25265.696676,18788.027023,22378.700659,14206.791128,-5039.156084,-0.004000,-0.008000,1.008000,192.000000,0.000000,0.000000,0.000000,0.000000,0.000000,0.000000,0.000000,0.000000,0.000000,1771317477.644302,0.000000
0.000000,23257.839472,14519.089701,8087.442289,8207.672323,7600.643647,10593.519878,-12061.694212,-12371.623501,-3875.747785,-4824.400523,-4492.790042,25263.506205,18795.313692,22372.084543,14203.885401,-5044.922834,-0.004000,-0.010000,1.010000,192.000000,127.500000,112.000000,127.500000,88.000000,15.500000,72.000000,0.000000,0.000000,0.000000,1771317477.644312,0.000000
2.000000,23239.667504,14498.101413,8067.504533,8182.839535,7584.036301,10571.749279,-12086.214076,-12397.260952,-3842.913072,-4793.264543,-4456.960196,25301.973558,18813.016273,22402.482915,14203.952456,-5007.707180,-0.004000,-0.010000,1.010000,192.000000,0.000000,0.000000,0.000000,0.000000,0.000000,0.000000,0.000000,0.000000,0.000000,1771317477.644323,0.000000
4.000000,23221.294370,14482.924579,8058.273263,8174.949369,7575.855562,10559.187598,-12094.685387,-12403.586495,-3890.812861,-4848.093372,-4513.152482,25244.194298,18775.554749,22332.209031,14208.176936,-5062.625416,-0.004000,-0.010000,1.010000,192.000000,0.000000,0.000000,0.000000,0.000000,0.000000,0.000000,0.000000,0.000000,0.000000,1771317477.644333,0.000000
6.000000,23252.720923,14515.468718,8091.152679,8208.588744,7608.578516,10585.495601,-12058.117933,-12366.326137,-3851.093811,-4806.452072,-4459.485943,25287.780200,18805.327273,22383.014546,14203.080738,-5017.921927,-0.004000,-0.010000,1.010000,192.000000,0.000000,0.000000,0.000000,0.000000,0.000000,0.000000,0.000000,0.000000,0.000000,1771317477.644344,0.000000
8.000000,23209.403242,14459.701116,8047.410315,8166.411002,7562.310405,10544.726019,-12106.352998,-12415.276458,-3885.940181,-4832.044820,-4492.186545,25257.314772,18772.850188,22372.553929,14205.204154,-5045.503979,-0.004000,-0.010000,1.010000,192.000000,0.000000,0.000000,0.000000,0.000000,0.000000,0.000000,0.000000,0.000000,0.000000,1771317477.644354,0.000000
10.000000,23246.954172,14506.326855,8083.240161,8202.062035,7594.832193,10580.980549,-12066.566892,-12375.222132,-3880.687521,-4830.077866,-4490.130185,25266.702505,18778.616938,22363.814397,14208.221639,-5042.061811,-0.012000,-0.012000,1.012000,192.000000,127.500000,80.000000,127.500000,80.000000,15.500000,80.000000,0.000000,0.000000,0.000000,1771317477.644365,0.000000
12.000000,23228.134004,14483.103392,8066.252836,8180.559657,7572.905132,10556.527741,-12087.286960,-12393.438803,-3846.154075,-4807.413197,-4458.211894,25300.744212,18785.009537,22380.667613,14193.827116,-5017.586651,-0.012000,-0.012000,1.012000,192.000000,0.000000,0.000000,0.000000,0.000000,0.000000,0.000000,0.000000,0.000000,0.000000,1771317477.644375,0.000000
14.000000,23226.457623,14474.676785,8063.883551,8181.565485,7567.585417,10552.660889,-12088.181029,-12394.243466,-3898.814785,-4853.927178,-4503.518880,25242.361455,18769.340964,22329.012731,14202.454889,-5064.815887,-0.012000,-0.012000,1.012000,192.000000,0.000000,0.000000,0.000000,0.000000,0.000000,0.000000,0.000000,0.000000,0.000000,1771317477.644386,0.000000
16.000000,23253.503234,14509.523154,8092.627894,8207.426454,7595.525097,10580.377052,-12057.268567,-12367.644890,-3855.318291,-4807.547308,-4458.368356,25286.975537,18790.753936,22382.187531,14195.302331,-5022.012296,-0.012000,-0.012000,1.012000,192.000000,0.000000,0.000000,0.000000,0.000000,0.000000,0.000000,0.000000,0.000000,0.000000,1771317477.644396,0.000000
18.000000,23217.405166,14467.658337,8051.903016,8162.231226,7555.761344,10540.322726,-12103.603733,-12415.052940,-3879.994617,-4834.794084,-4487.224458,25258.834691,18780.449781,22355.566604,14200.376177,-5049.996680,-0.012000,-0.012000,1.012000,192.000000,0.000000,0.000000,0.000000,0.000000,0.000000,0.000000,0.000000,0.000000,0.000000,1771317477.644407,0.000000
20.000000,23239.376931,14494.033396,8082.122574,8199.111605,7586.807917,10581.852267,-12066.611596,-12377.524361,-3879.614637,-4841.745477,-4492.655932,25258.141787,18783.087287,22351.945621,14196.330511,-5052.813000,-0.002000,-0.012000,1.012000,192.000000,127.500000,120.000000,127.500000,80.000000,15.500000,80.000000,0.000000,0.000000,0.000000,1771317477.644418,0.000000
22.000000,23228.670446,14486.456154,8065.224655,8183.465383,7574.380347,10559.567578,-12086.661111,-12396.411585,-3852.949006,-4809.491910,-4460.894103,25297.592616,18786.417697,22383.327470,14188.641511,-5015.217366,-0.002000,-0.012000,1.012000,192.000000,0.000000,0.000000,0.000000,0.000000,0.000000,0.000000,0.000000,0.000000,0.000000,1771317477.644430,0.000000
24.000000,23232.224373,14470.318195,8062.855370,8180.894933,7573.106298,10559.098191,-12088.940989,-12399.563181,-3886.074291,-4854.642433,-4503.071845,25243.188470,18777.387592,22345.396560,14203.997159,-5059.250302,-0.002000,-0.012000,1.012000,192.000000,0.000000,0.000000,0.000000,0.000000,0.000000,0.000000,0.000000,0.000000,0.000000,1771317477.644444,0.000000
26.000000,23243.936687,14495.486259,8090.817403,8208.678151,7598.475528,10588.557790,-12057.425029,-12370.818838,-3848.411602,-4822.388866,-4463.352795,25280.806456,18799.292302,22394.860970,14191.770755,-5020.671191,-0.002000,-0.012000,1.012000,192.000000,0.000000,0.000000,0.000000,0.000000,0.000000,0.000000,0.000000,0.000000,0.000000,1771317477.644456,0.000000
28.000000,23193.980538,14450.022811,8047.343260,8161.314805,7560.388155,10545.083647,-12107.738806,-12421.467891,-3891.706931,-4847.288710,-4490.934848,25251.212746,18775.063011,22351.699752,14200.197363,-5044.408744,-0.002000,-0.012000,1.012000,192.000000,0.000000,0.000000,0.000000,0.000000,0.000000,0.000000,0.000000,0.000000,0.000000,1771317477.644466,0.000000
30.000000,23237.745254,14505.857468,8086.369406,8203.760767,7606.857432,10589.809488,-12063.661166,-12377.189085,-3887.281285,-4843.354803,-4492.633580,25254.789025,18793.614959,22353.756112,14205.360616,-5043.291157,-0.003000,-0.010000,1.009000,192.000000,127.500000,112.000000,127.500000,96.000000,15.500000,56.000000,0.000000,0.000000,0.000000,1771317477.644476,0.000000
32.000000,23224.334207,14470.452305,8059.390850,8184.270046,7583.477507,10572.129258,-12090.863239,-12404.145289,-3839.403849,-4812.688209,-4463.643368,25283.980403,18805.126107,22391.597616,14199.862087,-5004.354418,-0.003000,-0.010000,1.009000,192.000000,0.000000,0.000000,0.000000,0.000000,0.000000,0.000000,0.000000,0.000000,0.000000,1771317477.644486,0.000000
34.000000,23210.923160,14464.774962,8057.960338,8177.765689,7577.330777,10562.540360,-12095.668864,-12411.454309,-3895.484375,-4860.543294,-4519.030990,25231.878487,18772.716078,22336.925249,14207.595790,-5055.137581,-0.003000,-0.010000,1.009000,192.000000,0.000000,0.000000,0.000000,0.000000,0.000000,0.000000,0.000000,0.000000,0.000000,1771317477.644496,0.000000
36.000000,23232.067911,14486.813782,8087.509345,8205.034817,7602.141214,10597.587895,-12063.482352,-12380.228922,-3868.997558,-4826.300422,-4473.835763,25279.487703,18801.326311,22382.656918,14198.811555,-5015.329124,-0.003000,-0.010000,1.009000,192.000000,0.000000,0.000000,0.000000,0.000000,0.000000,0.000000,0.000000,0.000000,0.000000,1771317477.644506,0.000000
38.000000,23194.047593,14430.845014,8042.716449,8158.297319,7557.907111,10545.240110,-12113.751425,-12430.185071,-3888.153003,-4851.267320,-4501.060188,25247.994095,18780.963872,22345.240098,14204.891229,-5038.977270,-0.003000,-0.010000,1.009000,192.000000,0.000000,0.000000,0.000000,0.000000,0.000000,0.000000,0.000000,0.000000,0.000000,1771317477.644516,0.000000
40.000000,23252.564460,14499.241352,8090.370368,8200.966799,7601.202440,10581.896970,-12065.739878,-12378.284321,-3878.988788,-4851.557893,-4497.461557,25249.044627,18791.938578,22358.919365,14209.562744,-5041.972404,-0.003500,-0.010000,1.010500,192.000000,127.500000,112.000000,127.500000,88.000000,15.500000,80.000000,0.000000,0.000000,0.000000,1771317477.644526,0.000000
42.000000,23213.895942,14463.702078,8067.191609,8174.859962,7576.302597,10558.517046,-12092.606675,-12405.329931,-3840.476732,-4815.415122,-4456.356699,25283.309851,18808.233000,22399.286616,14201.136136,-5010.590555,-0.003500,-0.010000,1.010500,192.000000,0.000000,0.000000,0.000000,0.000000,0.000000,0.000000,0.000000,0.000000,0.000000,1771317477.644537,0.000000
44.000000,23211.928989,14461.980994,8062.475391,8173.004767,7571.206399,10558.584101,-12098.619294,-12411.878993,-3893.919753,-4871.696815,-4510.358514,25223.608342,18783.959005,22335.070054,14200.353825,-5069.107422,-0.003500,-0.010000,1.010500,192.000000,0.000000,0.000000,0.000000,0.000000,0.000000,0.000000,0.000000,0.000000,0.000000,1771317477.644547,0.000000
46.000000,23258.174748,14497.743785,8095.846545,8209.974552,7605.203403,10596.783232,-12057.939119,-12371.332928,-3839.269738,-4828.669706,-4462.726946,25274.525616,18810.669340,22392.223465,14194.095337,-5016.893746,-0.003500,-0.010000,1.010500,192.000000,0.000000,0.000000,0.000000,0.000000,0.000000,0.000000,0.000000,0.000000,0.000000,1771317477.644558,0.000000
48.000000,23210.029091,14456.303651,8050.986594,8164.600511,7562.958606,10548.302299,-12108.387006,-12419.433882,-3866.807087,-4845.969957,-4483.826993,25255.861909,18796.855962,22352.973801,14205.114747,-5032.584671,-0.003500,-0.010000,1.010500,192.000000,0.000000,0.000000,0.000000,0.000000,0.000000,0.000000,0.000000,0.000000,0.000000,1771317477.644568,0.000000
50.000000,23264.679106,14507.936181,8093.298446,8209.281648,7605.739845,10588.602494,-12061.940081,-12370.640024,-3867.164715,-4845.724087,-4483.961103,25263.305040,18803.092099,22349.285763,14208.154584,-5038.641994,-0.004750,-0.010000,1.011250,192.000000,127.500000,104.000000,127.500000,88.000000,15.500000,80.000000,0.000000,0.000000,0.000000,1771317477.644578,0.000000
52.000000,23227.016416,14468.731221,8066.789277,8182.012520,7581.152926,10570.497581,-12089.388024,-12401.954818,-3835.157017,-4817.739703,-4456.870789,25298.151409,18809.976436,22387.395488,14198.230409,-5005.874336,-0.004750,-0.010000,1.011250,192.000000,0.000000,0.000000,0.000000,0.000000,0.000000,0.000000,0.000000,0.000000,0.000000,1771317477.644588,0.000000
54.000000,23219.461527,14457.868273,8062.922426,8174.748203,7574.201533,10559.746392,-12094.037186,-12408.280362,-3895.417320,-4874.870762,-4506.961048,25234.717159,18786.708270,22332.231382,14205.450023,-5057.238645,-0.004750,-0.010000,1.011250,192.000000,0.000000,0.000000,0.000000,0.000000,0.000000,0.000000,0.000000,0.000000,0.000000,1771317477.644598,0.000000
56.000000,23249.546975,14500.113070,8092.560839,8213.215555,7608.444406,10597.610247,-12056.866235,-12369.008347,-3849.462134,-4834.525863,-4461.743469,25280.515883,18800.834572,22399.487781,14192.106031,-5013.205709,-0.004750,-0.010000,1.011250,192.000000,0.000000,0.000000,0.000000,0.000000,0.000000,0.000000,0.000000,0.000000,0.000000,1771317477.644610,0.000000
58.000000,23208.308006,14453.576738,8047.991460,8166.232188,7569.060632,10554.247863,-12107.671751,-12417.735150,-3867.254122,-4846.104067,-4486.822127,25262.209804,18787.445877,22356.997115,14204.868878,-5026.616755,-0.004750,-0.010000,1.011250,192.000000,0.000000,0.000000,0.000000,0.000000,0.000000,0.000000,0.000000,0.000000,0.000000,1771317477.644620,0.000000
60.000000,23248.116463,14490.948855,8083.217810,8204.543078,7599.615467,10590.681206,-12065.561064,-12377.412603,-3879.972265,-4855.245931,-4491.784214,25256.912441,18795.492505,22346.312981,14202.901924,-5034.350459,-0.004375,-0.008000,1.012625,192.000000,127.500000,112.000000,127.500000,104.000000,15.500000,88.000000,0.000000,0.000000,0.000000,1771317477.644630,0.000000
62.000000,23226.949361,14476.464924,8066.386946,8185.141764,7575.520286,10561.199255,-12084.403585,-12397.730338,-3850.624424,-4824.847558,-4457.898969,25287.154351,18799.247599,22383.372174,14197.559857,-5002.029836,-0.004375,-0.008000,1.012625,192.000000,0.000000,0.000000,0.000000,0.000000,0.000000,0.000000,0.000000,0.000000,0.000000,1771317477.644640,0.000000
64.000000,23218.992140,14471.502837,8060.217865,8180.582008,7565.819629,10548.101133,-12091.913771,-12401.574838,-3899.887669,-4876.144812,-4508.302153,25241.333275,18769.653889,22336.321752,14201.829040,-5056.612796,-0.004375,-0.008000,1.012625,192.000000,0.000000,0.000000,0.000000,0.000000,0.000000,0.000000,0.000000,0.000000,0.000000,1771317477.644650,0.000000
66.000000,23250.977486,14517.078044,8093.834888,8219.719913,7597.514403,10578.924188,-12055.793352,-12361.676974,-3848.188084,-4823.908785,-4458.569522,25292.138790,18800.700462,22370.117589,14195.302331,-5012.222232,-0.004375,-0.008000,1.012625,192.000000,0.000000,0.000000,0.000000,0.000000,0.000000,0.000000,0.000000,0.000000,0.000000,1771317477.644660,0.000000
68.000000,23208.643282,14450.201625,8045.689231,8166.120430,7545.457190,10537.662868,-12107.917620,-12415.142347,-3878.497050,-4844.271224,-4480.965970,25262.522729,18781.902645,22356.326563,14197.828078,-5036.183302,-0.004375,-0.008000,1.012625,192.000000,0.000000,0.000000,0.000000,0.000000,0.000000,0.000000,0.000000,0.000000,0.000000,1771317477.644670,0.000000
70.000000,23259.940536,14494.279265,8090.348016,8205.392445,7588.238429,10578.052470,-12058.475561,-12367.443725,-3878.206477,-4860.856218,-4487.872659,25258.298249,18787.490581,22367.413028,14195.212924,-5041.391258,-0.003188,-0.007000,1.010312,192.000000,127.500000,120.000000,127.500000,104.000000,15.500000,64.000000,0.000000,0.000000,0.000000,1771317477.644681,0.000000
72.000000,23217.583980,14478.923616,8064.218827,8178.436241,7566.780754,10545.128351,-12088.829230,-12398.602056,-3833.659450,-4826.568642,-4453.652138,25289.702450,18799.225247,22380.801723,14190.630816,-5009.472967,-0.003188,-0.007000,1.010312,192.000000,0.000000,0.000000,0.000000,0.000000,0.000000,0.000000,0.000000,0.000000,0.000000,1771317478.124600,0.000000
74.000000,23236.091225,14466.965433,8063.928254,8182.727776,7571.228751,10552.996165,-12089.812707,-12396.858620,-3898.546564,-4871.205076,-4506.089330,25242.897897,18774.906549,22319.133260,14199.280941,-5059.987910,-0.003188,-0.007000,1.010312,192.000000,0.000000,0.000000,0.000000,0.000000,0.000000,0.000000,0.000000,0.000000,0.000000,1771317478.124668,0.000000
76.000000,23259.828777,14502.236486,8096.360635,8216.993000,7601.716531,10584.042738,-12052.909977,-12358.860655,-3845.662337,-4829.206148,-4455.619091,25291.222369,18808.300055,22367.658897,14195.347034,-5010.769369,-0.003188,-0.007000,1.010312,192.000000,0.000000,0.000000,0.000000,0.000000,0.000000,0.000000,0.000000,0.000000,0.000000,1771317478.124725,0.000000
78.000000,23215.192344,14457.711811,8050.472504,8166.411002,7555.090792,10536.835854,-12103.939009,-12410.806109,-3870.942160,-4854.888303,-4477.188525,25268.289479,18788.943444,22349.799854,14200.979674,-5033.121113,-0.003188,-0.007000,1.010312,192.000000,0.000000,0.000000,0.000000,0.000000,0.000000,0.000000,0.000000,0.000000,0.000000,1771317478.124777,0.000000
80.000000,23247.825891,14497.073233,8088.112842,8206.219459,7594.675731,10580.779383,-12060.777791,-12369.634196,-3865.801259,-4858.956320,-4482.061205,25260.913403,18793.033814,22348.346990,14198.923313,-5037.703221,-0.003188,-0.007000,1.010312,192.000000,0.000000,0.000000,127.500000,96.000000,15.500000,64.000000,0.000000,0.000000,0.000000,1771317478.124823,0.000000
82.000000,23227.575210,14475.101468,8063.302405,8179.039738,7571.452269,10554.583139,-12088.672768,-12396.948027,-3841.147285,-4833.028297,-4452.489847,25289.747153,18804.097927,22376.979575,14189.066194,-5007.640124,-0.003188,-0.007000,1.010312,192.000000,0.000000,0.000000,0.000000,0.000000,0.000000,0.000000,0.000000,0.000000,0.000000,1771317478.124872,0.000000
84.000000,23233.945457,14481.181142,8061.424859,8181.140802,7569.909998,10554.761953,-12089.835058,-12398.378539,-3884.174393,-4867.382928,-4500.635505,25245.758920,18778.192255,22351.565641,14202.387834,-5052.298910,-0.003188,-0.007000,1.010312,192.000000,0.000000,0.000000,0.000000,0.000000,0.000000,0.000000,0.000000,0.000000,0.000000,1771317478.124899,0.000000
86.000000,23268.121274,14502.571762,8087.017606,8211.896802,7595.458042,10580.600569,-12058.117933,-12366.393193,-3843.561273,-4826.970974,-4454.479152,25286.528502,18806.355453,22367.793008,14194.028281,-5008.489491,-0.003188,-0.007000,1.010312,192.000000,0.000000,0.000000,0.000000,0.000000,0.000000,0.000000,0.000000,0.000000,0.000000,1771317478.124935,0.000000
88.000000,23204.239989,14450.380439,8046.963280,8162.499447,7553.727335,10534.399514,-12105.838907,-12413.242449,-3877.893553,-4857.414050,-4484.542249,25256.353647,18778.594587,22349.732798,14194.877648,-5040.787761,-0.003188,-0.007000,1.010312,192.000000,0.000000,0.000000,0.000000,0.000000,0.000000,0.000000,0.000000,0.000000,0.000000,1771317478.124963,0.000000
90.000000,23252.430350,14499.911904,8083.284865,8199.715102,7586.293827,10566.541322,-12066.790410,-12374.953911,-3883.347378,-4858.777506,-4484.743414,25254.543156,18785.054241,22338.020484,14200.711453,-5042.754715,-0.003594,-0.008500,1.010156,192.000000,127.500000,112.000000,127.500000,88.000000,15.500000,72.000000,0.000000,0.000000,0.000000,1771317478.124978,0.000000
92.000000,23223.887172,14467.434820,8061.693080,8179.307959,7561.148114,10544.435447,-12087.644587,-12397.707987,-3843.896549,-4829.027334,-4454.300339,25292.697584,18803.047395,22372.352764,14189.982616,-5009.249450,-0.003594,-0.008500,1.010156,192.000000,0.000000,0.000000,0.000000,0.000000,0.000000,0.000000,0.000000,0.000000,0.000000,1771317478.124993,0.000000
94.000000,23209.470297,14469.379421,8051.791257,8173.071822,7549.592262,10541.373258,-12096.026492,-12406.559277,-3901.340532,-4883.677350,-4511.252583,25235.678284,18761.450799,22324.229458,14192.038976,-5062.580712,-0.003594,-0.008500,1.010156,192.000000,0.000000,0.000000,0.000000,0.000000,0.000000,0.000000,0.000000,0.000000,0.000000,1771317478.125008,0.000000
96.000000,23253.905565,14495.530962,8091.353845,8209.259297,7591.524135,10579.281816,-12055.458075,-12365.923806,-3858.447535,-4843.220692,-4460.089440,25279.331241,18789.457534,22367.860063,14185.333453,-5016.089084,-0.003594,-0.008500,1.010156,192.000000,0.000000,0.000000,0.000000,0.000000,0.000000,0.000000,0.000000,0.000000,0.000000,1771317478.125023,0.000000
98.000000,23215.080585,14457.175369,8047.611481,8164.846380,7550.531036,10533.147816,-12105.302466,-12411.364902,-3867.499991,-4859.872742,-4477.434394,25259.661705,18778.304014,22351.453883,14196.643436,-5034.261052,-0.003594,-0.008500,1.010156,192.000000,0.000000,0.000000,0.000000,0.000000,0.000000,0.000000,0.000000,0.000000,0.000000,1771317478.125037,0.000000
100.000000,23262.421580,14503.041149,8084.089528,8200.922096,7585.913847,10572.956273,-12064.287015,-12371.399983,-3871.925637,-4859.828038,-4484.810470,25259.684057,18782.997880,22339.026313,14194.899999,-5042.665308,-0.003594,-0.008500,1.010156,192.000000,0.000000,0.000000,0.000000,0.000000,0.000000,0.000000,0.000000,0.000000,0.000000,1771317478.125052,0.000000
102.000000,23232.693760,14485.696195,8065.269359,8181.073747,7563.629158,10553.890235,-12084.515343,-12393.438803,-3851.987881,-4825.987497,-4454.948539,25285.723839,18789.479886,22380.667613,14186.026357,-5006.991924,-0.004000,-0.012000,1.010000,192.000000,127.500000,112.000000,127.500000,80.000000,15.500000,72.000000,0.000000,0.000000,0.000000,1771317478.125067,0.000000
104.000000,23225.541201,14475.235578,8063.592978,8176.849267,7559.136457,10545.910662,-12089.857410,-12396.657455,-3894.992637,-4874.691948,-4496.522784,25244.775444,18772.626671,22324.072996,14194.944703,-5055.785782,-0.004000,-0.012000,1.010000,192.000000,0.000000,0.000000,0.000000,0.000000,0.000000,0.000000,0.000000,0.000000,0.000000,1771317478.125082,0.000000
106.000000,23260.834606,14495.910942,8093.231391,8210.935677,7593.088757,10580.555866,-12055.301613,-12363.554521,-3838.085096,-4837.811570,-4451.841647,25289.814209,18810.132898,22361.489816,14183.455906,-5015.843214,-0.004000,-0.012000,1.010000,192.000000,0.000000,0.000000,0.000000,0.000000,0.000000,0.000000,0.000000,0.000000,0.000000,1771317478.125095,0.000000
108.000000,23221.920219,14461.355145,8047.052687,8158.207912,7551.358050,10530.085627,-12107.425881,-12415.298809,-3857.866389,-4861.012681,-4480.898914,25267.283650,18776.314709,22338.579278,14189.669691,-5042.240625,-0.004000,-0.012000,1.010000,192.000000,0.000000,0.000000,0.000000,0.000000,0.000000,0.000000,0.000000,0.000000,0.000000,1771317478.125112,0.000000
110.000000,23243.668466,14486.277340,8085.944722,8200.966799,7591.322969,10572.397479,-12062.901206,-12371.399983,-3869.869276,-4868.165239,-4485.011635,25259.415836,18780.718002,22348.503452,14192.374252,-5046.219235,-0.004000,-0.012000,1.010000,192.000000,0.000000,0.000000,0.000000,0.000000,0.000000,0.000000,0.000000,0.000000,0.000000,1771317478.125126,0.000000
112.000000,23223.842469,14465.356107,8060.419030,8178.749165,7563.852675,10548.928147,-12088.426899,-12400.680769,-3843.069535,-4841.298442,-4452.914530,25282.527540,18787.378822,22367.033049,14181.511305,-5013.071598,-0.008000,-0.010000,1.010000,192.000000,127.500000,96.000000,127.500000,88.000000,15.500000,72.000000,0.000000,0.000000,0.000000,1771317478.125138,0.000000
114.000000,23213.538315,14453.532035,8050.517207,8170.613130,7547.737068,10539.361601,-12098.172259,-12411.767234,-3902.949858,-4888.952361,-4508.860947,25231.744377,18754.365296,22322.240153,14189.200305,-5058.199770,-0.008000,-0.010000,1.010000,192.000000,0.000000,0.000000,0.000000,0.000000,0.000000,0.000000,0.000000,0.000000,0.000000,1771317478.125152,0.000000
116.000000,23248.541146,14503.532887,8090.549182,8210.600401,7584.349225,10576.241979,-12055.100448,-12364.202722,-3858.514590,-4846.931082,-4462.928112,25275.285575,18781.075630,22364.619060,14181.198380,-5015.753808,-0.008000,-0.010000,1.010000,192.000000,0.000000,0.000000,0.000000,0.000000,0.000000,0.000000,0.000000,0.000000,0.000000,1771317478.125166,0.000000
118.000000,23210.856105,14454.291994,8039.341335,8156.039793,7530.705038,10515.109958,-12110.622181,-12418.204536,-3869.712814,-4859.246893,-4481.167135,25261.963935,18768.737467,22339.585106,14188.820325,-5039.267843,-0.008000,-0.010000,1.010000,192.000000,0.000000,0.000000,0.000000,0.000000,0.000000,0.000000,0.000000,0.000000,0.000000,1771317478.125180,0.000000
120.000000,23237.365274,14484.332738,8075.886437,8201.659703,7567.496010,10565.334328,-12065.941044,-12378.351376,-3876.708910,-4876.390681,-4489.660798,25252.486795,18767.597528,22328.141013,14186.607502,-5043.738192,-0.008000,-0.010000,1.010000,192.000000,0.000000,0.000000,0.000000,0.000000,0.000000,0.000000,0.000000,0.000000,0.000000,1771317478.125198,0.000000
122.000000,23209.805573,14464.350279,8054.495818,8180.738471,7550.352222,10546.469456,-12089.991521,-12401.306617,-3851.071459,-4845.478218,-4462.324615,25288.160180,18782.349680,22364.172025,14178.024432,-5008.109511,-0.010000,-0.010000,1.010000,192.000000,127.500000,88.000000,127.500000,88.000000,15.500000,72.000000,0.000000,0.000000,0.000000,1771317478.125212,0.000000
124.000000,23214.320626,14458.874102,8051.657146,8171.864828,7548.452323,10539.629822,-12095.937085,-12407.475699,-3901.184070,-4886.337207,-4508.100987,25245.110720,18765.630575,22336.053531,14190.452002,-5056.679852,-0.010000,-0.010000,1.010000,192.000000,0.000000,0.000000,0.000000,0.000000,0.000000,0.000000,0.000000,0.000000,0.000000,1771317478.125227,0.000000
126.000000,23250.351638,14489.875971,8088.291656,8207.940544,7586.405586,10574.163267,-12057.380325,-12368.695422,-3854.133648,-4848.719221,-4460.871751,25277.073714,18784.406040,22359.433455,14181.779525,-5015.709104,-0.010000,-0.010000,1.010000,192.000000,0.000000,0.000000,0.000000,0.000000,0.000000,0.000000,0.000000,0.000000,0.000000,1771317478.125243,0.000000
128.000000,23209.157373,14454.917843,8042.783504,8161.605377,7546.552425,10518.909755,-12108.521117,-12417.176356,-3871.255084,-4866.198285,-4481.323598,25257.515938,18776.337060,22331.247906,14187.926255,-5040.050154,-0.010000,-0.010000,1.010000,192.000000,0.000000,0.000000,0.000000,0.000000,0.000000,0.000000,0.000000,0.000000,0.000000,1771317478.125258,0.000000
130.000000,23246.149510,14500.358939,8083.128403,8202.397311,7588.685464,10559.880502,-12065.248140,-12374.953911,-3876.083061,-4863.314910,-4486.710368,25255.236060,18786.395345,22338.825147,14191.971921,-5044.341689,-0.010000,-0.010000,1.010000,192.000000,0.000000,0.000000,0.000000,0.000000,0.000000,0.000000,0.000000,0.000000,0.000000,1771317478.125273,0.000000
132.000000,23208.486820,14463.612671,8059.055574,8178.100965,7565.126725,10538.556938,-12093.388986,-12403.161812,-3846.757573,-4832.916538,-4454.501504,25285.813246,18786.462401,22379.125342,14179.365537,-5013.205709,-0.006000,-0.004000,1.012000,192.000000,127.500000,104.000000,127.500000,112.000000,15.500000,80.000000,0.000000,0.000000,0.000000,1771317478.125287,0.000000
134.000000,23208.933855,14436.231784,8052.819437,8167.975625,7558.018870,10539.875691,-12101.882649,-12409.576763,-3895.082044,-4889.511155,-4505.172909,25230.112699,18765.340002,22318.619170,14189.177953,-5059.473820,-0.006000,-0.004000,1.012000,192.000000,0.000000,0.000000,0.000000,0.000000,0.000000,0.000000,0.000000,0.000000,0.000000,1771317478.125301,0.000000
136.000000,23245.300143,14488.758384,8087.107013,8204.207802,7591.635894,10572.822162,-12062.096544,-12370.885893,-3845.818799,-4854.664785,-4461.832876,25275.330278,18791.379785,22370.341107,14179.812572,-5017.296078,-0.006000,-0.004000,1.012000,192.000000,0.000000,0.000000,0.000000,0.000000,0.000000,0.000000,0.000000,0.000000,0.000000,1771317478.125316,0.000000
138.000000,23208.173896,14440.858595,8040.078943,8158.073802,7548.005289,10518.865051,-12112.812652,-12421.132615,-3866.605922,-4871.942684,-4480.094252,25251.123339,18773.297223,22333.997170,14190.787279,-5036.652689,-0.006000,-0.004000,1.012000,192.000000,0.000000,0.000000,0.000000,0.000000,0.000000,0.000000,0.000000,0.000000,0.000000,1771317478.125331,0.000000
140.000000,23226.055291,14473.335680,8076.244065,8202.218497,7580.750594,10557.332403,-12069.986709,-12380.295978,-3877.737090,-4879.922256,-4491.404234,25251.525670,18771.397325,22330.934981,14191.748404,-5043.447619,-0.006000,-0.004000,1.012000,192.000000,0.000000,0.000000,0.000000,0.000000,0.000000,0.000000,0.000000,0.000000,0.000000,1771317478.125345,0.000000
142.000000,23215.885248,14459.522302,8058.317966,8184.359453,7561.952777,10549.978679,-12089.611541,-12404.815841,-3853.284282,-4844.762962,-4457.809562,25286.059116,18780.673299,22366.071924,14181.421898,-5009.897650,-0.004000,-0.010000,1.012000,192.000000,127.500000,112.000000,127.500000,88.000000,15.500000,80.000000,0.000000,0.000000,0.000000,1771317478.125360,0.000000
144.000000,23215.929951,14448.815816,8055.322833,8175.575218,7557.884760,10545.709496,-12095.400643,-12409.219135,-3888.018893,-4892.774510,-4505.552889,25232.280818,18771.956119,22325.704673,14197.112822,-5050.734288,-0.004000,-0.010000,1.012000,192.000000,0.000000,0.000000,0.000000,0.000000,0.000000,0.000000,0.000000,0.000000,0.000000,1771317478.125374,0.000000
146.000000,23234.392492,14473.447439,8087.509345,8205.750073,7588.081966,10573.850342,-12060.509570,-12373.612806,-3844.857674,-4858.576341,-4465.207990,25271.865758,18786.283587,22369.201168,14185.802839,-5019.620659,-0.004000,-0.010000,1.012000,192.000000,0.000000,0.000000,0.000000,0.000000,0.000000,0.000000,0.000000,0.000000,0.000000,1771317478.125391,0.000000
148.000000,23193.399393,14428.453377,8038.223748,8152.977604,7536.404733,10517.479243,-12115.226640,-12427.480510,-3868.997558,-4876.949474,-4487.939714,25251.212746,18765.407057,22354.471368,14192.642473,-5039.983099,-0.004000,-0.010000,1.012000,192.000000,0.000000,0.000000,0.000000,0.000000,0.000000,0.000000,0.000000,0.000000,0.000000,1771317478.125407,0.000000
150.000000,23244.808405,14487.685500,8082.390795,8203.805471,7578.001330,10562.227435,-12067.058631,-12379.245446,-3875.166640,-4873.887285,-4491.650104,25251.726836,18776.225302,22343.027275,14189.289712,-5047.649747,-0.004000,-0.010000,1.012000,192.000000,0.000000,0.000000,0.000000,0.000000,0.000000,0.000000,0.000000,0.000000,0.000000,1771317478.125423,0.000000
152.000000,23225.004759,14467.725392,8061.626024,8181.610189,7558.488257,10541.820293,-12091.042053,-12405.642856,-3825.612822,-4836.023430,-4453.518027,25291.445886,18800.700462,22381.181703,14179.365537,-5008.891822,-0.006000,-0.010000,1.012000,192.000000,127.500000,104.000000,127.500000,88.000000,15.500000,80.000000,0.000000,0.000000,0.000000,1771317478.125439,0.000000
154.000000,23205.536390,14450.313383,8059.502609,8178.011558,7561.528094,10535.114769,-12095.087718,-12411.364902,-3887.035416,-4883.811460,-4504.725874,25231.207935,18774.951252,22324.095347,14192.262494,-5055.249340,-0.006000,-0.010000,1.012000,192.000000,0.000000,0.000000,0.000000,0.000000,0.000000,0.000000,0.000000,0.000000,0.000000,1771317478.125453,0.000000
156.000000,23249.994010,14484.980939,8090.727996,8208.834613,7596.307408,10567.770668,-12060.710735,-12373.121068,-3842.622500,-4845.835846,-4460.603530,25273.095104,18800.722814,22372.553929,14184.349976,-5011.126996,-0.006000,-0.010000,1.012000,192.000000,0.000000,0.000000,0.000000,0.000000,0.000000,0.000000,0.000000,0.000000,0.000000,1771317478.125468,0.000000
158.000000,23205.938721,14436.164729,8047.365611,8164.332290,7549.480504,10532.365505,-12109.951628,-12422.116092,-3852.971357,-4864.767774,-4483.312903,25246.854156,18787.669395,22352.146787,14190.116726,-5033.389334,-0.006000,-0.010000,1.012000,192.000000,0.000000,0.000000,0.000000,0.000000,0.000000,0.000000,0.000000,0.000000,0.000000,1771317478.125483,0.000000
160.000000,23235.264210,14475.682613,8083.709548,8202.509070,7588.283132,10577.761898,-12069.338509,-12384.118126,-3868.148192,-4873.753175,-4486.285685,25245.803624,18796.498334,22354.538423,14195.235276,-5033.657555,-0.006000,-0.010000,1.012000,192.000000,0.000000,0.000000,0.000000,0.000000,0.000000,0.000000,0.000000,0.000000,0.000000,1771317478.125498,0.000000
162.000000,23210.029091,14452.593261,8061.737783,8179.866753,7571.318158,10554.851360,-12091.623198,-12406.402815,-3849.708003,-4844.114762,-4458.524818,25270.949336,18795.023119,22389.071869,14184.998177,-5002.454520,-0.005000,-0.010000,1.010000,192.000000,127.500000,112.000000,127.500000,88.000000,15.500000,64.000000,0.000000,0.000000,0.000000,1771317478.125513,0.000000
164.000000,23220.780280,14454.649622,8058.206208,8178.078613,7570.245274,10545.396572,-12095.221829,-12407.207478,-3890.008198,-4886.203097,-4506.223441,25228.793946,18773.990127,22323.000112,14200.376177,-5053.081221,-0.005000,-0.010000,1.010000,192.000000,0.000000,0.000000,0.000000,0.000000,0.000000,0.000000,0.000000,0.000000,0.000000,1771317478.125527,0.000000
166.000000,23242.886155,14490.702986,8088.783394,8211.785044,7595.078062,10577.493677,-12060.263701,-12371.645853,-3842.533093,-4835.665802,-4463.621016,25278.884206,18802.220381,22377.136037,14190.206133,-5012.222232,-0.005000,-0.010000,1.010000,192.000000,0.000000,0.000000,0.000000,0.000000,0.000000,0.000000,0.000000,0.000000,0.000000,1771317478.125542,0.000000
168.000000,23201.870704,14445.619517,8050.293690,8170.903703,7549.771076,10532.700781,-12105.525983,-12417.824557,-3862.068517,-4859.068079,-4475.534496,25254.833729,18788.518761,22363.121493,14196.866953,-5027.264956,-0.005000,-0.010000,1.010000,192.000000,0.000000,0.000000,0.000000,0.000000,0.000000,0.000000,0.000000,0.000000,0.000000,1771317478.125556,0.000000
170.000000,23237.074701,14475.660262,8082.301388,8205.772424,7580.482373,10568.754145,-12067.170390,-12381.480620,-3873.467907,-4874.446079,-4489.861964,25240.595667,18782.819066,22351.923269,14192.910694,-5040.117209,-0.005000,-0.010000,1.010000,192.000000,0.000000,0.000000,0.000000,0.000000,0.000000,0.000000,0.000000,0.000000,0.000000,1771317478.125571,0.000000
172.000000,23218.232181,14460.528131,8064.017661,8186.840497,7562.109239,10548.659926,-12085.431765,-12399.362016,-3842.443686,-4835.822265,-4455.708498,25280.918214,18795.805430,22389.675366,14188.105069,-5003.527403,-0.006500,-0.009000,1.009000,192.000000,127.500000,96.000000,127.500000,96.000000,15.500000,64.000000,0.000000,0.000000,0.000000,1771317478.125585,0.000000
174.000000,23212.644245,14457.085962,8056.261606,8180.872581,7558.912940,10542.915528,-12093.031358,-12408.749748,-3901.429939,-4880.749271,-4505.955220,25236.751167,18772.179636,22338.869851,14198.185706,-5054.847009,-0.006500,-0.009000,1.009000,192.000000,0.000000,0.000000,0.000000,0.000000,0.000000,0.000000,0.000000,0.000000,0.000000,1771317478.125600,0.000000
176.000000,23243.087321,14486.344395,8084.625969,8213.751997,7590.339493,10586.635540,-12059.034355,-12375.222132,-3853.016061,-4841.589015,-4464.559789,25278.101895,18797.705328,22377.828941,14187.479220,-5007.103682,-0.006500,-0.009000,1.009000,192.000000,0.000000,0.000000,0.000000,0.000000,0.000000,0.000000,0.000000,0.000000,0.000000,1771317478.125614,0.000000
178.000000,23194.025242,14422.708979,8041.800027,8163.818200,7546.194797,10539.160435,-12110.555126,-12427.301696,-3876.284227,-4871.629759,-4488.476156,25245.177775,18783.042584,22350.828034,14188.194476,-5027.622584,-0.006500,-0.009000,1.009000,192.000000,0.000000,0.000000,0.000000,0.000000,0.000000,0.000000,0.000000,0.000000,0.000000,1771317478.125628,0.000000
180.000000,23236.225335,14474.520323,8078.278074,8204.766596,7584.148059,10579.237113,-12069.338509,-12385.593341,-3872.842058,-4877.217695,-4495.472252,25239.858060,18788.429354,22350.313944,14191.547238,-5029.924814,-0.006500,-0.009000,1.009000,192.000000,0.000000,0.000000,0.000000,0.000000,0.000000,0.000000,0.000000,0.000000,0.000000,1771317478.125643,0.000000
182.000000,23220.489707,14459.745820,8061.514266,8186.773442,7571.988710,10561.825104,-12088.963340,-12404.413510,-3838.666241,-4839.264433,-4458.524818,25276.224348,18798.666453,22393.028127,14181.041918,-4995.391368,-0.008250,-0.007500,1.009500,192.000000,127.500000,88.000000,127.500000,104.000000,15.500000,72.000000,0.000000,0.000000,0.000000,1771317478.125657,0.000000
184.000000,23214.164163,14456.080133,8057.088620,8183.621846,7569.597074,10553.934938,-12094.573628,-12409.956743,-3894.970285,-4883.766757,-4504.815281,25233.890144,18773.118409,22351.476234,14198.364520,-5039.916043,-0.008250,-0.007500,1.009500,192.000000,0.000000,0.000000,0.000000,0.000000,0.000000,0.000000,0.000000,0.000000,0.000000,1771317478.125673,0.000000
186.000000,23246.015399,14490.524172,8086.145888,8212.969686,7596.508574,10583.707462,-12062.923558,-12378.194914,-3851.607901,-4845.455867,-4463.129278,25273.318621,18793.458497,22378.365383,14187.501572,-5004.779101,-0.008250,-0.007500,1.009500,192.000000,0.000000,0.000000,0.000000,0.000000,0.000000,0.000000,0.000000,0.000000,0.000000,1771317478.125688,0.000000
188.000000,23206.944550,14433.907203,8047.164446,8168.757936,7557.817704,10533.348982,-12108.297599,-12421.087911,-3876.083061,-4869.416937,-4483.916400,25255.526633,18779.689822,22357.108874,14192.888342,-5027.466122,-0.008250,-0.007500,1.009500,192.000000,0.000000,0.000000,0.000000,0.000000,0.000000,0.000000,0.000000,0.000000,0.000000,1771317478.125702,0.000000
190.000000,23252.095074,14487.037300,8086.302350,8211.136843,7593.736958,10572.844514,-12063.147076,-12376.339719,-3874.741957,-4870.780393,-4485.279856,25253.425569,18786.864732,22348.704618,14197.246933,-5031.265918,-0.008250,-0.007500,1.009500,192.000000,0.000000,0.000000,0.000000,0.000000,0.000000,0.000000,0.000000,0.000000,0.000000,1771317478.125716,0.000000
192.000000,23208.397413,14453.442628,8057.222731,8185.767613,7562.422164,10548.950499,-12089.857410,-12402.915943,-3842.868369,-4841.209035,-4456.826086,25280.270014,18792.810296,22378.611252,14179.097316,-5002.141595,-0.006125,-0.004750,1.009750,192.000000,127.500000,112.000000,127.500000,120.000000,15.500000,72.000000,0.000000,0.000000,0.000000,1771317478.605895,0.000000
194.000000,23216.421690,14455.901319,8053.177065,8180.984340,7559.203513,10549.218720,-12094.819497,-12407.833327,-3881.447480,-4891.791033,-4505.128205,25232.951371,18774.638328,22335.025350,14189.557933,-5049.057907,-0.006125,-0.004750,1.009750,192.000000,0.000000,0.000000,0.000000,0.000000,0.000000,0.000000,0.000000,0.000000,0.000000,1771317478.605958,0.000000
196.000000,23245.635420,14487.238465,8086.257647,8214.355494,7588.573705,10579.550037,-12057.827360,-12372.115239,-3859.073384,-4854.754192,-4465.006824,25275.889072,18797.280645,22379.460618,14183.433555,-5009.048284,-0.006125,-0.004750,1.009750,192.000000,0.000000,0.000000,0.000000,0.000000,0.000000,0.000000,0.000000,0.000000,0.000000,1771317478.605999,0.000000
198.000000,23189.420782,14433.996610,8038.737838,8162.231226,7541.433876,10532.745484,-12112.745596,-12429.760388,-3891.259896,-4880.302236,-4488.207935,25247.591763,18779.622767,22350.403351,14188.932084,-5027.667287,-0.006125,-0.004750,1.009750,192.000000,0.000000,0.000000,0.000000,0.000000,0.000000,0.000000,0.000000,0.000000,0.000000,1771317478.606043,0.000000
200.000000,23234.571306,14482.388137,8078.143964,8207.337047,7580.191801,10579.885313,-12068.109163,-12384.498106,-3896.512556,-4881.352768,-4495.516955,25240.796833,18781.746183,22343.362551,14191.279017,-5032.115284,-0.006125,-0.004750,1.009750,192.000000,0.000000,0.000000,0.000000,0.000000,0.000000,0.000000,0.000000,0.000000,0.000000,1771317478.606088,0.000000
202.000000,23231.330303,14462.159808,8059.659071,8189.455651,7564.098545,10562.294491,-12087.331663,-12403.877068,-3842.533093,-4849.434477,-4455.440278,25282.058153,18800.611055,22385.428534,14182.092450,-4993.960857,-0.005063,-0.007375,1.009875,192.000000,127.500000,112.000000,127.500000,88.000000,15.500000,72.000000,0.000000,0.000000,0.000000,1771317478.606128,0.000000
204.000000,23201.200152,14456.728334,8053.020603,8179.777346,7553.213245,10550.269252,-12097.322893,-12414.807071,-3901.094663,-4900.508213,-4512.884261,25229.911534,18775.733563,22345.374208,14190.742575,-5044.073468,-0.005063,-0.007375,1.009875,192.000000,0.000000,0.000000,0.000000,0.000000,0.000000,0.000000,0.000000,0.000000,0.000000,1771317478.606172,0.000000
206.000000,23238.080530,14471.234616,8086.235295,8212.947334,7586.003254,10572.531590,-12059.503741,-12374.462172,-3870.383366,-4863.761945,-4465.722080,25265.182586,18804.813183,22363.076790,14177.242121,-5005.851985,-0.005063,-0.007375,1.009875,192.000000,0.000000,0.000000,0.000000,0.000000,0.000000,0.000000,0.000000,0.000000,0.000000,1771317478.606188,0.000000
208.000000,23207.369233,14436.634116,8042.984670,8168.869694,7544.049030,10527.179900,-12105.883611,-12415.857603,-3872.506782,-4877.172992,-4478.708443,25253.962011,18787.535284,22352.906746,14184.528790,-5024.023953,-0.005063,-0.007375,1.009875,192.000000,0.000000,0.000000,0.000000,0.000000,0.000000,0.000000,0.000000,0.000000,0.000000,1771317478.606200,0.000000
210.000000,23250.463396,14487.126706,8086.682330,8210.488643,7584.438632,10557.488866,-12060.286052,-12369.768306,-3870.696291,-4877.843544,-4481.971798,25259.885223,18792.899703,22336.165289,14186.227523,-5036.093895,-0.005063,-0.007375,1.009875,192.000000,0.000000,0.000000,0.000000,0.000000,0.000000,0.000000,0.000000,0.000000,0.000000,1771317478.606211,0.000000
212.000000,23226.994065,14472.173389,8069.985577,8188.315712,7565.394946,10545.530682,-12082.548390,-12390.689539,-3841.124933,-4840.627890,-4437.089495,25290.127133,18812.345721,22371.101066,14181.421898,-5000.956953,-0.003531,-0.006688,1.010938,192.000000,127.500000,120.000000,127.500000,104.000000,15.500000,80.000000,0.000000,0.000000,0.000000,1771317478.606223,0.000000
214.000000,23231.732635,14468.999442,8060.441382,8179.397366,7558.644719,10535.941784,-12093.478393,-12399.876106,-3878.139422,-4888.125347,-4486.240981,25241.713255,18792.162096,22337.372284,14193.357729,-5053.170628,-0.003531,-0.006688,1.010938,192.000000,0.000000,0.000000,0.000000,0.000000,0.000000,0.000000,0.000000,0.000000,0.000000,1771317478.606235,0.000000
216.000000,23259.091170,14495.374500,8091.018568,8212.723817,7591.099452,10572.688052,-12057.760305,-12366.124972,-3848.523360,-4847.780448,-4451.327557,25282.795761,18811.205782,22373.492703,14183.947645,-5010.791720,-0.003531,-0.006688,1.010938,192.000000,0.000000,0.000000,0.000000,0.000000,0.000000,0.000000,0.000000,0.000000,0.000000,1771317478.606250,0.000000
218.000000,23212.174858,14452.637965,8048.930234,8164.645215,7550.151056,10528.968040,-12106.777681,-12415.365865,-3864.840134,-4863.381966,-4472.204086,25260.444017,18799.918151,22364.976688,14188.574456,-5030.081276,-0.003531,-0.006688,1.010938,192.000000,0.000000,0.000000,0.000000,0.000000,0.000000,0.000000,0.000000,0.000000,0.000000,1771317478.606262,0.000000
220.000000,23255.447835,14493.720471,8084.022472,8207.046474,7581.443498,10570.117601,-12064.823456,-12376.183257,-3870.808050,-4876.614198,-4478.864906,25249.290496,18800.499296,22351.342124,14189.133249,-5035.892729,-0.003531,-0.006688,1.010938,192.000000,0.000000,0.000000,0.000000,0.000000,0.000000,0.000000,0.000000,0.000000,0.000000,1771317478.606274,0.000000
222.000000,23236.650018,14472.419259,8070.410260,8191.422604,7564.612635,10551.722115,-12081.006119,-12389.303731,-3835.179369,-4843.131285,-4439.436428,25285.187398,18813.351549,22377.404258,14179.186723,-4994.653761,-0.003766,-0.005344,1.010469,192.000000,127.500000,112.000000,127.500000,112.000000,15.500000,72.000000,0.000000,0.000000,0.000000,1771317478.606285,0.000000
224.000000,23231.889097,14451.721543,8057.513303,8178.302130,7553.906149,10543.027287,-12094.260704,-12402.357149,-3876.239523,-4889.935838,-4488.967894,25238.248734,18785.478924,22331.940810,14192.441308,-5047.314471,-0.003766,-0.005344,1.010469,192.000000,0.000000,0.000000,0.000000,0.000000,0.000000,0.000000,0.000000,0.000000,0.000000,1771317478.606296,0.000000
226.000000,23262.354524,14497.833192,8095.175993,8216.680076,7592.284094,10577.761898,-12054.586357,-12363.710983,-3833.726505,-4856.698794,-4448.757106,25272.581014,18805.148459,22376.577243,14184.551142,-5006.276668,-0.003766,-0.005344,1.010469,192.000000,0.000000,0.000000,0.000000,0.000000,0.000000,0.000000,0.000000,0.000000,0.000000,1771317478.606308,0.000000
228.000000,23220.713224,14455.364878,8051.903016,8167.439183,7546.239501,10523.961249,-12103.916657,-12413.667132,-3862.672015,-4867.092355,-4466.258522,25257.895918,18792.855000,22348.950487,14191.167258,-5022.928717,-0.003766,-0.005344,1.010469,192.000000,0.000000,0.000000,0.000000,0.000000,0.000000,0.000000,0.000000,0.000000,0.000000,1771317478.606319,0.000000
230.000000,23256.900699,14499.487221,8089.096318,8204.900706,7579.409490,10554.583139,-12060.867198,-12368.471905,-3869.958683,-4880.190477,-4474.394557,25246.697694,18794.017290,22337.886374,14190.697872,-5033.210520,-0.003766,-0.005344,1.010469,192.000000,0.000000,0.000000,0.000000,0.000000,0.000000,0.000000,0.000000,0.000000,0.000000,1771317478.606330,0.000000
232.000000,23227.351693,14458.136494,8062.475391,8181.476078,7552.341527,10529.012743,-12087.443422,-12396.053957,-3837.436895,-4854.105992,-4444.331461,25273.989174,18793.480848,22370.385810,14175.699851,-5007.349552,-0.003766,-0.005344,1.010469,192.000000,0.000000,0.000000,0.000000,0.000000,0.000000,0.000000,0.000000,0.000000,0.000000,1771317478.606341,0.000000
234.000000,23230.883268,14456.504817,8057.110972,8176.715157,7550.978071,10518.708589,-12093.970131,-12403.631199,-3888.264762,-4892.014550,-4488.722025,25237.108795,18770.659717,22320.072033,14194.005930,-5048.230892,-0.004000,-0.006000,1.012000,192.000000,127.500000,112.000000,127.500000,104.000000,15.500000,80.000000,0.000000,0.000000,0.000000,1771317478.606352,0.000000
236.000000,23263.583870,14495.530962,8085.140060,8210.265125,7579.722414,10558.628805,-12059.146113,-12370.058879,-3850.579721,-4862.532599,-4454.613263,25270.077618,18785.210703,22358.517034,14177.420935,-5011.506976,-0.004000,-0.006000,1.012000,192.000000,0.000000,0.000000,0.000000,0.000000,0.000000,0.000000,0.000000,0.000000,0.000000,1771317478.606363,0.000000
238.000000,23213.091280,14452.392096,8039.676611,8164.175828,7534.728352,10522.977772,-12110.018684,-12422.406664,-3863.208456,-4877.396509,-4479.602513,25247.122377,18768.715116,22353.510243,14179.544351,-5030.103627,-0.004000,-0.006000,1.012000,192.000000,0.000000,0.000000,0.000000,0.000000,0.000000,0.000000,0.000000,0.000000,0.000000,1771317478.606375,0.000000
240.000000,23251.424521,14490.077137,8081.876705,8208.700503,7578.761289,10565.915473,-12064.599939,-12378.619597,-3867.835268,-4877.642379,-4482.284723,25239.589839,18775.420639,22348.838729,14186.473392,-5030.371848,-0.004000,-0.006000,1.012000,192.000000,0.000000,0.000000,0.000000,0.000000,0.000000,0.000000,0.000000,0.000000,0.000000,1771317478.606386,0.000000
242.000000,23225.250629,14459.857578,8059.435553,8188.315712,7559.158809,10547.072953,-12088.538657,-12404.838193,-3841.884892,-4850.328547,-4448.913568,25265.383752,18791.648005,22359.142883,14176.504514,-4996.777176,-0.004000,-0.006000,1.012000,192.000000,0.000000,0.000000,0.000000,0.000000,0.000000,0.000000,0.000000,0.000000,0.000000,1771317478.606398,0.000000
244.000000,23215.639379,14460.326965,8054.853446,8183.800660,7560.321100,10546.938842,-12096.227657,-12411.029626,-3891.371654,-4900.083530,-4501.194298,25216.567542,18759.349735,22317.345121,14187.166296,-5044.296985,-0.006000,-0.006000,1.018000,192.000000,127.500000,104.000000,127.500000,104.000000,15.500000,104.000000,0.000000,0.000000,0.000000,1771317478.606409,0.000000
246.000000,23253.033847,14500.761271,8087.978731,8215.093102,7592.731129,10580.242941,-12060.800142,-12373.389289,-3856.547637,-4854.910654,-4460.335310,25259.728761,18791.245674,22375.705525,14181.868932,-5002.409816,-0.006000,-0.006000,1.018000,192.000000,0.000000,0.000000,0.000000,0.000000,0.000000,0.000000,0.000000,0.000000,0.000000,1771317478.606421,0.000000
248.000000,23213.314797,14433.728389,8041.285937,8165.136953,7539.936309,10524.542394,-12112.678541,-12424.373618,-3873.758480,-4871.450945,-4476.830897,25242.227345,18771.799656,22352.571470,14185.936950,-5026.661459,-0.006000,-0.006000,1.018000,192.000000,0.000000,0.000000,0.000000,0.000000,0.000000,0.000000,0.000000,0.000000,0.000000,1771317478.606433,0.000000
250.000000,23258.062989,14482.566951,8083.195458,8207.493509,7576.235542,10559.656985,-12066.633948,-12378.910169,-3878.429994,-4880.749271,-4485.950409,25239.835708,18773.721906,22337.752263,14186.048709,-5037.435000,-0.006000,-0.006000,1.018000,192.000000,0.000000,0.000000,0.000000,0.000000,0.000000,0.000000,0.000000,0.000000,0.000000,1771317478.606444,0.000000
252.000000,23228.469280,14468.194779,8057.826228,8180.470250,7549.122876,10525.615278,-12092.360806,-12405.776966,-3843.114238,-4849.769753,-4454.188580,25276.671383,18781.410906,22371.346935,14171.922406,-5005.762578,-0.006000,-0.006000,1.018000,192.000000,0.000000,0.000000,0.000000,0.000000,0.000000,0.000000,0.000000,0.000000,0.000000,1771317478.606456,0.000000
254.000000,23219.975617,14458.404715,8055.792219,8177.229247,7544.674879,10524.520042,-12096.451175,-12410.336722,-3890.097605,-4900.932896,-4501.440168,25220.255580,18754.991145,22324.520031,14187.054537,-5051.918930,-0.004000,-0.008000,1.010000,192.000000,127.500000,112.000000,127.500000,96.000000,15.500000,72.000000,0.000000,0.000000,0.000000,1771317478.606467,0.000000
0.000000,23259.269984,14504.985750,8087.576400,8212.522651,7577.911923,10552.906758,-12060.151942,-12369.902416,-3843.762439,-4863.851352,-4456.915493,25265.830787,18777.231130,22349.151653,14174.604616,-5013.272764,-0.004000,-0.008000,1.010000,192.000000,0.000000,0.000000,0.000000,0.000000,0.000000,0.000000,0.000000,0.000000,0.000000,1771317478.606478,0.000000
2.000000,23220.556762,14448.592299,8044.705754,8169.115564,7530.280355,10520.966115,-12106.732977,-12417.578687,-3863.186105,-4871.316835,-4469.879504,25249.245793,18759.416790,22337.372284,14178.873799,-5026.013258,-0.004000,-0.008000,1.010000,192.000000,0.000000,0.000000,0.000000,0.000000,0.000000,0.000000,0.000000,0.000000,0.000000,1771317478.606514,0.000000
4.000000,23249.748141,14477.314291,8077.115783,8203.313733,7564.411469,10554.337270,-12070.187875,-12384.878085,-3889.181183,-4891.276943,-4482.619999,25237.779348,18759.975584,22331.873754,14178.806743,-5034.372811,-0.004000,-0.008000,1.010000,192.000000,0.000000,0.000000,0.000000,0.000000,0.000000,0.000000,0.000000,0.000000,0.000000,1771317478.606525,0.000000
6.000000,23231.665579,14460.796352,8060.910769,8184.761785,7558.130629,10538.065200,-12091.243218,-12408.682693,-3846.802276,-4862.733765,-4452.355737,25262.053342,18780.069802,22370.318755,14171.497723,-4999.258220,-0.004000,-0.008000,1.010000,192.000000,0.000000,0.000000,0.000000,0.000000,0.000000,0.000000,0.000000,0.000000,0.000000,1771317478.606536,0.000000
8.000000,23225.004759,14456.907148,8057.356841,8181.185506,7559.762306,10540.859168,-12096.741747,-12414.136519,-3884.509669,-4899.815309,-4499.964952,25218.310978,18765.474113,22318.015673,14189.580284,-5040.631299,-0.004000,-0.010000,1.008000,192.000000,127.500000,112.000000,127.500000,88.000000,15.500000,64.000000,0.000000,0.000000,0.000000,1771317478.606547,0.000000
10.000000,23260.096998,14483.729241,8084.178935,8211.025084,7587.992559,10568.128296,-12062.431820,-12380.094812,-3850.445610,-4865.013643,-4464.515086,25257.650048,18785.411869,22365.826054,14176.079831,-5006.343723,-0.004000,-0.010000,1.008000,192.000000,0.000000,0.000000,0.000000,0.000000,0.000000,0.000000,0.000000,0.000000,0.000000,1771317478.606559,0.000000
12.000000,23205.514038,14440.903299,8041.487103,8167.372127,7544.138437,10520.496728,-12110.130442,-12425.312391,-3865.868314,-4879.698739,-4481.368301,25245.736569,18773.096058,22348.548156,14181.377194,-5024.538043,-0.004000,-0.010000,1.008000,192.000000,0.000000,0.000000,0.000000,0.000000,0.000000,0.000000,0.000000,0.000000,0.000000,1771317478.606570,0.000000
14.000000,23252.072722,14481.851695,8085.944722,8209.549869,7589.646589,10563.769706,-12066.611596,-12380.519495,-3870.338663,-4881.464527,-4483.469365,25239.388673,18774.593624,22336.433510,14185.959302,-5031.109456,-0.004000,-0.010000,1.008000,192.000000,0.000000,0.000000,0.000000,0.000000,0.000000,0.000000,0.000000,0.000000,0.000000,1771317478.606581,0.000000
16.000000,23234.928934,14467.926558,8072.757193,8190.305017,7578.917751,10542.669659,-12085.834096,-12396.992731,-3835.335831,-4849.747401,-4447.170132,25272.782179,18799.426413,22381.338165,14180.572531,-4995.167851,-0.004000,-0.010000,1.008000,192.000000,0.000000,0.000000,0.000000,0.000000,0.000000,0.000000,0.000000,0.000000,0.000000,1771317478.606592,0.000000
18.000000,23237.812309,14464.394982,8066.655167,8187.600456,7573.933312,10537.193482,-12091.667901,-12402.290094,-3876.418337,-4883.766757,-4485.570429,25232.772557,18792.564427,22338.556926,14201.180840,-5036.563282,-0.002000,-0.010000,1.008000,192.000000,127.500000,120.000000,127.500000,88.000000,15.500000,64.000000,0.000000,0.000000,0.000000,1771317478.606603,0.000000
20.000000,23262.220414,14506.617428,8089.185725,8215.070750,7591.859411,10559.008784,-12059.302576,-12372.606978,-3841.303747,-4852.653128,-4456.624920,25277.520749,18794.933712,22369.759961,14181.779525,-5007.215441,-0.002000,-0.010000,1.008000,192.000000,0.000000,0.000000,0.000000,0.000000,0.000000,0.000000,0.000000,0.000000,0.000000,1771317478.606614,0.000000
22.000000,23213.605370,14433.706037,8042.358821,8168.422659,7542.216187,10523.871842,-12107.627047,-12424.753597,-3870.204552,-4876.100108,-4479.937789,25246.563583,18770.570310,22331.761996,14179.365537,-5026.214424,-0.002000,-0.010000,1.008000,192.000000,0.000000,0.000000,0.000000,0.000000,0.000000,0.000000,0.000000,0.000000,0.000000,1771317478.606625,0.000000
24.000000,23259.962888,14485.249160,8075.394699,8207.247640,7573.061594,10565.624901,-12068.153866,-12382.195876,-3877.960608,-4887.410091,-4490.510165,25234.538345,18762.367220,22346.111816,14179.164371,-5033.299927,-0.002000,-0.010000,1.008000,192.000000,0.000000,0.000000,0.000000,0.000000,0.000000,0.000000,0.000000,0.000000,0.000000,1771317478.606638,0.000000
26.000000,23223.820117,14469.312366,8062.006004,8185.186468,7556.342489,10541.462665,-12087.264608,-12400.233734,-3835.492293,-4845.388811,-4446.588987,25276.917252,18782.394383,22384.467409,14171.765944,-4994.050264,-0.002000,-0.010000,1.008000,192.000000,0.000000,0.000000,0.000000,0.000000,0.000000,0.000000,0.000000,0.000000,0.000000,1771317478.606649,0.000000
28.000000,23212.644245,14449.128741,8051.590091,8176.759860,7541.098600,10531.784359,-12099.133384,-12413.242449,-3896.959591,-4896.462547,-4499.450862,25220.054414,18749.112636,22311.064280,14179.454944,-5043.849950,0.002000,-0.010000,1.008000,192.000000,0.000000,8.000000,127.500000,88.000000,15.500000,64.000000,0.000000,0.000000,0.000000,1771317478.606660,0.000000
30.000000,23247.691780,14479.191837,8083.173106,8214.601363,7573.016891,10560.975738,-12059.369631,-12377.278492,-3868.483468,-4866.220637,-4463.308092,25257.448883,18773.498389,22348.168176,14167.854389,-5003.840328,0.002000,-0.010000,1.008000,192.000000,0.000000,0.000000,0.000000,0.000000,0.000000,0.000000,0.000000,0.000000,0.000000,1771317478.606671,0.000000
32.000000,23204.307044,14436.879985,8037.888472,8165.025194,7532.426123,10522.240165,-12110.555126,-12429.179243,-3889.471756,-4882.179783,-4482.038853,25236.125319,18752.845377,22336.299400,14173.554084,-5018.905403,0.002000,-0.010000,1.008000,192.000000,0.000000,0.000000,0.000000,0.000000,0.000000,0.000000,0.000000,0.000000,0.000000,1771317478.606683,0.000000
34.000000,23242.081492,14472.039279,8079.418013,8203.693712,7577.576647,10561.892159,-12069.427916,-12385.906265,-3892.131614,-4895.635533,-4491.136013,25228.101042,18757.427485,22320.139089,14175.722203,-5027.488473,0.002000,-0.010000,1.008000,192.000000,0.000000,0.000000,0.000000,0.000000,0.000000,0.000000,0.000000,0.000000,0.000000,1771317478.606695,0.000000
36.000000,23235.778300,14456.616575,8066.163429,8185.901724,7567.585417,10543.697839,-12090.170335,-12402.178335,-3841.817837,-4859.738631,-4449.070030,25261.896880,18784.383688,22362.920328,14175.968072,-4991.680979,0.002000,-0.010000,1.008000,192.000000,0.000000,0.000000,0.000000,0.000000,0.000000,0.000000,0.000000,0.000000,0.000000,1771317478.606706,0.000000
38.000000,23221.719053,14440.657430,8058.429725,8174.859962,7557.258911,10523.357752,-12099.960399,-12410.090853,-3889.516460,-4906.520832,-4491.493641,25221.753147,18761.339040,22323.827126,14188.485049,-5041.950052,-0.004000,-0.010000,1.000000,192.000000,127.500000,112.000000,127.500000,88.000000,15.500000,32.000000,0.000000,0.000000,0.000000,1771317478.606718,0.000000
40.000000,23259.873481,14491.284131,8098.327589,8219.250526,7596.441519,10566.384860,-12052.909977,-12363.487466,-3848.612767,-4863.337262,-4452.691013,25266.076656,18783.556674,22354.203147,14179.857275,-5004.399121,-0.004000,-0.010000,1.000000,192.000000,0.000000,0.000000,0.000000,0.000000,0.000000,0.000000,0.000000,0.000000,0.000000,1771317478.606729,0.000000
42.000000,23205.268169,14438.511662,8044.258719,8163.102944,7544.719582,10520.697894,-12110.845698,-12424.977115,-3871.478602,-4882.984445,-4472.382900,25241.221516,18762.389572,22335.382978,14179.946682,-5027.510825,-0.004000,-0.010000,1.000000,192.000000,0.000000,0.000000,0.000000,0.000000,0.000000,0.000000,0.000000,0.000000,0.000000,1771317478.606741,0.000000
44.000000,23246.708303,14476.576683,8084.022472,8208.476986,7583.008120,10563.501485,-12062.811799,-12377.904341,-3875.434861,-4891.455757,-4481.815336,25228.592781,18770.413848,22332.164327,14183.567665,-5032.651726,-0.004000,-0.010000,1.000000,192.000000,0.000000,0.000000,0.000000,0.000000,0.000000,0.000000,0.000000,0.000000,0.000000,1771317478.606752,0.000000
46.000000,23216.824021,14454.895491,8062.743612,8187.153421,7560.991652,10537.305240,-12085.208247,-12400.189030,-3849.775058,-4865.259512,-4447.192484,25258.968801,18770.972642,22356.483025,14169.888397,-5000.576973,-0.004000,-0.010000,1.000000,192.000000,0.000000,0.000000,0.000000,0.000000,0.000000,0.000000,0.000000,0.000000,0.000000,1771317478.606764,0.000000
48.000000,23220.422652,14445.306593,8055.144019,8175.217590,7553.660280,10529.437426,-12094.953608,-12411.230792,-3889.181183,-4907.012571,-4493.505298,25219.674435,18759.550900,22320.429661,14186.316930,-5043.089991,-0.005000,-0.011000,1.003000,192.000000,127.500000,104.000000,127.500000,80.000000,15.500000,56.000000,0.000000,0.000000,0.000000,1771317478.606775,0.000000
50.000000,23252.989143,14478.655395,8083.441327,8209.706331,7576.593170,10560.305185,-12059.257872,-12377.122030,-3863.208456,-4871.227428,-4461.072917,25258.231194,18773.833665,22344.726008,14174.246988,-5005.360246,-0.005000,-0.011000,1.003000,192.000000,0.000000,0.000000,0.000000,0.000000,0.000000,0.000000,0.000000,0.000000,0.000000,1771317478.606786,0.000000
52.000000,23192.102992,14418.529203,8039.229576,8163.013537,7529.922727,10514.864089,-12108.074082,-12428.620449,-3880.061672,-4885.130213,-4484.028159,25235.857098,18750.587851,22329.459766,14173.084697,-5026.393238,-0.005000,-0.011000,1.003000,192.000000,0.000000,0.000000,0.000000,0.000000,0.000000,0.000000,0.000000,0.000000,0.000000,1771317478.606798,0.000000
54.000000,23235.688893,14463.858541,8078.926275,8202.442015,7572.346338,10556.997127,-12067.215093,-12385.481582,-3888.287114,-4897.893059,-4486.330388,25227.586952,18772.559616,22320.988455,14178.650281,-5034.909253,-0.005000,-0.011000,1.003000,192.000000,0.000000,0.000000,0.000000,0.000000,0.000000,0.000000,0.000000,0.000000,0.000000,1771317478.606809,0.000000
56.000000,23227.195230,14461.846884,8061.603673,8187.064014,7560.790486,10535.852377,-12087.331663,-12403.430033,-3834.888796,-4856.385870,-4451.036984,25265.629621,18787.222360,22354.471368,14170.827171,-4994.966685,-0.005000,-0.011000,1.003000,192.000000,0.000000,0.000000,0.000000,0.000000,0.000000,0.000000,0.000000,0.000000,0.000000,1771317478.606821,0.000000
58.000000,23207.324530,14439.852767,8055.702812,8177.251599,7555.738992,10525.794092,-12098.820460,-12414.024760,-3905.855585,-4902.653981,-4500.724912,25218.355682,18752.979488,22310.997225,14180.773697,-5046.129828,-0.004500,-0.010500,1.007500,192.000000,127.500000,112.000000,127.500000,88.000000,15.500000,80.000000,0.000000,0.000000,0.000000,1771317479.086540,0.000000
60.000000,23244.875460,14479.370651,8094.393682,8217.440035,7592.261743,10565.982528,-12059.257872,-12373.903379,-3865.376576,-4855.827076,-4455.462629,25265.473159,18788.898741,22370.206996,14177.443287,-5002.722740,-0.004500,-0.010500,1.007500,192.000000,0.000000,0.000000,0.000000,0.000000,0.000000,0.000000,0.000000,0.000000,0.000000,1771317479.086614,0.000000
62.000000,23198.674404,14428.051046,8047.164446,8169.115564,7543.333774,10515.534641,-12110.823346,-12425.111225,-3874.093756,-4874.267265,-4474.595723,25249.134034,18771.553787,22335.695903,14183.075927,-5022.325220,-0.004500,-0.010500,1.007500,192.000000,0.000000,0.000000,0.000000,0.000000,0.000000,0.000000,0.000000,0.000000,0.000000,1771317479.086668,0.000000
64.000000,23242.327361,14472.754535,8086.995254,8215.629544,7582.270513,10565.736659,-12061.135419,-12377.837286,-3887.035416,-4888.348864,-4484.810470,25235.722987,18774.995956,22328.476289,14180.349014,-5034.395162,-0.004500,-0.010500,1.007500,192.000000,0.000000,0.000000,0.000000,0.000000,0.000000,0.000000,0.000000,0.000000,0.000000,1771317479.086723,0.000000
66.000000,23216.756966,14451.699192,8057.267434,8187.511049,7559.024699,10539.607470,-12088.538657,-12408.280362,-3845.617634,-4849.546236,-4446.052545,25274.056229,18789.479886,22358.941717,14173.174104,-4991.636275,-0.004500,-0.010500,1.007500,192.000000,0.000000,0.000000,0.000000,0.000000,0.000000,0.000000,0.000000,0.000000,0.000000,1771317479.086779,0.000000
68.000000,23206.475163,14434.555404,8048.013812,8173.317691,7552.922672,10530.577365,-12101.323855,-12423.412493,-3903.955687,-4906.319667,-4509.464444,25209.258522,18755.415828,22310.729004,14180.751345,-5045.235758,-0.005250,-0.011250,1.009750,192.000000,127.500000,104.000000,127.500000,80.000000,15.500000,80.000000,0.000000,0.000000,0.000000,1771317479.086811,0.000000
70.000000,23234.995989,14479.460058,8083.888362,8206.867660,7586.718510,10560.171075,-12065.896340,-12391.158925,-3869.846925,-4874.379024,-4471.578237,25240.953295,18785.836552,22351.118606,14175.409278,-5006.299020,-0.005250,-0.011250,1.009750,192.000000,0.000000,0.000000,0.000000,0.000000,0.000000,0.000000,0.000000,0.000000,0.000000,1771317479.086843,0.000000
72.000000,23189.174913,14413.365950,8038.223748,8158.274967,7537.544672,10509.723188,-12114.019646,-12439.148121,-3884.599076,-4894.003855,-4489.258467,25219.875600,18768.983337,22323.067167,14181.466601,-5026.169720,-0.005250,-0.011250,1.009750,192.000000,0.000000,0.000000,0.000000,0.000000,0.000000,0.000000,0.000000,0.000000,0.000000,1771317479.086867,0.000000
74.000000,23230.927972,14456.191892,8072.779545,8197.994017,7571.139344,10543.273156,-12071.908959,-12394.623446,-3896.065521,-4906.342018,-4495.941638,25219.965007,18768.402191,22313.500621,14182.204209,-5036.071543,-0.005250,-0.011250,1.009750,192.000000,0.000000,0.000000,0.000000,0.000000,0.000000,0.000000,0.000000,0.000000,0.000000,1771317479.086890,0.000000
76.000000,23210.230256,14438.332848,8062.050708,8182.057224,7557.817704,10528.990391,-12087.644587,-12408.705045,-3863.901361,-4874.759003,-4458.524818,25252.196223,18779.019270,22334.533612,14168.591996,-5004.443825,-0.005250,-0.011250,1.009750,192.000000,0.000000,0.000000,0.000000,0.000000,0.000000,0.000000,0.000000,0.000000,0.000000,1771317479.086912,0.000000
78.000000,23209.269131,14426.709941,8051.835960,8169.853171,7550.709850,10518.149795,-12102.709663,-12422.876051,-3899.842966,-4916.847338,-4504.077673,25209.660853,18762.277813,22293.652271,14186.875723,-5045.928663,-0.005625,-0.012625,1.010875,192.000000,127.500000,104.000000,127.500000,72.000000,15.500000,80.000000,0.000000,0.000000,0.000000,1771317479.086934,0.000000
80.000000,23251.357466,14475.280282,8092.560839,8212.299134,7591.591190,10558.517046,-12057.469732,-12377.099678,-3845.394116,-4873.216733,-4461.542304,25248.508185,18795.246636,22340.278010,14181.935988,-5009.182395,-0.005625,-0.012625,1.010875,192.000000,0.000000,0.000000,0.000000,0.000000,0.000000,0.000000,0.000000,0.000000,0.000000,1771317479.086957,0.000000
82.000000,23202.004814,14425.435892,8047.656184,8165.695747,7543.199664,10515.199365,-12107.627047,-12428.978077,-3876.977131,-4887.119518,-4477.747318,25227.788118,18777.767572,22344.457787,14183.321796,-5028.203729,-0.005625,-0.012625,1.010875,192.000000,0.000000,0.000000,0.000000,0.000000,0.000000,0.000000,0.000000,0.000000,0.000000,1771317479.086979,0.000000
84.000000,23240.516870,14478.342471,8081.496725,8206.398273,7576.771984,10545.240110,-12067.796238,-12384.721623,-3891.952800,-4895.233201,-4485.123394,25226.424661,18777.745220,22323.447147,14185.422860,-5038.351421,-0.005625,-0.012625,1.010875,192.000000,0.000000,0.000000,0.000000,0.000000,0.000000,0.000000,0.000000,0.000000,0.000000,1771317479.087001,0.000000
86.000000,23231.129137,14452.727372,8066.901036,8193.411910,7563.226827,10541.015630,-12084.805916,-12398.669112,-3845.438820,-4859.895093,-4444.890254,25263.550909,18797.526514,22355.119569,14176.213941,-5003.393293,-0.005625,-0.012625,1.010875,192.000000,0.000000,0.000000,0.000000,0.000000,0.000000,0.000000,0.000000,0.000000,0.000000,1771317479.087024,0.000000
88.000000,23217.919256,14442.110293,8057.558007,8182.839535,7552.430934,10533.304278,-12097.009968,-12407.654513,-3892.891573,-4904.799748,-4491.605400,25222.401347,18764.892967,22322.351911,14188.842677,-5044.296985,-0.004812,-0.014313,1.008437,192.000000,127.500000,112.000000,127.500000,64.000000,15.500000,56.000000,0.000000,0.000000,0.000000,1771317479.087057,0.000000
90.000000,23248.563498,14494.100451,8093.276095,8219.295230,7590.540658,10564.976700,-12058.140285,-12371.958777,-3853.261930,-4869.171067,-4452.601606,25255.638391,18793.167924,22357.198281,14177.845618,-5006.790758,-0.004812,-0.014313,1.008437,192.000000,0.000000,0.000000,0.000000,0.000000,0.000000,0.000000,0.000000,0.000000,0.000000,1771317479.087093,0.000000
92.000000,23203.681195,14442.244404,8044.728106,8168.534418,7542.037373,10515.579345,-12111.583306,-12425.290039,-3870.092794,-4879.408166,-4472.114679,25239.411025,18770.950290,22327.626923,14181.444249,-5022.034648,-0.004812,-0.014313,1.008437,192.000000,0.000000,0.000000,0.000000,0.000000,0.000000,0.000000,0.000000,0.000000,0.000000,1771317479.087115,0.000000
94.000000,23255.425484,14482.030509,8082.636664,8208.298172,7579.320083,10553.331441,-12069.606730,-12379.491315,-3869.936332,-4889.377044,-4481.435356,25233.979551,18778.035793,22326.509336,14186.026357,-5030.014220,-0.004812,-0.014313,1.008437,192.000000,0.000000,0.000000,0.000000,0.000000,0.000000,0.000000,0.000000,0.000000,0.000000,1771317479.087137,0.000000
96.000000,23222.143736,14453.621442,8065.001138,8186.214648,7559.203513,10535.248880,-12089.477431,-12401.485431,-3839.046221,-4854.485971,-4439.615242,25270.122322,18796.028947,22358.002944,14176.415107,-4997.067749,-0.004812,-0.014313,1.008437,192.000000,0.000000,0.000000,0.000000,0.000000,0.000000,0.000000,0.000000,0.000000,0.000000,1771317479.087158,0.000000
98.000000,23215.281751,14453.040296,8055.211074,8177.720985,7550.441629,10520.407322,-12100.362730,-12415.209402,-3896.356093,-4906.610239,-4495.226383,25218.154516,18762.635441,22303.375280,14186.786316,-5049.862570,-0.007406,-0.014156,1.006219,192.000000,127.500000,88.000000,127.500000,72.000000,15.500000,48.000000,0.000000,0.000000,0.000000,1771317479.087180,0.000000
100.000000,23252.542109,14487.998425,8087.844621,8207.605267,7581.935237,10544.033115,-12065.516360,-12379.647777,-3857.464058,-4865.147753,-4455.529684,25252.755016,18782.595549,22339.808624,14176.862142,-5015.127959,-0.007406,-0.014156,1.006219,192.000000,0.000000,0.000000,0.000000,0.000000,0.000000,0.000000,0.000000,0.000000,0.000000,1771317479.087202,0.000000
102.000000,23225.205925,14446.133607,8051.411277,8171.261331,7539.735143,10510.147871,-12105.525983,-12417.913964,-3862.895532,-4884.347902,-4467.398461,25237.935810,18780.047450,22324.497679,14181.019566,-5034.529273,-0.007406,-0.014156,1.006219,192.000000,0.000000,0.000000,0.000000,0.000000,0.000000,0.000000,0.000000,0.000000,0.000000,1771317479.087218,0.000000
104.000000,23253.950269,14483.796297,8083.262513,8210.578049,7568.323024,10556.393630,-12067.595073,-12379.580722,-3870.092794,-4886.404262,-4473.589894,25243.769615,18776.717040,22332.052568,14186.987482,-5035.490398,-0.007406,-0.014156,1.006219,192.000000,0.000000,0.000000,0.000000,0.000000,0.000000,0.000000,0.000000,0.000000,0.000000,1771317479.087231,0.000000
106.000000,23236.605315,14468.485352,8066.096373,8192.450785,7550.866312,10535.114769,-12085.901151,-12400.367844,-3833.279471,-4848.786276,-4443.236225,25276.112589,18785.434220,22386.143790,14172.369441,-5000.644028,-0.007406,-0.014156,1.006219,192.000000,0.000000,0.000000,0.000000,0.000000,0.000000,0.000000,0.000000,0.000000,0.000000,1771317479.087243,0.000000
108.000000,23215.147640,14448.033505,8055.009908,8174.323520,7538.237576,10510.147871,-12102.553201,-12417.645743,-3884.286151,-4907.504309,-4498.065054,25219.093289,18762.523682,22297.049737,14181.019566,-5057.819791,-0.007406,-0.014156,1.006219,192.000000,0.000000,0.000000,0.000000,0.000000,0.000000,0.000000,0.000000,0.000000,0.000000,1771317479.087255,0.000000
110.000000,23265.394362,14497.184992,8100.898039,8223.050323,7585.489164,10553.733772,-12052.373535,-12366.415544,-3844.768267,-4864.901884,-4445.694917,25265.204938,18800.946331,22337.931077,14179.969034,-5012.401046,-0.008000,-0.006000,1.012000,192.000000,127.500000,96.000000,127.500000,104.000000,15.500000,80.000000,0.000000,0.000000,0.000000,1771317479.087266,0.000000
112.000000,23216.555800,14454.068476,8045.286899,8167.126258,7532.984916,10497.921467,-12110.577477,-12421.892574,-3859.520419,-4877.284751,-4464.157458,25242.294400,18787.959968,22323.581257,14175.051650,-5035.043363,-0.008000,-0.006000,1.012000,192.000000,0.000000,0.000000,0.000000,0.000000,0.000000,0.000000,0.000000,0.000000,0.000000,1771317479.087278,0.000000
114.000000,23255.201966,14488.333701,8082.904885,8204.230154,7568.144210,10529.683295,-12070.165523,-12380.944178,-3874.518439,-4890.807556,-4479.311941,25233.420757,18780.807409,22310.416080,14178.002081,-5043.581729,-0.008000,-0.006000,1.012000,192.000000,0.000000,0.000000,0.000000,0.000000,0.000000,0.000000,0.000000,0.000000,0.000000,1771317479.087289,0.000000
116.000000,23248.049408,14461.936290,8064.777620,8185.365282,7552.363879,10512.964191,-12089.790355,-12401.150155,-3831.513683,-4861.973806,-4439.682298,25269.943508,18799.404061,22352.280897,14167.988499,-5007.148386,-0.008000,-0.006000,1.012000,192.000000,0.000000,0.000000,0.000000,0.000000,0.000000,0.000000,0.000000,0.000000,0.000000,1771317479.087301,0.000000
118.000000,23223.596600,14458.784695,8057.826228,8178.100965,7544.965451,10512.383045,-12097.568762,-12408.548583,-3882.743881,-4910.678257,-4496.634543,25217.774536,18766.390534,22303.777612,14178.247950,-5058.400936,-0.008000,-0.006000,1.012000,192.000000,0.000000,0.000000,0.000000,0.000000,0.000000,0.000000,0.000000,0.000000,0.000000,1771317479.087312,0.000000
120.000000,23253.726751,14496.536791,8090.169202,8213.059093,7578.023681,10550.693935,-12059.883721,-12371.958777,-3842.153113,-4864.767774,-4448.064202,25257.851214,18792.765593,22359.008772,14173.621139,-5015.038552,-0.006000,-0.012000,1.014000,192.000000,127.500000,104.000000,127.500000,80.000000,15.500000,88.000000,0.000000,0.000000,0.000000,1771317479.087324,0.000000
122.000000,23219.305065,14441.573851,8046.717411,8167.886218,7535.287146,10503.062368,-12108.923448,-12422.294905,-3866.069480,-4881.866858,-4469.655987,25249.804586,18777.588758,22318.775632,14179.007909,-5029.969517,-0.006000,-0.012000,1.014000,192.000000,0.000000,0.000000,0.000000,0.000000,0.000000,0.000000,0.000000,0.000000,0.000000,1771317479.087336,0.000000
124.000000,23259.649963,14490.993558,8085.162411,8203.470195,7571.005234,10537.886386,-12071.104297,-12381.078289,-3881.626294,-4895.970809,-4480.384824,25233.957199,18781.589720,22299.933112,14182.874761,-5043.224101,-0.006000,-0.012000,1.014000,192.000000,0.000000,0.000000,0.000000,0.000000,0.000000,0.000000,0.000000,0.000000,0.000000,1771317479.087347,0.000000
126.000000,23240.114539,14473.894474,8068.264493,8188.271009,7555.247254,10521.301391,-12089.477431,-12398.087966,-3834.285299,-4859.358652,-4436.508350,25274.033877,18802.555657,22348.794025,14172.682365,-5006.522537,-0.006000,-0.012000,1.014000,192.000000,0.000000,0.000000,0.000000,0.000000,0.000000,0.000000,0.000000,0.000000,0.000000,1771317479.087358,0.000000
128.000000,23233.096091,14466.607805,8056.686289,8183.063052,7544.361954,10505.990446,-12100.183916,-12406.201649,-3882.073329,-4905.023265,-4487.246810,25221.887257,18780.919168,22300.782478,14179.142020,-5057.015128,-0.006000,-0.012000,1.014000,192.000000,0.000000,0.000000,0.000000,0.000000,0.000000,0.000000,0.000000,0.000000,0.000000,1771317479.087370,0.000000
130.000000,23277.196083,14508.450271,8089.990388,8226.179567,7577.442536,10563.389726,-12059.615500,-12365.052088,-3837.459247,-4857.436402,-4445.605510,25269.787046,18808.098889,22352.482063,14170.223674,-5007.617773,-0.002000,-0.010000,1.016000,192.000000,127.500000,120.000000,127.500000,88.000000,15.500000,96.000000,0.000000,0.000000,0.000000,1771317479.087381,0.000000
132.000000,23215.840544,14454.940194,8043.856388,8174.569389,7529.855672,10514.484109,-12112.209155,-12419.702103,-3863.387270,-4872.300312,-4467.286702,25250.318676,18783.824895,22339.048664,14172.078868,-5023.085180,-0.002000,-0.010000,1.016000,192.000000,0.000000,0.000000,0.000000,0.000000,0.000000,0.000000,0.000000,0.000000,0.000000,1771317479.087392,0.000000
134.000000,23251.022190,14494.480430,8081.273208,8208.745206,7561.349280,10553.018517,-12072.758326,-12381.838248,-3881.469832,-4887.208925,-4480.563638,25237.287609,18782.014404,22341.619115,14172.972938,-5033.545796,-0.002000,-0.010000,1.016000,192.000000,0.000000,0.000000,0.000000,0.000000,0.000000,0.000000,0.000000,0.000000,0.000000,1771317479.087404,0.000000
136.000000,23241.813271,14472.016927,8067.839809,8195.580029,7548.072344,10531.694952,-12087.421070,-12394.556391,-3843.471866,-4857.838733,-4439.458780,25274.324450,18799.806392,22356.952412,14165.306290,-4995.033740,-0.002000,-0.010000,1.016000,192.000000,0.000000,0.000000,0.000000,0.000000,0.000000,0.000000,0.000000,0.000000,0.000000,1771317479.087415,0.000000
138.000000,23231.285600,14462.048049,8055.211074,8186.281703,7537.097637,10523.737731,-12099.513364,-12404.502917,-3878.921733,-4900.329399,-4487.895010,25229.397443,18774.526569,22317.769804,14176.079831,-5044.498151,-0.002000,-0.010000,1.016000,192.000000,0.000000,0.000000,0.000000,0.000000,0.000000,0.000000,0.000000,0.000000,0.000000,1771317479.087426,0.000000
140.000000,23267.026039,14501.834154,8088.515173,8219.496396,7568.211266,10550.962156,-12061.604805,-12368.874236,-3845.170599,-4860.990329,-4450.455838,25267.127188,18801.147497,22347.743493,14165.976842,-5011.350514,-0.004000,-0.010000,1.006000,192.000000,127.500000,112.000000,127.500000,88.000000,15.500000,56.000000,0.000000,0.000000,0.000000,1771317479.087438,0.000000
142.000000,23223.641303,14447.877043,8047.231501,8168.735584,7521.876099,10495.529830,-12109.057559,-12418.137481,-3859.989805,-4879.318759,-4466.459688,25248.865813,18783.355508,22324.676493,14169.419011,-5030.975345,-0.004000,-0.010000,1.006000,192.000000,0.000000,0.000000,0.000000,0.000000,0.000000,0.000000,0.000000,0.000000,0.000000,1771317479.087448,0.000000
144.000000,23250.843376,14491.619407,8087.554048,8208.231116,7564.255007,10532.432560,-12066.768058,-12376.205608,-3871.031567,-4894.540297,-4477.948484,25245.267182,18788.719927,22333.617191,14173.397621,-5045.861607,-0.004000,-0.010000,1.006000,192.000000,0.000000,0.000000,0.000000,0.000000,0.000000,0.000000,0.000000,0.000000,0.000000,1771317479.087459,0.000000
146.000000,23240.807443,14479.571817,8066.386946,8191.377901,7546.530073,10517.769816,-12088.493954,-12394.265818,-3834.821741,-4849.657994,-4437.000088,25277.006659,18806.958950,22360.036952,14165.127476,-5008.064807,-0.004000,-0.010000,1.006000,192.000000,0.000000,0.000000,0.000000,0.000000,0.000000,0.000000,0.000000,0.000000,0.000000,1771317479.087470,0.000000
148.000000,23230.100957,14480.041204,8059.189684,8184.739433,7537.209396,10523.290697,-12097.948742,-12404.704083,-3882.408605,-4891.858088,-4486.218630,25224.033025,18784.204875,22315.266408,14172.212979,-5054.489381,-0.004000,-0.010000,1.006000,192.000000,0.000000,0.000000,0.000000,0.000000,0.000000,0.000000,0.000000,0.000000,0.000000,1771317479.087481,0.000000
150.000000,23264.500292,14498.593151,8095.734786,8220.412817,7572.391042,10553.644366,-12056.888587,-12367.086097,-3840.610843,-4863.940759,-4445.761972,25265.361400,18813.686825,22355.678362,14165.485104,-5016.558470,-0.004000,-0.014000,1.004000,192.000000,127.500000,112.000000,127.500000,72.000000,15.500000,48.000000,0.000000,0.000000,0.000000,1771317479.087492,0.000000
152.000000,23217.829849,14449.285203,8050.181931,8170.434316,7528.291050,10498.122632,-12110.800995,-12421.736112,-3858.983977,-4888.795899,-4470.617112,25246.049493,18800.901628,22338.668685,14166.625043,-5037.725572,-0.004000,-0.014000,1.004000,192.000000,0.000000,0.000000,0.000000,0.000000,0.000000,0.000000,0.000000,0.000000,0.000000,1771317479.087505,0.000000
154.000000,23255.626649,14486.836134,8085.341225,8209.773387,7567.048975,10540.926223,-12072.154829,-12382.195876,-3874.004349,-4889.086472,-4476.249752,25243.434339,18801.236904,22325.548211,14175.588092,-5041.011279,-0.004000,-0.014000,1.004000,192.000000,0.000000,0.000000,0.000000,0.000000,0.000000,0.000000,0.000000,0.000000,0.000000,1771317479.087516,0.000000
156.000000,23249.278754,14470.474657,8073.092469,8197.010541,7554.621405,10539.540415,-12087.085794,-12397.797394,-3827.177444,-4852.630776,-4438.452952,25280.091200,18818.581858,22380.757020,14168.346127,-5000.442863,-0.004000,-0.014000,1.004000,192.000000,0.000000,0.000000,0.000000,0.000000,0.000000,0.000000,0.000000,0.000000,0.000000,1771317479.087528,0.000000
158.000000,23222.814288,14465.691384,8061.357804,8177.922151,7541.724448,10517.278077,-12103.491974,-12416.572859,-3876.217172,-4903.659809,-4489.638447,25224.301246,18796.923017,22311.846591,14181.354842,-5052.209503,-0.004000,-0.014000,1.004000,192.000000,0.000000,0.000000,0.000000,0.000000,0.000000,0.000000,0.000000,0.000000,0.000000,1771317479.087540,0.000000
160.000000,23253.369123,14492.535829,8092.918467,8215.093102,7574.469754,10550.269252,-12064.801105,-12381.994710,-3850.244445,-4872.456774,-4456.379051,25255.683095,18823.543945,22356.907708,14172.816476,-5015.664401,-0.010000,-0.016000,1.010000,192.000000,127.500000,88.000000,127.500000,64.000000,15.500000,72.000000,0.000000,0.000000,0.000000,1771317479.087550,0.000000
162.000000,23203.658843,14433.482520,8046.829170,8167.059203,7525.966469,10508.337379,-12116.299524,-12432.800225,-3862.292035,-4888.728844,-4471.622940,25242.517917,18808.344759,22328.632752,14172.660014,-5025.968555,-0.010000,-0.016000,1.010000,192.000000,0.000000,0.000000,0.000000,0.000000,0.000000,0.000000,0.000000,0.000000,0.000000,1771317479.087562,0.000000
164.000000,23244.942515,14483.416317,8081.452022,8210.287477,7560.790486,10551.967985,-12074.099430,-12387.806164,-3877.088890,-4901.290524,-4483.514069,25234.806566,18800.633407,22321.726063,14172.257682,-5041.145389,-0.010000,-0.016000,1.010000,192.000000,0.000000,0.000000,0.000000,0.000000,0.000000,0.000000,0.000000,0.000000,0.000000,1771317479.087573,0.000000
166.000000,23223.037806,14462.316270,8062.676556,8190.059148,7544.898396,10526.554051,-12093.746614,-12406.648684,-3845.103543,-4864.186628,-4446.209007,25264.020296,18804.634369,22366.943642,14161.417086,-5002.678037,-0.010000,-0.016000,1.010000,192.000000,0.000000,0.000000,0.000000,0.000000,0.000000,0.000000,0.000000,0.000000,0.000000,1771317479.087584,0.000000
168.000000,23213.650073,14445.597165,8054.495818,8178.860924,7535.577719,10511.332513,-12103.290809,-12419.009199,-3891.841041,-4907.459606,-4492.454766,25226.894048,18787.579988,22318.060376,14177.264473,-5047.716802,-0.010000,-0.016000,1.010000,192.000000,0.000000,0.000000,0.000000,0.000000,0.000000,0.000000,0.000000,0.000000,0.000000,1771317479.087595,0.000000
170.000000,23256.096036,14498.839021,8091.309141,8214.400198,7572.055766,10545.396572,-12061.090715,-12379.290149,-3859.699233,-4884.012626,-4464.023347,25254.409046,18802.622712,22339.585106,14162.780543,-5018.167796,-0.008000,-0.016000,1.016000,192.000000,127.500000,96.000000,127.500000,64.000000,15.500000,96.000000,0.000000,0.000000,0.000000,1771317479.087605,0.000000
172.000000,23212.934817,14441.998534,8044.258719,8166.969796,7529.118065,10502.727092,-12114.623143,-12427.413455,-3863.387270,-4886.672483,-4470.997092,25244.775444,18794.576084,22342.155557,14172.123572,-5026.169720,-0.008000,-0.016000,1.016000,192.000000,0.000000,0.000000,0.000000,0.000000,0.000000,0.000000,0.000000,0.000000,0.000000,1771317479.087616,0.000000
174.000000,23237.365274,14484.511552,8079.753289,8207.314695,7564.947911,10543.586081,-12074.613520,-12385.280417,-3871.836230,-4896.551954,-4483.692883,25241.623848,18797.861790,22324.005940,14173.710546,-5039.111380,-0.008000,-0.016000,1.016000,192.000000,0.000000,0.000000,0.000000,0.000000,0.000000,0.000000,0.000000,0.000000,0.000000,1771317479.087628,0.000000
176.000000,23227.821079,14468.015965,8067.258664,8196.295285,7551.939196,10535.919432,-12087.778698,-12399.563181,-3842.622500,-4856.117649,-4445.449048,25281.164084,18807.651854,22357.824130,14164.881607,-4997.604191,-0.008000,-0.016000,1.016000,192.000000,0.000000,0.000000,0.000000,0.000000,0.000000,0.000000,0.000000,0.000000,0.000000,1771317479.087639,0.000000
178.000000,23229.430405,14449.665183,8055.635757,8185.030006,7538.706963,10524.520042,-12100.742710,-12413.220097,-3894.567954,-4909.806539,-4496.187508,25227.072862,18790.932750,22307.778574,14175.275168,-5047.537988,-0.008000,-0.016000,1.016000,192.000000,0.000000,0.000000,0.000000,0.000000,0.000000,0.000000,0.000000,0.000000,0.000000,1771317479.566176,0.000000
180.000000,23257.325382,14485.070346,8087.576400,8222.670343,7577.442536,10562.473305,-12062.610634,-12374.328062,-3861.017985,-4872.523829,-4457.362528,25267.551871,18808.836497,22354.784293,14166.446229,-5007.416607,-0.007000,-0.016000,1.011000,192.000000,127.500000,104.000000,127.500000,64.000000,15.500000,56.000000,0.000000,0.000000,0.000000,1771317479.566241,0.000000
182.000000,23186.246835,14435.136549,8041.263585,8173.116526,7537.254100,10515.758159,-12114.690198,-12424.530080,-3861.465020,-4883.342073,-4471.533534,25254.498452,18808.344759,22351.319772,14173.576435,-5017.452540,-0.007000,-0.016000,1.011000,192.000000,0.000000,0.000000,0.000000,0.000000,0.000000,0.000000,0.000000,0.000000,0.000000,1771317479.566286,0.000000
184.000000,23228.670446,14482.991634,8080.177972,8211.561526,7569.239446,10550.135142,-12072.579512,-12383.604036,-3886.521326,-4890.204059,-4482.150612,25238.248734,18799.985206,22333.304266,14177.577398,-5030.550662,-0.007000,-0.016000,1.011000,192.000000,0.000000,0.000000,0.000000,0.000000,0.000000,0.000000,0.000000,0.000000,0.000000,1771317479.566338,0.000000
186.000000,23222.724881,14450.246328,8064.285882,8194.373035,7547.602957,10529.035095,-12089.209210,-12403.228867,-3857.441706,-4863.158448,-4444.443219,25273.542139,18815.609075,22354.851348,14168.122610,-4991.680979,-0.007000,-0.016000,1.011000,192.000000,0.000000,0.000000,0.000000,0.000000,0.000000,0.000000,0.000000,0.000000,0.000000,1771317479.566383,0.000000
188.000000,23216.488745,14446.468883,8052.618271,8183.979474,7531.956736,10515.065255,-12100.832117,-12414.851775,-3907.174338,-4912.376989,-4500.166118,25228.838650,18788.541113,22311.556019,14179.231427,-5042.687660,-0.007000,-0.016000,1.011000,192.000000,0.000000,0.000000,0.000000,0.000000,0.000000,0.000000,0.000000,0.000000,0.000000,1771317479.566427,0.000000
190.000000,23229.162184,14483.885704,8084.313045,8223.072675,7563.539751,10559.612281,-12061.247177,-12374.864504,-3869.109317,-4874.401376,-4457.966025,25268.267127,18807.316578,22343.608420,14166.580339,-5004.957915,-0.005500,-0.015000,1.010500,192.000000,127.500000,112.000000,127.500000,72.000000,15.500000,72.000000,0.000000,0.000000,0.000000,1771317479.566439,0.000000
192.000000,23202.496553,14436.522357,8041.710620,8178.749165,7523.463073,10520.586135,-12109.459890,-12421.736112,-3869.824573,-4883.856163,-4468.337234,25253.939659,18793.838476,22345.642429,14169.061383,-5010.255278,-0.005500,-0.015000,1.010500,192.000000,0.000000,0.000000,0.000000,0.000000,0.000000,0.000000,0.000000,0.000000,0.000000,1771317479.566450,0.000000
194.000000,23219.886210,14461.153979,8072.354862,8204.453672,7551.402754,10540.322726,-12075.887570,-12392.231809,-3880.396948,-4902.788091,-4488.654970,25241.757958,18793.011462,22320.139089,14172.615310,-5031.243566,-0.005500,-0.015000,1.010500,192.000000,0.000000,0.000000,0.000000,0.000000,0.000000,0.000000,0.000000,0.000000,0.000000,1771317479.566462,0.000000
196.000000,23198.607349,14433.504872,8057.178027,8184.381805,7535.801236,10518.261554,-12095.288884,-12415.276458,-3871.545657,-4880.928085,-4460.357661,25262.612136,18798.398232,22351.766807,14157.505531,-5001.091063,-0.005500,-0.015000,1.010500,192.000000,0.000000,0.000000,0.000000,0.000000,0.000000,0.000000,0.000000,0.000000,0.000000,1771317479.566473,0.000000
198.000000,23200.730765,14428.028694,8047.477370,8177.497468,7535.130684,10515.534641,-12107.470585,-12426.586440,-3918.350210,-4922.435274,-4506.737531,25221.082595,18782.103811,22309.767879,14172.123572,-5046.330994,-0.005500,-0.015000,1.010500,192.000000,0.000000,0.000000,0.000000,0.000000,0.000000,0.000000,0.000000,0.000000,0.000000,1771317479.566485,0.000000
200.000000,23229.877440,14481.941102,8085.587094,8218.714084,7579.029510,10552.839703,-12065.717526,-12383.022890,-3872.082099,-4879.810498,-4468.694862,25257.225365,18815.542020,22341.730874,14165.060421,-5006.835461,-0.004750,-0.016500,1.012250,192.000000,127.500000,112.000000,127.500000,56.000000,15.500000,88.000000,0.000000,0.000000,0.000000,1771317479.566496,0.000000
202.000000,23183.162294,14413.812985,8039.207225,8169.137915,7531.934384,10512.181880,-12119.920506,-12436.622374,-3879.458175,-4892.171012,-4478.775499,25239.098101,18797.839439,22334.734778,14170.715412,-5014.591517,-0.004750,-0.016500,1.012250,192.000000,0.000000,0.000000,0.000000,0.000000,0.000000,0.000000,0.000000,0.000000,0.000000,1771317479.566508,0.000000
204.000000,23221.808460,14460.304613,8077.160487,8207.247640,7563.964434,10548.861092,-12077.519247,-12395.517516,-3890.343474,-4904.755045,-4489.079653,25239.880412,18803.785003,22328.386882,14177.800915,-5026.572052,-0.004750,-0.016500,1.012250,192.000000,0.000000,0.000000,0.000000,0.000000,0.000000,0.000000,0.000000,0.000000,0.000000,1771317479.566519,0.000000
206.000000,23205.581093,14442.311459,8061.111934,8186.929904,7552.609748,10528.900984,-12096.138250,-12417.064597,-3858.067555,-4874.289617,-4457.586045,25260.712237,18815.586724,22351.118606,14161.685307,-4996.978342,-0.004750,-0.016500,1.012250,192.000000,0.000000,0.000000,0.000000,0.000000,0.000000,0.000000,0.000000,0.000000,0.000000,1771317479.566531,0.000000
208.000000,23200.395489,14441.171520,8050.830132,8178.302130,7547.692364,10528.319839,-12105.660094,-12426.273516,-3896.132576,-4915.662696,-4503.138900,25206.956292,18796.610093,22321.033158,14182.718299,-5037.211482,-0.004750,-0.016500,1.012250,192.000000,0.000000,0.000000,0.000000,0.000000,0.000000,0.000000,0.000000,0.000000,0.000000,1771317479.566542,0.000000
210.000000,23245.456606,14473.603901,8082.323740,8212.500300,7578.716585,10564.328499,-12069.606730,-12385.347472,-3861.040337,-4877.485916,-4466.236170,25252.062112,18817.263105,22361.847444,14168.413182,-5001.627505,-0.004375,-0.017250,1.012125,192.000000,127.500000,112.000000,127.500000,56.000000,15.500000,80.000000,0.000000,0.000000,0.000000,1771317479.566554,0.000000
212.000000,23190.583073,14413.567115,8038.626079,8164.801677,7528.447512,10515.288772,-12120.434597,-12436.130635,-3874.116108,-4894.227373,-4475.892124,25242.137938,18810.579933,22326.554039,14173.151752,-5014.502110,-0.004375,-0.017250,1.012125,192.000000,0.000000,0.000000,0.000000,0.000000,0.000000,0.000000,0.000000,0.000000,0.000000,1771317479.566565,0.000000
214.000000,23221.495536,14461.332793,8074.053594,8201.458538,7559.158809,10548.861092,-12079.150925,-12395.450460,-3885.850774,-4906.990219,-4489.481984,25222.244885,18801.683939,22318.596818,14175.185761,-5030.841235,-0.004375,-0.017250,1.012125,192.000000,0.000000,0.000000,0.000000,0.000000,0.000000,0.000000,0.000000,0.000000,0.000000,1771317479.566577,0.000000
216.000000,23211.616065,14457.197721,8062.855370,8192.540192,7551.738030,10535.382990,-12089.231561,-12405.799318,-3857.106430,-4868.791088,-4456.423754,25263.103874,18813.105680,22351.051551,14161.506493,-4993.938505,-0.004375,-0.017250,1.012125,192.000000,0.000000,0.000000,0.000000,0.000000,0.000000,0.000000,0.000000,0.000000,0.000000,1771317479.566590,0.000000
218.000000,23199.657881,14439.942174,8047.700888,8179.889104,7539.198701,10522.955420,-12105.950666,-12421.356132,-3910.728265,-4910.231222,-4500.009656,25225.865868,18792.184447,22311.399557,14175.789258,-5038.194959,-0.004375,-0.017250,1.012125,192.000000,0.000000,0.000000,0.000000,0.000000,0.000000,0.000000,0.000000,0.000000,0.000000,1771317479.566602,0.000000
220.000000,23242.573231,14483.349262,8084.715376,8223.475006,7574.961492,10562.719174,-12062.834151,-12377.099678,-3871.165677,-4869.931027,-4462.838705,25267.306002,18811.384596,22355.454845,14164.479275,-4999.280572,-0.005188,-0.015625,1.013062,192.000000,127.500000,104.000000,127.500000,72.000000,15.500000,88.000000,0.000000,0.000000,0.000000,1771317479.566613,0.000000
222.000000,23183.676384,14420.831432,8030.288879,8162.745316,7518.299820,10501.967132,-12122.580364,-12440.936260,-3886.700140,-4884.146736,-4479.602513,25242.562621,18792.966758,22336.791138,14167.206188,-5017.251374,-0.005188,-0.015625,1.013062,192.000000,0.000000,0.000000,0.000000,0.000000,0.000000,0.000000,0.000000,0.000000,0.000000,1771317479.566625,0.000000
224.000000,23218.567457,14461.221035,8071.796068,8200.519764,7556.454248,10542.781418,-12080.648491,-12402.513612,-3901.161719,-4903.123367,-4503.809453,25221.149650,18790.664529,22316.652217,14169.977804,-5036.563282,-0.005188,-0.015625,1.013062,192.000000,0.000000,0.000000,0.000000,0.000000,0.000000,0.000000,0.000000,0.000000,0.000000,1771317479.566636,0.000000
