Sample_index,EXG Channel 0,EXG Channel 1,EXG Channel 2,EXG Channel 3,EXG Channel 4,EXG Channel 5,EXG Channel 6,EXG Channel 7,EXG Channel 8,EXG Channel 9,EXG Channel 10,EXG Channel 11,EXG Channel 12,EXG Channel 13,EXG Channel 14,EXG Channel 15,Accel Channel 0,Accel Channel 1,Accel Channel 2,Not Used,Digital Channel 0 (D11),Digital Channel 1 (D12),Digital Channel 2 (D13),Digital Channel 3 (D17),Not Used,Digital Channel 4 (D18),Analog Channel 0,Analog Channel 1,Analog Channel 2,Timestamp,Marker Channel
90.000000,24815.823116,24632.114128,2632.901386,580.295990,15136.199014,-7526.033524,10502.213002,-1789.234792,18285.850380,17586.441944,-705.801035,14381.425307,15764.998289,23495.885550,-5275.883409,-5894.266772,-0.006500,-0.013500,1.005500,192.000000,0.000000,0.000000,0.000000,0.000000,0.000000,0.000000,0.000000,0.000000,0.000000,1770901893.986715,101.000000
92.000000,24820.405223,24641.144233,2631.940261,577.591428,15151.599366,-7532.180254,10498.435557,-1790.017103,18321.322599,17598.400128,-713.043000,14374.451563,15794.547295,23497.047841,-5281.896029,-5897.284257,-0.006500,-0.013500,1.005500,192.000000,0.000000,0.000000,0.000000,0.000000,0.000000,0.000000,0.000000,0.000000,0.000000,1770901893.986789,0.000000
94.000000,24823.556819,24643.938201,2639.271634,587.672065,15125.313714,-7532.515530,10508.493842,-1777.522478,18307.688034,17596.902561,-703.364695,14386.432098,15780.733917,23493.605673,-5283.058319,-5897.798347,-0.005250,-0.013750,1.004750,192.000000,127.500000,112.000000,127.500000,72.000000,15.500000,48.000000,0.000000,0.000000,0.000000,1770901893.986844,0.000000
96.000000,24829.122404,24647.089797,2630.353288,578.172574,15134.455578,-7547.200626,10502.637685,-1784.451519,18301.206029,17591.225218,-705.242241,14383.906351,15762.092562,23494.902074,-5293.004846,-5901.799309,-0.005250,-0.013750,1.004750,192.000000,0.000000,0.000000,0.000000,0.000000,0.000000,0.000000,0.000000,0.000000,0.000000,1770901893.986909,0.000000
98.000000,24830.865840,24648.229736,2635.248320,587.716769,15119.882240,-7543.914919,10508.627952,-1777.880106,18331.537346,17607.139660,-707.008029,14383.571074,15806.103147,23497.114896,-5306.684113,-5904.325057,-0.005250,-0.013750,1.004750,192.000000,0.000000,0.000000,0.000000,0.000000,0.000000,0.000000,0.000000,0.000000,0.000000,1770901893.986964,0.000000
100.000000,24829.412976,24647.872108,2629.481569,588.052045,15102.000845,-7550.463980,10506.884516,-1779.064748,18292.533552,17596.500229,-699.050808,14393.830525,15759.343297,23501.495838,-5307.600535,-5903.319228,-0.005250,-0.013750,1.004750,192.000000,0.000000,0.000000,0.000000,0.000000,0.000000,0.000000,0.000000,0.000000,0.000000,1770901893.987021,0.000000
102.000000,24822.372177,24647.447425,2615.936412,581.413577,15118.407025,-7558.600015,10497.385025,-1792.296981,18312.851287,17609.441889,-716.038134,14384.487496,15791.239237,23504.535676,-5319.022276,-5904.548574,-0.005250,-0.013750,1.004750,192.000000,0.000000,0.000000,0.000000,0.000000,0.000000,0.000000,0.000000,0.000000,0.000000,1770901893.987043,0.000000
104.000000,24817.298331,24641.434806,2625.793532,589.124929,15083.225379,-7551.246292,10505.677522,-1783.043359,18288.264369,17602.848125,-714.853491,14385.783897,15773.402545,23495.885550,-5316.027143,-5902.156937,-0.004625,-0.016875,1.002375,192.000000,127.500000,112.000000,127.500000,48.000000,15.500000,32.000000,0.000000,0.000000,0.000000,1770901893.987059,0.000000
106.000000,24818.527677,24647.425073,2619.110360,579.424272,15102.224362,-7558.354146,10499.463737,-1790.352379,18275.523874,17594.130945,-716.775741,14383.660481,15751.229614,23494.700908,-5316.854157,-5900.301743,-0.004625,-0.016875,1.002375,192.000000,0.000000,0.000000,0.000000,0.000000,0.000000,0.000000,0.000000,0.000000,0.000000,1770901893.987076,0.000000
108.000000,24822.126308,24652.744788,2631.403819,586.442719,15102.537287,-7547.178274,10505.386949,-1781.031702,18319.869735,17614.471032,-710.651363,14382.609949,15779.526923,23508.827211,-5317.815282,-5906.269658,-0.004625,-0.016875,1.002375,192.000000,0.000000,0.000000,0.000000,0.000000,0.000000,0.000000,0.000000,0.000000,0.000000,1770901893.987095,0.000000
110.000000,24827.468375,24653.795320,2631.269709,587.068568,15105.733586,-7541.143303,10508.292676,-1779.020045,18285.962139,17597.863686,-700.369561,14391.148316,15735.963373,23505.496801,-5305.052436,-5905.107368,-0.004625,-0.016875,1.002375,192.000000,0.000000,0.000000,0.000000,0.000000,0.000000,0.000000,0.000000,0.000000,0.000000,1770901893.987115,0.000000
112.000000,24827.289561,24656.008143,2632.476703,582.039426,15127.548889,-7541.791504,10502.324760,-1785.390292,18323.401311,17615.029826,-709.243203,14388.935493,15804.627932,23511.062385,-5306.795872,-5905.599106,-0.004625,-0.016875,1.002375,192.000000,0.000000,0.000000,0.000000,0.000000,0.000000,0.000000,0.000000,0.000000,0.000000,1770901893.987134,0.000000
114.000000,24826.775471,24651.023704,2640.098648,589.683722,15114.920153,-7528.827492,10509.454967,-1776.606056,18303.508258,17608.994855,-700.950706,14390.120136,15781.538580,23508.603693,-5294.167136,-5905.375589,-0.003313,-0.017438,1.004188,192.000000,127.500000,120.000000,127.500000,56.000000,15.500000,56.000000,0.000000,0.000000,0.000000,1770901893.987150,0.000000
116.000000,24827.267209,24647.335666,2628.788665,581.435929,15135.751979,-7537.567024,10499.866068,-1791.894649,18293.405270,17605.463279,-707.410360,14390.008377,15767.501684,23502.121687,-5293.764805,-5903.967429,-0.003313,-0.017438,1.004188,192.000000,0.000000,0.000000,0.000000,0.000000,0.000000,0.000000,0.000000,0.000000,0.000000,1770901893.987169,0.000000
118.000000,24827.267209,24646.486300,2636.477665,587.850879,15130.052284,-7535.264794,10504.515231,-1784.518574,18322.753110,17623.545840,-712.372448,14385.314511,15799.129403,23509.520115,-5296.111738,-5905.666161,-0.003313,-0.017438,1.004188,192.000000,0.000000,0.000000,0.000000,0.000000,0.000000,0.000000,0.000000,0.000000,0.000000,1770901893.987187,0.000000
120.000000,24824.361482,24642.842965,2630.487398,585.012208,15134.790854,-7536.851768,10503.442347,-1786.172603,18283.257578,17603.921009,-704.705799,14391.416537,15770.362707,23510.883571,-5292.602514,-5903.475690,-0.003313,-0.017438,1.004188,192.000000,0.000000,0.000000,0.000000,0.000000,0.000000,0.000000,0.000000,0.000000,0.000000,1770901893.987203,0.000000
122.000000,24825.210848,24640.250163,2627.939299,579.536030,15137.942450,-7541.143303,10497.429728,-1797.013199,18310.772575,17611.989988,-719.010916,14380.710051,15798.704719,23503.842772,-5302.169061,-5903.408635,-0.003313,-0.017438,1.004188,192.000000,0.000000,0.000000,0.000000,0.000000,0.000000,0.000000,0.000000,0.000000,0.000000,1770901893.987222,0.000000
124.000000,24823.981503,24633.142308,2635.449485,587.649713,15121.156290,-7533.119027,10507.040978,-1787.804280,18300.222552,17604.323340,-710.830177,14380.955920,15771.592053,23508.134306,-5301.811433,-5898.535955,-0.003656,-0.017719,1.005094,192.000000,127.500000,112.000000,127.500000,56.000000,15.500000,56.000000,0.000000,0.000000,0.000000,1770901893.987254,0.000000
126.000000,24827.446023,24635.288076,2624.631241,580.206583,15134.232060,-7541.344469,10499.843717,-1795.090949,18281.000052,17597.371947,-716.798093,14378.318414,15747.966259,23505.541504,-5299.285686,-5896.233725,-0.003656,-0.017719,1.005094,192.000000,0.000000,0.000000,0.000000,0.000000,0.000000,0.000000,0.000000,0.000000,0.000000,1770901893.987274,0.000000
128.000000,24828.965942,24638.551431,2633.571939,586.196850,15128.219441,-7538.684611,10506.437481,-1783.468042,18307.643331,17615.387453,-717.736866,14380.195961,15801.006949,23506.860257,-5304.895974,-5900.391150,-0.003656,-0.017719,1.005094,192.000000,0.000000,0.000000,0.000000,0.000000,0.000000,0.000000,0.000000,0.000000,0.000000,1770901893.987292,0.000000
130.000000,24831.961075,24632.717625,2632.297889,584.878097,15122.072711,-7548.698193,10507.130385,-1783.624504,18270.919415,17594.600331,-708.326782,14384.755717,15765.959414,23499.260664,-5296.402311,-5902.693379,-0.003656,-0.017719,1.005094,192.000000,0.000000,0.000000,0.000000,0.000000,0.000000,0.000000,0.000000,0.000000,0.000000,1770901893.987310,0.000000
132.000000,24839.761834,24640.652495,2629.973308,583.022902,15133.136825,-7553.235597,10503.464699,-1787.156080,18312.180735,17607.609046,-713.087703,14381.872342,15781.382117,23505.899132,-5308.852233,-5909.398903,-0.003656,-0.017719,1.005094,192.000000,0.000000,0.000000,0.000000,0.000000,0.000000,0.000000,0.000000,0.000000,0.000000,1770901893.987328,0.000000
134.000000,24835.269133,24638.864355,2635.002450,589.817833,15123.302057,-7543.937271,10512.315990,-1777.544830,18296.601569,17608.704282,-707.432712,14388.711976,15796.223676,23506.904961,-5302.929020,-5909.667124,-0.003656,-0.017719,1.005094,192.000000,0.000000,0.000000,0.000000,0.000000,0.000000,0.000000,0.000000,0.000000,0.000000,1770901893.987342,0.000000
136.000000,24836.118500,24636.964457,2630.196825,584.229897,15129.895822,-7551.067478,10506.124557,-1783.512745,18287.146781,17602.848125,-705.979849,14387.661444,15744.300573,23504.289806,-5308.494605,-5907.744873,-0.006000,-0.018000,1.012000,192.000000,127.500000,104.000000,127.500000,56.000000,15.500000,80.000000,0.000000,0.000000,0.000000,1770901893.987360,0.000000
138.000000,24837.057273,24633.991675,2633.259014,591.248344,15122.676208,-7542.976146,10509.656132,-1780.405853,18311.398424,17618.382587,-710.941936,14385.605083,15813.501574,23511.621179,-5310.707427,-5907.946039,-0.006000,-0.018000,1.012000,192.000000,0.000000,0.000000,0.000000,0.000000,0.000000,0.000000,0.000000,0.000000,0.000000,1770901893.987376,0.000000
140.000000,24836.856107,24629.029587,2631.604985,590.711902,15121.469214,-7542.618518,10508.985580,-1781.746958,18275.345060,17602.691663,-704.571689,14391.304778,15752.682478,23509.073080,-5305.320657,-5901.776958,-0.006000,-0.018000,1.012000,192.000000,0.000000,0.000000,0.000000,0.000000,0.000000,0.000000,0.000000,0.000000,0.000000,1770901893.987389,0.000000
142.000000,24831.558744,24623.441651,2624.161854,586.241554,15128.107682,-7544.361954,10500.715435,-1793.436920,18300.826049,17614.962770,-717.222776,14383.235798,15774.184856,23514.325740,-5312.830843,-5897.641885,-0.006000,-0.018000,1.012000,192.000000,0.000000,0.000000,0.000000,0.000000,0.000000,0.000000,0.000000,0.000000,0.000000,1770901893.987403,0.000000
144.000000,24825.702587,24613.785698,2630.375639,589.057873,15111.053301,-7541.188007,10506.571592,-1788.407777,18286.677395,17607.989026,-715.032305,14381.939397,15779.079888,23513.364615,-5308.248735,-5893.663274,-0.006000,-0.018000,1.012000,192.000000,0.000000,0.000000,0.000000,0.000000,0.000000,0.000000,0.000000,0.000000,0.000000,1770901893.987422,0.000000
146.000000,24830.441157,24613.629235,2623.021915,579.156051,15120.195165,-7553.660280,10498.547315,-1798.242545,18272.796961,17593.370985,-719.346192,14376.239702,15752.682478,23502.233446,-5308.069922,-5895.585525,-0.006000,-0.018000,1.012000,192.000000,0.000000,0.000000,127.500000,64.000000,15.500000,88.000000,0.000000,0.000000,0.000000,1770901893.987439,0.000000
148.000000,24835.515003,24613.361015,2633.728401,584.431062,15134.299115,-7551.045126,10506.593943,-1786.776100,18303.552962,17611.408843,-718.563881,14376.619682,15784.064327,23502.345205,-5308.293439,-5899.742949,-0.006000,-0.018000,1.012000,192.000000,0.000000,0.000000,0.000000,0.000000,0.000000,0.000000,0.000000,0.000000,0.000000,1770901893.987455,0.000000
150.000000,24835.224430,24612.466945,2632.677869,580.295990,15125.380769,-7549.838132,10508.270324,-1785.010312,18266.583176,17591.627549,-709.556128,14383.660481,15752.883643,23499.819458,-5298.972762,-5903.252173,-0.006000,-0.018000,1.012000,192.000000,0.000000,0.000000,0.000000,0.000000,0.000000,0.000000,0.000000,0.000000,0.000000,1770901893.987473,0.000000
152.000000,24840.633552,24619.753613,2630.509750,582.531164,15136.958973,-7550.575739,10505.185784,-1786.954914,18299.440241,17605.083299,-716.775741,14377.469048,15821.615257,23510.592998,-5305.968858,-5907.409597,-0.006000,-0.018000,1.012000,192.000000,0.000000,0.000000,0.000000,0.000000,0.000000,0.000000,0.000000,0.000000,0.000000,1770901893.987490,0.000000
154.000000,24844.947439,24620.513573,2642.333823,592.880022,15117.669418,-7542.037373,10515.378179,-1773.186239,18295.796906,17612.749948,-701.464796,14388.376699,15776.732955,23514.906885,-5303.867794,-5908.862461,-0.006000,-0.018000,1.012000,192.000000,0.000000,0.000000,0.000000,0.000000,0.000000,0.000000,0.000000,0.000000,0.000000,1770901893.987508,0.000000
156.000000,24847.473186,24621.608808,2633.169607,584.676931,15129.582897,-7550.106353,10509.611429,-1778.729472,18287.146781,17605.552686,-702.157700,14391.148316,15762.874873,23507.955492,-5308.114625,-5908.303667,-0.004000,-0.018000,1.010000,192.000000,127.500000,112.000000,127.500000,56.000000,15.500000,72.000000,0.000000,0.000000,0.000000,1770901893.987527,0.000000
158.000000,24847.026151,24621.027663,2640.389221,594.399940,15128.465310,-7534.907166,10514.238240,-1773.879143,18317.858078,17625.088111,-704.303468,14389.159011,15812.540449,23510.682405,-5311.377980,-5906.828452,-0.004000,-0.018000,1.010000,192.000000,0.000000,0.000000,0.000000,0.000000,0.000000,0.000000,0.000000,0.000000,0.000000,1770901893.987545,0.000000
160.000000,24842.220526,24611.304654,2637.259977,593.394112,15119.301095,-7533.767227,10512.204231,-1778.483603,18276.484999,17604.233933,-700.034285,14395.953941,15779.683385,23513.454022,-5303.085482,-5896.725463,-0.004000,-0.018000,1.010000,192.000000,0.000000,0.000000,0.000000,0.000000,0.000000,0.000000,0.000000,0.000000,0.000000,1770901893.987564,0.000000
162.000000,24840.298276,24609.225942,2630.397991,588.052045,15131.907479,-7535.845940,10505.476356,-1784.943257,18311.845459,17615.543916,-707.767988,14386.029766,15779.929254,23512.582304,-5306.281782,-5894.937324,-0.004000,-0.018000,1.010000,192.000000,0.000000,0.000000,0.000000,0.000000,0.000000,0.000000,0.000000,0.000000,0.000000,1770901893.987580,0.000000
164.000000,24831.894020,24596.619558,2635.069506,591.829490,15122.586801,-7532.046143,10511.332513,-1782.730434,18291.438316,17603.943360,-708.349134,14385.426269,15776.911769,23509.900094,-5298.570430,-5890.154051,-0.004000,-0.018000,1.010000,192.000000,0.000000,0.000000,0.000000,0.000000,0.000000,0.000000,0.000000,0.000000,0.000000,1770901893.987598,0.000000
166.000000,24823.132136,24592.886817,2621.010258,579.759548,15120.217516,-7549.547559,10500.022531,-1800.164795,18276.216778,17592.052232,-718.094494,14377.379641,15766.115876,23507.888437,-5297.050511,-5885.124908,-0.008000,-0.018000,1.010000,192.000000,127.500000,96.000000,127.500000,56.000000,15.500000,72.000000,0.000000,0.000000,0.000000,1770901893.987617,0.000000
168.000000,24815.532543,24587.544750,2622.887805,585.034559,15114.897801,-7543.400829,10500.871897,-1800.053036,18298.210895,17602.378738,-728.644517,14366.181417,15791.596865,23514.616312,-5300.984419,-5887.337731,-0.008000,-0.018000,1.010000,192.000000,0.000000,0.000000,0.000000,0.000000,0.000000,0.000000,0.000000,0.000000,0.000000,1770901893.987630,0.000000
170.000000,24815.063156,24585.801314,2619.512691,583.313475,15097.754013,-7547.334736,10501.408339,-1801.014161,18251.831025,17573.522636,-726.185826,14369.824752,15744.479387,23498.590112,-5295.999979,-5883.359120,-0.008000,-0.018000,1.010000,192.000000,0.000000,0.000000,0.000000,0.000000,0.000000,0.000000,0.000000,0.000000,0.000000,1770901893.987643,0.000000
172.000000,24825.255552,24602.296901,2618.462159,582.084129,15123.391464,-7551.581568,10499.776661,-1796.409702,18286.699746,17599.383604,-729.471532,14370.651766,15770.921501,23510.213019,-5310.036875,-5892.076301,-0.008000,-0.018000,1.010000,192.000000,0.000000,0.000000,0.000000,0.000000,0.000000,0.000000,0.000000,0.000000,0.000000,1770901893.987656,0.000000
174.000000,24834.397415,24609.762384,2634.287195,593.863498,15100.659740,-7545.479541,10514.797034,-1775.309655,18286.990319,17602.736366,-711.031343,14383.772240,15772.888455,23511.420013,-5308.338142,-5899.631190,-0.008000,-0.018000,1.010000,192.000000,0.000000,0.000000,0.000000,0.000000,0.000000,0.000000,0.000000,0.000000,0.000000,1770901893.987675,0.000000
176.000000,24843.628686,24621.787622,2629.883901,586.174498,15124.531403,-7553.749687,10509.767891,-1777.433071,18287.057374,17606.826735,-703.543508,14392.131793,15764.193626,23519.198420,-5314.060189,-5906.314362,-0.010000,-0.024000,1.012000,192.000000,127.500000,88.000000,127.500000,32.000000,15.500000,80.000000,0.000000,0.000000,0.000000,1770901893.987691,0.000000
178.000000,24850.781244,24626.548544,2638.802247,593.796443,15133.248583,-7549.748725,10515.132310,-1767.687710,18313.655950,17626.116291,-701.710665,14394.523429,15812.607504,23522.350016,-5317.032971,-5910.382379,-0.010000,-0.024000,1.012000,192.000000,0.000000,0.000000,0.000000,0.000000,0.000000,0.000000,0.000000,0.000000,0.000000,1770901893.987709,0.000000
180.000000,24854.469282,24625.430957,2637.617604,593.170594,15128.018275,-7546.015983,10516.004028,-1768.358263,18281.871770,17604.725671,-691.831194,14400.089014,15785.092507,23518.170240,-5304.337180,-5907.007266,-0.010000,-0.024000,1.012000,192.000000,0.000000,0.000000,0.000000,0.000000,0.000000,0.000000,0.000000,0.000000,0.000000,1770901893.987725,0.000000
182.000000,24855.452759,24626.861468,2633.504883,588.052045,15148.715991,-7550.396925,10509.790243,-1774.415585,18314.527668,17617.846145,-699.944878,14395.484554,15791.596865,23524.987522,-5313.814320,-5903.810966,-0.010000,-0.024000,1.012000,192.000000,0.000000,0.000000,0.000000,0.000000,0.000000,0.000000,0.000000,0.000000,0.000000,1770901893.987743,0.000000
184.000000,24851.965887,24616.154983,2639.383392,594.288182,15135.215537,-7536.225919,10514.819385,-1769.677016,18300.468421,17611.230029,-694.558107,14394.970464,15778.431687,23521.523001,-5304.180718,-5896.814870,-0.010000,-0.024000,1.012000,192.000000,0.000000,0.000000,0.000000,0.000000,0.000000,0.000000,0.000000,0.000000,0.000000,1770901893.987757,0.000000
186.000000,24845.483881,24607.616616,2628.699258,582.151184,15148.358363,-7546.574777,10503.487051,-1788.094853,18282.765839,17600.501192,-702.269459,14385.783897,15768.060478,23515.711548,-5300.157404,-5891.383397,-0.008000,-0.020000,1.006000,192.000000,127.500000,96.000000,127.500000,48.000000,15.500000,56.000000,0.000000,0.000000,0.000000,1770901893.987775,0.000000
188.000000,24836.744349,24601.089907,2633.191959,585.369836,15133.606211,-7544.719582,10505.856336,-1785.233830,18301.183677,17610.492421,-712.573613,14375.524446,15803.376234,23505.250931,-5296.424663,-5890.444623,-0.008000,-0.020000,1.006000,192.000000,0.000000,0.000000,0.000000,0.000000,0.000000,0.000000,0.000000,0.000000,0.000000,1770901893.987793,0.000000
190.000000,24827.982465,24591.188084,2625.726476,582.151184,15123.436168,-7551.201588,10503.710568,-1790.933524,18251.875729,17585.726689,-709.064389,14377.401993,15751.363725,23496.824324,-5290.657913,-5886.957751,-0.008000,-0.020000,1.006000,192.000000,0.000000,0.000000,0.000000,0.000000,0.000000,0.000000,0.000000,0.000000,0.000000,1770901893.987811,0.000000
192.000000,24829.547087,24591.366898,2618.260994,577.837298,15128.532365,-7556.700117,10496.669769,-1800.902403,18271.053525,17599.875343,-724.889424,14368.349536,15776.911769,23506.234408,-5300.000942,-5887.516545,-0.008000,-0.020000,1.006000,192.000000,0.000000,0.000000,0.000000,0.000000,0.000000,0.000000,0.000000,0.000000,0.000000,1770901893.987829,0.000000
194.000000,24832.229296,24593.467962,2629.347459,588.655542,15117.736473,-7547.088867,10508.493842,-1785.300885,18254.781455,17593.974482,-719.346192,14372.395202,15781.806801,23507.106126,-5300.537384,-5880.073414,-0.008000,-0.020000,1.006000,192.000000,0.000000,0.000000,0.000000,0.000000,0.000000,0.000000,0.000000,0.000000,0.000000,1770901893.987847,0.000000
196.000000,24843.025189,24605.493200,2627.134636,580.832431,15132.063941,-7558.644719,10503.129423,-1786.127899,18255.608470,17593.281578,-708.751465,14377.558455,15748.994440,23497.316062,-5304.515994,-5883.023844,-0.006000,-0.022000,1.008000,192.000000,127.500000,104.000000,127.500000,40.000000,15.500000,64.000000,0.000000,0.000000,0.000000,1770901893.987864,0.000000
198.000000,24854.513985,24622.078195,2639.897482,589.817833,15126.297191,-7554.554350,10513.388874,-1768.693539,18293.829953,17617.466166,-701.218927,14380.710051,15786.612426,23507.307292,-5313.054361,-5895.473766,-0.006000,-0.022000,1.008000,192.000000,0.000000,0.000000,0.000000,0.000000,0.000000,0.000000,0.000000,0.000000,0.000000,1770901893.987882,0.000000
200.000000,24853.038770,24626.459137,2640.903311,586.800347,15118.854060,-7559.516437,10515.109958,-1764.960797,18263.208063,17608.100785,-686.980866,14393.294083,15749.553233,23505.832077,-5307.958163,-5900.122929,-0.006000,-0.022000,1.008000,192.000000,0.000000,0.000000,0.000000,0.000000,0.000000,0.000000,0.000000,0.000000,0.000000,1770901893.987900,0.000000
202.000000,24856.346829,24635.690407,2638.534026,588.543783,15139.775293,-7562.600978,10512.494804,-1767.397138,18291.952406,17628.284410,-693.775796,14390.835391,15794.189667,23518.103184,-5315.177776,-5904.593278,-0.006000,-0.022000,1.008000,192.000000,0.000000,0.000000,0.000000,0.000000,0.000000,0.000000,0.000000,0.000000,0.000000,1770901893.987918,0.000000
204.000000,24853.575212,24634.550468,2647.251206,594.735216,15113.132013,-7551.693326,10518.775644,-1758.836419,18279.234264,17626.831547,-685.572706,14398.055005,15789.495801,23516.493859,-5310.662724,-5901.151109,-0.006000,-0.022000,1.008000,192.000000,0.000000,0.000000,0.000000,0.000000,0.000000,0.000000,0.000000,0.000000,0.000000,1770901893.987936,0.000000
206.000000,24839.292447,24624.335721,2631.850854,584.520469,15117.580011,-7558.622367,10506.795109,-1778.282437,18262.783380,17615.923895,-691.741787,14393.070566,15780.465696,23513.856353,-5309.098102,-5898.267734,-0.006000,-0.021000,1.006000,192.000000,127.500000,104.000000,127.500000,48.000000,15.500000,48.000000,0.000000,0.000000,0.000000,1770901893.987953,0.000000
208.000000,24828.653017,24613.048090,2635.293023,585.280429,15123.771444,-7552.252120,10507.532717,-1780.629370,18278.228435,17618.248477,-706.516290,14378.564284,15801.342225,23517.611446,-5312.696733,-5894.579696,-0.006000,-0.021000,1.006000,192.000000,0.000000,0.000000,0.000000,0.000000,0.000000,0.000000,0.000000,0.000000,0.000000,1770901893.987972,0.000000
210.000000,24815.845468,24603.995634,2630.174474,584.676931,15105.353606,-7556.186027,10505.454004,-1786.552583,18235.357789,17594.756793,-702.291811,14382.319377,15749.642640,23498.031318,-5301.342046,-5888.477670,-0.006000,-0.021000,1.006000,192.000000,0.000000,0.000000,0.000000,0.000000,0.000000,0.000000,0.000000,0.000000,0.000000,1770901894.467064,0.000000
212.000000,24808.312930,24603.772116,2624.608889,574.484536,15134.209708,-7565.037318,10496.401548,-1799.136615,18247.383028,17596.075546,-721.424904,14366.628452,15784.667824,23495.974957,-5300.067997,-5890.131699,-0.006000,-0.021000,1.006000,192.000000,0.000000,0.000000,0.000000,0.000000,0.000000,0.000000,0.000000,0.000000,0.000000,1770901894.467133,0.000000
214.000000,24803.663767,24596.776020,2627.268747,581.525335,15114.853098,-7560.477562,10501.944781,-1794.085120,18232.452063,17590.286444,-716.663982,14366.986080,15766.987594,23491.772830,-5291.440224,-5888.365911,-0.006000,-0.021000,1.006000,192.000000,0.000000,0.000000,0.000000,0.000000,0.000000,0.000000,0.000000,0.000000,0.000000,1770901894.467185,0.000000
216.000000,24806.189514,24596.641910,2616.450502,576.227972,15122.475043,-7569.686481,10495.485126,-1802.154100,18217.096414,17579.199979,-726.319936,14366.963728,15744.099408,23485.246120,-5296.357607,-5884.901391,-0.007000,-0.023500,1.007000,192.000000,127.500000,96.000000,127.500000,24.000000,15.500000,64.000000,0.000000,0.000000,0.000000,1770901894.467232,0.000000
218.000000,24809.452869,24596.619558,2624.921814,581.234763,15116.775348,-7564.009138,10501.587153,-1790.173565,18247.003048,17600.076509,-723.548320,14365.533217,15783.639644,23497.472524,-5305.901802,-5888.745891,-0.007000,-0.023500,1.007000,192.000000,0.000000,0.000000,0.000000,0.000000,0.000000,0.000000,0.000000,0.000000,0.000000,1770901894.467294,0.000000
220.000000,24814.929046,24600.821686,2624.497130,581.502984,15112.461461,-7575.989673,10505.454004,-1782.819841,18214.056577,17586.821924,-711.411323,14375.859723,15743.630021,23494.566798,-5308.919288,-5892.031597,-0.007000,-0.023500,1.007000,192.000000,0.000000,0.000000,0.000000,0.000000,0.000000,0.000000,0.000000,0.000000,0.000000,1770901894.467346,0.000000
222.000000,24826.328436,24614.277436,2628.408686,577.926705,15117.088272,-7578.090737,10504.403472,-1777.813050,18251.316935,17602.557552,-711.992468,14377.044365,15768.507513,23492.823361,-5316.608288,-5903.453339,-0.007000,-0.023500,1.007000,192.000000,0.000000,0.000000,0.000000,0.000000,0.000000,0.000000,0.000000,0.000000,0.000000,1770901894.467364,0.000000
224.000000,24837.213735,24623.754576,2642.266767,588.879059,15110.762729,-7558.085925,10517.322781,-1760.333986,18246.824234,17612.727596,-694.200479,14390.276598,15783.371423,23505.072117,-5313.434340,-5904.347408,-0.007000,-0.023500,1.007000,192.000000,0.000000,0.000000,0.000000,0.000000,0.000000,0.000000,0.000000,0.000000,0.000000,1770901894.467382,0.000000
226.000000,24843.986314,24632.985846,2634.175436,585.973333,15130.007581,-7563.003309,10510.572554,-1768.961760,18235.804824,17609.352482,-693.753444,14394.098746,15775.995347,23502.099335,-5311.467387,-5901.441682,-0.008500,-0.022750,1.008500,192.000000,127.500000,88.000000,127.500000,40.000000,15.500000,72.000000,0.000000,0.000000,0.000000,1770901894.467402,0.000000
228.000000,24848.836642,24635.757462,2642.579692,591.628324,15129.918174,-7551.827437,10515.087606,-1762.524457,18268.103095,17630.251364,-694.647514,14394.970464,15812.115766,23506.659091,-5315.043666,-5897.708940,-0.008500,-0.022750,1.008500,192.000000,0.000000,0.000000,0.000000,0.000000,0.000000,0.000000,0.000000,0.000000,0.000000,1770901894.467420,0.000000
230.000000,24844.232183,24623.419300,2641.640918,587.247382,15125.179604,-7551.223940,10512.070121,-1769.878181,18233.077912,17606.379700,-687.450252,14394.836354,15764.685364,23510.436536,-5297.676360,-5892.411577,-0.008500,-0.022750,1.008500,192.000000,0.000000,0.000000,0.000000,0.000000,0.000000,0.000000,0.000000,0.000000,0.000000,1770901894.467439,0.000000
232.000000,24841.952305,24623.776927,2634.086029,582.821737,15148.313659,-7557.258911,10503.799975,-1780.674074,18256.480188,17613.196983,-702.448273,14384.442792,15801.945722,23505.116821,-5303.778387,-5891.204583,-0.008500,-0.022750,1.008500,192.000000,0.000000,0.000000,0.000000,0.000000,0.000000,0.000000,0.000000,0.000000,0.000000,1770901894.467456,0.000000
234.000000,24827.490726,24614.523305,2636.298852,587.649713,15132.645086,-7547.222978,10507.242144,-1778.617713,18232.161490,17611.341788,-704.035247,14383.436964,15797.520077,23505.608559,-5294.658875,-5884.141431,-0.008500,-0.022750,1.008500,192.000000,0.000000,0.000000,0.000000,0.000000,0.000000,0.000000,0.000000,0.000000,0.000000,1770901894.467474,0.000000
236.000000,24821.433404,24611.394061,2624.497130,581.190059,15145.273822,-7556.297786,10497.362673,-1792.766368,18211.888458,17595.203828,-711.098398,14378.743098,15762.293728,23500.400603,-5294.569468,-5879.849896,-0.007250,-0.022375,1.010250,192.000000,127.500000,104.000000,127.500000,40.000000,15.500000,80.000000,0.000000,0.000000,0.000000,1770901894.467491,0.000000
238.000000,24814.861991,24606.923712,2632.186131,585.079263,15138.367133,-7546.038335,10501.363635,-1790.307676,18235.514252,17607.229067,-719.525006,14371.411725,15789.607559,23501.629949,-5292.848384,-5876.474783,-0.007250,-0.022375,1.010250,192.000000,0.000000,0.000000,0.000000,0.000000,0.000000,0.000000,0.000000,0.000000,0.000000,1770901894.467521,0.000000
240.000000,24821.813383,24609.494163,2629.883901,586.263905,15131.594554,-7546.798294,10502.324760,-1787.692522,18200.556123,17593.192171,-711.612488,14378.296063,15743.495911,23500.691176,-5283.930037,-5872.026786,-0.007250,-0.022375,1.010250,192.000000,0.000000,0.000000,0.000000,0.000000,0.000000,0.000000,0.000000,0.000000,0.000000,1770901894.467538,0.000000
242.000000,24830.664674,24615.126802,2626.173511,580.877135,15145.877319,-7554.800219,10498.502612,-1789.391254,18232.586173,17608.056081,-717.826273,14373.579845,15797.296559,23503.999234,-5295.463538,-5875.267789,-0.007250,-0.022375,1.010250,192.000000,0.000000,0.000000,0.000000,0.000000,0.000000,0.000000,0.000000,0.000000,0.000000,1770901894.467556,0.000000
244.000000,24828.474203,24614.411547,2637.014107,587.493251,15125.067845,-7557.035393,10509.745539,-1774.281475,18227.333513,17605.709148,-705.085779,14379.123077,15775.481257,23507.396699,-5294.189488,-5880.296931,-0.007250,-0.022375,1.010250,192.000000,0.000000,0.000000,0.000000,0.000000,0.000000,0.000000,0.000000,0.000000,0.000000,1770901894.467573,0.000000
246.000000,24837.906639,24624.939218,2630.107418,580.631266,15134.321467,-7561.751611,10505.029321,-1777.567181,18215.442385,17602.155221,-701.956535,14383.012281,15745.351105,23507.463754,-5298.302209,-5889.304684,-0.007250,-0.022375,1.010250,192.000000,0.000000,0.000000,127.500000,48.000000,15.500000,72.000000,0.000000,0.000000,0.000000,1770901894.467591,0.000000
248.000000,24845.439177,24633.634047,2636.991756,589.639019,15130.991057,-7552.967376,10512.226583,-1767.486545,18247.740656,17628.038541,-700.816596,14387.125002,15813.926257,23516.382100,-5308.427549,-5893.663274,-0.007250,-0.022375,1.010250,192.000000,0.000000,0.000000,0.000000,0.000000,0.000000,0.000000,0.000000,0.000000,0.000000,1770901894.467610,0.000000
250.000000,24845.908564,24635.668055,2634.622471,593.796443,15129.068807,-7548.273510,10514.171185,-1764.960797,18213.341321,17618.226125,-690.780662,14397.384453,15770.295652,23526.932124,-5305.141843,-5891.249286,-0.007250,-0.022375,1.010250,192.000000,0.000000,0.000000,0.000000,0.000000,0.000000,0.000000,0.000000,0.000000,0.000000,1770901894.467633,0.000000
252.000000,24841.527622,24636.025683,2629.280404,589.393150,15145.966726,-7546.574777,10506.482185,-1776.695463,18244.678467,17633.581773,-698.871994,14390.276598,15782.812629,23521.344187,-5313.233174,-5888.924705,-0.007250,-0.022375,1.010250,192.000000,0.000000,0.000000,0.000000,0.000000,0.000000,0.000000,0.000000,0.000000,0.000000,1770901894.467651,0.000000
254.000000,24836.789052,24630.638913,2639.271634,593.349408,15127.258316,-7539.712791,10514.327647,-1769.744071,18235.268382,17626.317457,-696.234488,14389.717804,15805.857278,23526.306275,-5304.203070,-5888.030635,-0.007250,-0.022375,1.010250,192.000000,0.000000,0.000000,0.000000,0.000000,0.000000,0.000000,0.000000,0.000000,0.000000,1770901894.467669,0.000000
0.000000,24832.564572,24623.620465,2630.666212,582.709978,15142.681020,-7548.608786,10503.554106,-1784.496222,18221.097376,17609.777166,-700.503671,14386.096822,15762.629004,23517.276170,-5299.419796,-5882.777975,-0.006625,-0.022187,1.009125,192.000000,127.500000,104.000000,127.500000,40.000000,15.500000,64.000000,0.000000,0.000000,0.000000,1770901894.467687,0.000000
2.000000,24822.908619,24614.120974,2630.129770,585.638056,15142.681020,-7540.293937,10503.375292,-1785.993789,18241.012781,17613.509907,-711.634840,14375.367984,15803.152717,23518.796089,-5300.492680,-5880.475745,-0.006625,-0.022187,1.009125,192.000000,0.000000,0.000000,0.000000,0.000000,0.000000,0.000000,0.000000,0.000000,0.000000,1770901894.467704,0.000000
4.000000,24808.201171,24604.867352,2623.714819,582.575867,15127.146557,-7545.993632,10501.676560,-1793.258106,18192.420088,17588.945340,-711.545433,14374.116287,15746.044009,23506.502629,-5289.585029,-5876.027748,-0.006625,-0.022187,1.009125,192.000000,0.000000,0.000000,0.000000,0.000000,0.000000,0.000000,0.000000,0.000000,0.000000,1770901894.467722,0.000000
6.000000,24808.290578,24607.370747,2621.054962,576.116213,15146.659630,-7551.358050,10494.233429,-1803.741074,18207.507516,17592.074584,-728.286890,14362.202807,15776.196513,23499.640644,-5292.647218,-5875.267789,-0.006625,-0.022187,1.009125,192.000000,0.000000,0.000000,0.000000,0.000000,0.000000,0.000000,0.000000,0.000000,0.000000,1770901894.467740,0.000000
8.000000,24804.289616,24604.509724,2631.068543,581.368873,15129.739360,-7541.612690,10502.861202,-1795.649743,18202.232504,17592.365157,-721.044924,14365.689679,15778.588149,23497.249007,-5285.069976,-5873.323187,-0.006625,-0.022187,1.009125,192.000000,0.000000,0.000000,0.000000,0.000000,0.000000,0.000000,0.000000,0.000000,0.000000,1770901894.467764,0.000000
10.000000,24811.866857,24613.964512,2620.719686,584.028731,15139.976459,-7551.559216,10498.301446,-1798.868394,18190.944873,17583.089183,-720.329669,14369.355365,15737.818567,23501.048803,-5290.747320,-5873.904332,-0.006313,-0.021094,1.007563,192.000000,127.500000,104.000000,127.500000,48.000000,15.500000,56.000000,0.000000,0.000000,0.000000,1770901894.467782,0.000000
12.000000,24818.818250,24621.586456,2627.916947,591.717731,15128.957049,-7545.837169,10505.968095,-1787.290190,18224.047807,17609.263076,-719.703820,14374.988005,15782.924388,23507.709623,-5304.180718,-5874.284312,-0.006313,-0.021094,1.007563,192.000000,0.000000,0.000000,0.000000,0.000000,0.000000,0.000000,0.000000,0.000000,0.000000,1770901894.467800,0.000000
14.000000,24821.075776,24626.548544,2626.486436,591.538917,15118.071749,-7550.575739,10511.578382,-1779.042396,18184.999309,17595.293235,-709.042038,14383.995758,15761.623175,23515.912714,-5305.030084,-5876.094803,-0.006313,-0.021094,1.007563,192.000000,0.000000,0.000000,0.000000,0.000000,0.000000,0.000000,0.000000,0.000000,0.000000,1770901894.467818,0.000000
16.000000,24832.117538,24640.160756,2628.185168,589.147280,15130.767540,-7561.505742,10508.493842,-1776.963684,18221.164432,17615.208640,-711.724247,14388.197886,15779.884551,23515.152754,-5315.825977,-5883.962617,-0.006313,-0.021094,1.007563,192.000000,0.000000,0.000000,0.000000,0.000000,0.000000,0.000000,0.000000,0.000000,0.000000,1770901894.467836,0.000000
18.000000,24835.470299,24642.507689,2638.511674,598.758530,15121.960953,-7550.642794,10517.389836,-1763.329120,18225.210097,17618.337884,-694.580459,14397.652673,15769.490989,23514.258684,-5306.907631,-5887.918876,-0.006313,-0.021094,1.007563,192.000000,0.000000,0.000000,0.000000,0.000000,0.000000,0.000000,0.000000,0.000000,0.000000,1770901894.467854,0.000000
20.000000,24833.771567,24639.400797,2632.096724,587.895583,15136.444883,-7555.247254,10508.516193,-1775.376710,18209.206248,17608.145488,-694.625162,14395.976293,15755.699963,23506.860257,-5311.221517,-5885.638998,-0.006313,-0.021094,1.007563,192.000000,0.000000,0.000000,0.000000,0.000000,0.000000,0.000000,0.000000,0.000000,0.000000,1770901894.467872,0.000000
22.000000,24831.692854,24635.645704,2634.242491,591.069530,15133.427397,-7551.380402,10509.074987,-1772.649798,18244.119673,17622.160032,-700.190747,14390.164839,15810.551144,23525.546315,-5312.942602,-5884.543763,-0.004000,-0.020000,1.012000,192.000000,127.500000,112.000000,127.500000,48.000000,15.500000,80.000000,0.000000,0.000000,0.000000,1770901894.467890,0.000000
24.000000,24821.701625,24624.916866,2629.481569,584.408711,15124.039665,-7555.046088,10505.766929,-1782.551620,18201.114917,17597.930741,-700.123692,14386.454449,15749.240309,23503.306330,-5301.811433,-5883.359120,-0.004000,-0.020000,1.012000,192.000000,0.000000,0.000000,0.000000,0.000000,0.000000,0.000000,0.000000,0.000000,0.000000,1770901894.467908,0.000000
26.000000,24811.688043,24618.300750,2620.339706,574.573943,15141.429322,-7557.571835,10494.971036,-1798.667228,18222.661999,17598.131907,-718.049791,14369.400068,15773.246082,23495.617330,-5304.985381,-5883.381472,-0.004000,-0.020000,1.012000,192.000000,0.000000,0.000000,0.000000,0.000000,0.000000,0.000000,0.000000,0.000000,0.000000,1770901894.467928,0.000000
28.000000,24796.533560,24607.013119,2626.285270,583.581696,15122.519746,-7545.278376,10500.581324,-1794.487452,18202.031338,17586.978386,-720.463779,14368.908330,15771.994385,23479.188797,-5292.446052,-5881.436870,-0.004000,-0.020000,1.012000,192.000000,0.000000,0.000000,0.000000,0.000000,0.000000,0.000000,0.000000,0.000000,0.000000,1770901894.467945,0.000000
30.000000,24792.376136,24605.873180,2616.539909,572.919914,15135.394351,-7557.057745,10492.400586,-1806.915022,18182.182989,17569.968709,-727.325765,14361.867531,15733.571736,23473.444399,-5287.998055,-5878.799364,-0.004000,-0.020000,1.012000,192.000000,0.000000,0.000000,0.000000,0.000000,0.000000,0.000000,0.000000,0.000000,0.000000,1770901894.467963,0.000000
32.000000,24792.353784,24610.745860,2626.419380,581.704149,15138.903575,-7545.479541,10497.832060,-1797.571993,18215.017702,17588.967692,-730.455009,14359.230025,15774.967167,23489.694117,-5290.322636,-5878.441737,-0.004000,-0.024000,1.012000,192.000000,127.500000,112.000000,127.500000,32.000000,15.500000,80.000000,0.000000,0.000000,0.000000,1770901894.467981,0.000000
34.000000,24796.578264,24614.277436,2627.715782,584.095786,15137.406008,-7550.821608,10502.414167,-1792.296981,18183.769963,17583.692680,-718.832102,14373.289272,15761.109085,23491.839885,-5281.270180,-5873.300835,-0.004000,-0.024000,1.012000,192.000000,0.000000,0.000000,0.000000,0.000000,0.000000,0.000000,0.000000,0.000000,0.000000,1770901894.467998,0.000000
36.000000,24805.094278,24623.732224,2627.581671,579.401920,15155.823845,-7558.354146,10501.408339,-1791.157042,18225.634781,17600.657654,-718.340363,14371.322318,15772.486123,23498.970091,-5291.954314,-5881.146298,-0.004000,-0.024000,1.012000,192.000000,0.000000,0.000000,0.000000,0.000000,0.000000,0.000000,0.000000,0.000000,0.000000,1770901894.468015,0.000000
38.000000,24808.000005,24627.174393,2638.377564,589.147280,15133.248583,-7554.755515,10511.511327,-1775.019082,18222.170260,17603.697491,-706.829215,14378.832505,15799.375272,23500.713527,-5296.357607,-5885.013149,-0.004000,-0.024000,1.012000,192.000000,0.000000,0.000000,0.000000,0.000000,0.000000,0.000000,0.000000,0.000000,0.000000,1770901894.468033,0.000000
40.000000,24812.224485,24634.282247,2631.761447,585.749815,15138.613002,-7563.204475,10506.660999,-1779.467080,18220.605638,17599.584770,-698.492014,14383.436964,15751.699001,23498.925388,-5302.414930,-5887.605952,-0.004000,-0.024000,1.012000,192.000000,0.000000,0.000000,0.000000,0.000000,0.000000,0.000000,0.000000,0.000000,0.000000,1770901894.468051,0.000000
42.000000,24812.492706,24638.663189,2639.092820,592.075359,15137.137787,-7552.788562,10511.444272,-1770.749899,18257.106037,17624.261096,-700.682485,14384.711013,15813.345112,23526.820365,-5314.864852,-5889.081167,-0.012000,-0.022000,1.010000,192.000000,127.500000,80.000000,127.500000,40.000000,15.500000,72.000000,0.000000,0.000000,0.000000,1770901894.468069,0.000000
44.000000,24808.044709,24632.225887,2634.510712,593.014132,15127.660647,-7554.643757,10510.438443,-1772.716853,18227.378217,17604.748023,-691.406511,14393.763470,15751.117855,23500.892341,-5308.606363,-5884.566114,-0.012000,-0.022000,1.010000,192.000000,0.000000,0.000000,0.000000,0.000000,0.000000,0.000000,0.000000,0.000000,0.000000,1770901894.468086,0.000000
46.000000,24804.177857,24631.309465,2629.392162,586.129795,15143.463331,-7560.566969,10503.554106,-1783.691559,18252.658040,17616.236820,-703.699971,14385.135697,15789.719318,23509.587170,-5314.864852,-5885.191963,-0.012000,-0.022000,1.010000,192.000000,0.000000,0.000000,0.000000,0.000000,0.000000,0.000000,0.000000,0.000000,0.000000,1770901894.468104,0.000000
48.000000,24783.502493,24616.423204,2632.119075,590.466033,15118.585839,-7552.162713,10507.398606,-1785.949085,18231.848566,17606.334997,-706.896270,14381.045327,15796.558952,23507.106126,-5307.824052,-5880.743966,-0.012000,-0.022000,1.010000,192.000000,0.000000,0.000000,0.000000,0.000000,0.000000,0.000000,0.000000,0.000000,0.000000,1770901894.468120,0.000000
50.000000,24763.587089,24604.465020,2620.004430,575.937399,15125.827804,-7563.472696,10494.971036,-1804.255164,18202.880705,17586.129020,-717.401590,14370.964691,15739.696114,23495.885550,-5306.259430,-5879.581675,-0.012000,-0.022000,1.010000,192.000000,0.000000,0.000000,0.000000,0.000000,0.000000,0.000000,0.000000,0.000000,0.000000,1770901894.468137,0.000000
52.000000,24750.377208,24598.653567,2626.173511,576.607952,15127.951220,-7557.862408,10496.088624,-1804.299868,18230.865089,17596.433174,-730.477361,14356.883092,15791.619216,23491.281091,-5301.900840,-5882.241533,-0.008000,-0.020000,1.008000,192.000000,127.500000,96.000000,127.500000,48.000000,15.500000,64.000000,0.000000,0.000000,0.000000,1770901894.468154,0.000000
54.000000,24741.995304,24595.971357,2620.227947,580.832431,15115.188374,-7541.836207,10496.334493,-1804.881013,18191.682481,17576.741287,-722.274270,14361.666365,15723.021713,23492.175161,-5290.747320,-5872.429117,-0.008000,-0.020000,1.008000,192.000000,0.000000,0.000000,0.000000,0.000000,0.000000,0.000000,0.000000,0.000000,0.000000,1770901894.468171,0.000000
56.000000,24740.274220,24599.458229,2614.863529,575.646827,15142.323392,-7539.332812,10488.109051,-1814.872243,18211.687292,17590.197037,-736.601739,14354.066772,15771.480295,23493.136286,-5297.631657,-5867.042347,-0.008000,-0.020000,1.008000,192.000000,0.000000,0.000000,0.000000,0.000000,0.000000,0.000000,0.000000,0.000000,0.000000,1770901894.468189,0.000000
58.000000,24742.285877,24604.286206,2623.670116,586.465071,15133.963839,-7532.984916,10500.134289,-1798.153138,18200.422013,17590.085279,-728.845683,14359.520597,15771.949681,23497.696042,-5292.468404,-5866.796478,-0.008000,-0.020000,1.008000,192.000000,0.000000,0.000000,0.000000,0.000000,0.000000,0.000000,0.000000,0.000000,0.000000,1770901894.468210,0.000000
60.000000,24745.817452,24616.512610,2621.524348,578.172574,15151.532310,-7553.123838,10495.529830,-1802.042341,18189.290844,17585.480819,-724.509445,14365.041478,15756.258757,23497.919559,-5288.288628,-5876.206562,-0.008000,-0.020000,1.008000,192.000000,0.000000,0.000000,0.000000,0.000000,0.000000,0.000000,0.000000,0.000000,0.000000,1770901894.468228,0.000000
62.000000,24747.918516,24625.900343,2632.566110,585.146318,15149.788874,-7558.242388,10503.576458,-1789.905344,18235.581307,17615.029826,-720.106151,14368.930682,15783.483181,23510.525943,-5295.396482,-5889.349388,-0.004000,-0.022000,1.012000,192.000000,127.500000,112.000000,127.500000,40.000000,15.500000,80.000000,0.000000,0.000000,0.000000,1770901894.468246,0.000000
64.000000,24742.509394,24620.021834,2632.074372,581.435929,15149.632412,-7563.740917,10505.051673,-1788.787757,18200.891399,17598.355424,-709.354962,14378.318414,15744.702905,23498.299539,-5286.008750,-5893.909144,-0.004000,-0.022000,1.012000,192.000000,0.000000,0.000000,0.000000,0.000000,0.000000,0.000000,0.000000,0.000000,0.000000,1770901894.468264,0.000000
66.000000,24747.605592,24629.923657,2629.101590,579.580734,15160.562415,-7570.491144,10500.424862,-1791.961705,18231.625048,17605.664445,-716.529872,14371.255263,15790.747498,23511.397661,-5298.078692,-5895.607876,-0.004000,-0.022000,1.012000,192.000000,0.000000,0.000000,0.000000,0.000000,0.000000,0.000000,0.000000,0.000000,0.000000,1770901894.468282,0.000000
68.000000,24748.969048,24621.921733,2635.673003,588.141452,15131.907479,-7563.025661,10509.566725,-1780.629370,18230.373350,17610.961808,-706.337477,14378.608987,15803.108013,23502.948702,-5303.107834,-5891.852783,-0.004000,-0.022000,1.012000,192.000000,0.000000,0.000000,0.000000,0.000000,0.000000,0.000000,0.000000,0.000000,0.000000,1770901894.468300,0.000000
70.000000,24744.655161,24617.809012,2620.563223,577.189097,15130.365208,-7580.303559,10498.547315,-1794.554507,18209.563876,17591.046404,-710.919584,14377.290234,15748.122722,23477.981803,-5309.321619,-5893.842088,-0.004000,-0.022000,1.012000,192.000000,0.000000,0.000000,0.000000,0.000000,0.000000,0.000000,0.000000,0.000000,0.000000,1770901894.468318,0.000000
72.000000,24739.380150,24614.947988,2625.413552,582.620571,15117.512955,-7580.236504,10501.385987,-1791.894649,18232.183842,17603.093994,-720.754352,14367.813095,15792.557990,23497.897207,-5318.910518,-5893.372702,-0.004000,-0.022000,1.012000,192.000000,0.000000,0.000000,127.500000,48.000000,15.500000,96.000000,0.000000,0.000000,0.000000,1770901894.468336,0.000000
74.000000,24738.597839,24612.154020,2622.977212,582.106481,15108.236981,-7577.397833,10499.597847,-1794.241583,18192.688309,17582.664500,-711.277212,14371.925816,15718.439605,23484.463809,-5310.953297,-5887.740062,-0.004000,-0.022000,1.012000,192.000000,0.000000,0.000000,0.000000,0.000000,0.000000,0.000000,0.000000,0.000000,0.000000,1770901894.947261,0.000000
76.000000,24737.144975,24613.740994,2612.673058,581.815908,15122.452691,-7572.636911,10492.624103,-1805.953897,18214.302446,17594.577979,-727.146951,14368.461295,15754.358858,23484.016774,-5315.825977,-5880.207524,-0.004000,-0.022000,1.012000,192.000000,0.000000,0.000000,0.000000,0.000000,0.000000,0.000000,0.000000,0.000000,0.000000,1770901894.947309,0.000000
78.000000,24730.864135,24609.248294,2621.926680,587.895583,15105.241848,-7553.481466,10500.111938,-1801.237679,18193.850600,17595.136773,-725.962308,14368.662461,15764.975937,23489.850579,-5309.209860,-5874.552533,-0.004000,-0.022000,1.012000,192.000000,0.000000,0.000000,0.000000,0.000000,0.000000,0.000000,0.000000,0.000000,0.000000,1770901894.947328,0.000000
80.000000,24731.758205,24608.734203,2614.237680,581.972370,15115.076615,-7550.642794,10492.668807,-1810.536004,18181.087754,17582.128058,-727.705744,14363.007470,15733.258812,23484.933196,-5308.204032,-5866.438850,-0.004000,-0.022000,1.012000,192.000000,0.000000,0.000000,0.000000,0.000000,0.000000,0.000000,0.000000,0.000000,0.000000,1770901894.947345,0.000000
82.000000,24740.117757,24616.087927,2623.804226,587.314437,15120.016351,-7542.082076,10498.793185,-1799.114263,18222.684350,17604.636264,-728.912738,14360.593481,15765.892359,23492.868065,-5308.785177,-5866.885885,-0.003000,-0.023000,1.010000,192.000000,127.500000,120.000000,127.500000,32.000000,15.500000,64.000000,0.000000,0.000000,0.000000,1770901894.947387,0.000000
84.000000,24745.571583,24618.121936,2626.218215,586.956809,15126.408950,-7544.049030,10502.257705,-1793.235754,18191.414260,17591.247569,-713.266517,14371.724650,15742.579489,23488.040088,-5299.375093,-5870.797440,-0.003000,-0.023000,1.010000,192.000000,0.000000,0.000000,0.000000,0.000000,0.000000,0.000000,0.000000,0.000000,0.000000,1770901894.947439,0.000000
86.000000,24756.322772,24629.364864,2627.648726,579.737196,15145.966726,-7556.968338,10497.876763,-1793.772196,18223.600772,17604.792727,-719.100323,14368.036612,15765.221806,23487.190722,-5304.180718,-5883.582638,-0.003000,-0.023000,1.010000,192.000000,0.000000,0.000000,0.000000,0.000000,0.000000,0.000000,0.000000,0.000000,0.000000,1770901894.947489,0.000000
88.000000,24760.636659,24629.029587,2638.891654,587.828527,15130.946354,-7546.530073,10508.113862,-1780.808184,18236.363618,17609.352482,-703.074122,14375.189170,15780.733917,23512.179972,-5295.329427,-5888.991760,-0.003000,-0.023000,1.010000,192.000000,0.000000,0.000000,0.000000,0.000000,0.000000,0.000000,0.000000,0.000000,0.000000,1770901894.947534,0.000000
90.000000,24760.793121,24629.454271,2629.258052,581.190059,15141.496377,-7559.695251,10501.318932,-1790.307676,18224.181917,17599.048328,-702.247107,14377.178476,15758.359821,23484.754382,-5301.565564,-5889.148222,-0.003000,-0.023000,1.010000,192.000000,0.000000,0.000000,0.000000,0.000000,0.000000,0.000000,0.000000,0.000000,0.000000,1770901894.947613,0.000000
92.000000,24761.441322,24631.644741,2635.203616,587.649713,15142.546909,-7562.377460,10507.845641,-1782.238696,18257.217796,17616.795613,-706.270421,14374.742135,15805.946685,23498.500705,-5311.065055,-5894.065606,-0.004500,-0.024500,1.007000,192.000000,127.500000,104.000000,127.500000,24.000000,15.500000,48.000000,0.000000,0.000000,0.000000,1770901894.947635,0.000000
94.000000,24751.718313,24618.188991,2627.872244,584.364007,15118.652894,-7567.294844,10506.728054,-1787.826632,18208.669807,17591.851067,-701.263631,14378.698394,15755.364687,23480.261681,-5306.304134,-5890.086995,-0.004500,-0.024500,1.007000,192.000000,0.000000,0.000000,0.000000,0.000000,0.000000,0.000000,0.000000,0.000000,0.000000,1770901894.947653,0.000000
96.000000,24748.074978,24620.491221,2617.411627,577.256152,15122.162118,-7577.464888,10496.446251,-1799.606001,18226.819423,17602.423442,-718.854453,14368.260129,15782.365594,23476.037201,-5321.972707,-5888.611780,-0.004500,-0.024500,1.007000,192.000000,0.000000,0.000000,0.000000,0.000000,0.000000,0.000000,0.000000,0.000000,0.000000,1770901894.947671,0.000000
98.000000,24743.694036,24615.015044,2623.580709,585.705112,15100.749147,-7569.306501,10504.358769,-1792.296981,18215.867068,17591.560494,-717.625107,14365.510865,15770.563873,23476.685402,-5318.642297,-5883.292065,-0.004500,-0.024500,1.007000,192.000000,0.000000,0.000000,0.000000,0.000000,0.000000,0.000000,0.000000,0.000000,0.000000,1770901894.947688,0.000000
100.000000,24741.481214,24612.042262,2611.846043,579.468975,15118.809357,-7569.798239,10494.747519,-1806.959725,18193.291806,17582.888017,-721.782532,14365.287347,15723.669913,23480.932233,-5319.402256,-5876.720652,-0.004500,-0.024500,1.007000,192.000000,0.000000,0.000000,0.000000,0.000000,0.000000,0.000000,0.000000,0.000000,0.000000,1770901894.947704,0.000000
102.000000,24740.430682,24612.489296,2618.685677,586.040388,15106.918228,-7552.274472,10495.641589,-1805.171586,18224.785414,17600.322378,-729.382125,14360.928757,15766.451152,23490.252911,-5321.793893,-5870.663329,-0.003250,-0.026250,1.006500,192.000000,127.500000,120.000000,127.500000,16.000000,15.500000,56.000000,0.000000,0.000000,0.000000,1770901894.947730,0.000000
104.000000,24742.643504,24612.198724,2618.149235,587.225030,15111.947371,-7544.563120,10496.781528,-1802.869356,18186.362766,17581.658671,-723.145988,14364.460333,15724.429873,23496.980786,-5309.433378,-5861.029728,-0.003250,-0.026250,1.006500,192.000000,0.000000,0.000000,0.000000,0.000000,0.000000,0.000000,0.000000,0.000000,0.000000,1770901894.947764,0.000000
106.000000,24755.428702,24621.742919,2617.813959,585.146318,15134.567336,-7544.853693,10493.428766,-1805.618621,18219.644513,17597.573113,-730.879692,14363.320394,15780.756269,23492.421030,-5312.517919,-5860.403879,-0.003250,-0.026250,1.006500,192.000000,0.000000,0.000000,0.000000,0.000000,0.000000,0.000000,0.000000,0.000000,0.000000,1770901894.947782,0.000000
108.000000,24760.301383,24621.921733,2633.884863,587.873231,15122.743264,-7539.019887,10504.403472,-1793.325161,18218.795147,17598.601293,-714.652325,14368.126019,15760.818513,23508.134306,-5301.051474,-5865.343614,-0.003250,-0.026250,1.006500,192.000000,0.000000,0.000000,0.000000,0.000000,0.000000,0.000000,0.000000,0.000000,0.000000,1770901894.947818,0.000000
110.000000,24766.626926,24628.783718,2627.715782,583.939324,15139.954107,-7552.676803,10499.709606,-1798.443711,18210.480298,17593.594503,-710.472549,14368.975385,15761.511417,23502.501667,-5294.323599,-5872.518524,-0.003250,-0.026250,1.006500,192.000000,0.000000,0.000000,0.000000,0.000000,0.000000,0.000000,0.000000,0.000000,0.000000,1770901894.947836,0.000000
112.000000,24777.713392,24635.355131,2637.148218,586.822699,15142.837482,-7545.770114,10504.761100,-1789.413606,18242.599755,17612.057044,-712.618317,14371.456429,15818.709531,23502.903998,-5304.337180,-5878.508792,-0.003250,-0.026250,1.006500,192.000000,0.000000,0.000000,127.500000,32.000000,15.500000,56.000000,0.000000,0.000000,0.000000,1770901894.947854,0.000000
114.000000,24781.043801,24633.276419,2636.947052,587.560306,15135.573165,-7547.982937,10506.348074,-1789.033626,18218.750443,17598.780107,-694.580459,14378.586635,15745.664030,23508.335472,-5295.664703,-5878.352330,-0.003250,-0.026250,1.006500,192.000000,0.000000,0.000000,0.000000,0.000000,0.000000,0.000000,0.000000,0.000000,0.000000,1770901894.947875,0.000000
116.000000,24780.686174,24638.283210,2627.961651,580.608914,15146.011430,-7554.353184,10498.279094,-1796.208536,18240.006952,17610.537125,-708.215023,14372.149333,15777.805838,23491.795181,-5305.186546,-5882.263885,-0.003250,-0.026250,1.006500,192.000000,0.000000,0.000000,0.000000,0.000000,0.000000,0.000000,0.000000,0.000000,0.000000,1770901894.947893,0.000000
118.000000,24778.316889,24636.517422,2632.454351,588.543783,15118.183508,-7549.726373,10504.515231,-1786.798452,18221.119728,17607.720805,-705.152834,14374.920949,15792.826211,23500.691176,-5303.778387,-5880.766318,-0.003250,-0.026250,1.006500,192.000000,0.000000,0.000000,0.000000,0.000000,0.000000,0.000000,0.000000,0.000000,0.000000,1770901894.947912,0.000000
120.000000,24762.871833,24626.056805,2618.797436,575.847992,15124.978438,-7561.371632,10492.959379,-1804.299868,18195.124649,17583.737383,-710.763122,14367.321356,15754.314155,23492.398678,-5310.215689,-5879.492269,-0.003250,-0.026250,1.006500,192.000000,0.000000,0.000000,0.000000,0.000000,0.000000,0.000000,0.000000,0.000000,0.000000,1770901894.947929,0.000000
122.000000,24758.714409,24624.670997,2621.770218,582.061777,15123.123243,-7549.212283,10495.641589,-1800.678885,18213.721301,17601.037634,-722.631898,14361.912234,15793.630873,23499.417126,-5316.340067,-5879.201696,-0.004625,-0.026125,1.003250,192.000000,127.500000,104.000000,127.500000,24.000000,15.500000,32.000000,0.000000,0.000000,0.000000,1770901894.947959,0.000000
124.000000,24754.177005,24616.981997,2617.501034,582.866440,15111.746205,-7554.152018,10496.625065,-1800.857699,18169.084867,17581.837485,-717.960384,14365.622624,15731.783596,23491.839885,-5310.103930,-5871.512696,-0.004625,-0.026125,1.003250,192.000000,0.000000,0.000000,0.000000,0.000000,0.000000,0.000000,0.000000,0.000000,0.000000,1770901894.947976,0.000000
126.000000,24759.161444,24629.186050,2618.171587,581.927667,15133.337990,-7559.069402,10493.004083,-1803.964591,18190.073155,17595.159125,-726.074067,14364.974423,15771.301481,23496.310234,-5316.362419,-5871.110364,-0.004625,-0.026125,1.003250,192.000000,0.000000,0.000000,0.000000,0.000000,0.000000,0.000000,0.000000,0.000000,0.000000,1770901894.947994,0.000000
128.000000,24761.866005,24632.091776,2625.793532,592.410635,15108.795775,-7543.937271,10502.861202,-1791.089987,18179.567835,17600.635302,-717.938032,14372.059926,15775.302443,23502.367556,-5308.181680,-5868.115231,-0.004625,-0.026125,1.003250,192.000000,0.000000,0.000000,0.000000,0.000000,0.000000,0.000000,0.000000,0.000000,0.000000,1770901894.948012,0.000000
130.000000,24768.504473,24635.601000,2620.026782,584.453414,15115.635409,-7553.593225,10497.608542,-1796.029722,18164.748629,17593.259226,-714.920546,14375.278577,15722.440567,23490.051745,-5312.272049,-5870.708033,-0.004625,-0.026125,1.003250,192.000000,0.000000,0.000000,0.000000,0.000000,0.000000,0.000000,0.000000,0.000000,0.000000,1770901894.948029,0.000000
132.000000,24777.713392,24639.959590,2631.113247,590.846013,15118.362322,-7548.877007,10505.386949,-1784.339760,18203.864182,17613.331093,-713.691200,14372.395202,15777.179989,23507.284940,-5315.133073,-5876.698300,-0.006313,-0.026063,0.999625,192.000000,127.500000,96.000000,127.500000,24.000000,15.500000,16.000000,0.000000,0.000000,0.000000,1770901894.948047,0.000000
134.000000,24781.066153,24644.005256,2631.873206,592.120062,15115.724816,-7552.654451,10508.158566,-1779.601190,18176.483295,17601.954055,-699.028456,14387.415574,15745.574623,23499.394774,-5311.467387,-5877.748832,-0.006313,-0.026063,0.999625,192.000000,0.000000,0.000000,0.000000,0.000000,0.000000,0.000000,0.000000,0.000000,0.000000,1770901894.948065,0.000000
136.000000,24787.436400,24653.527099,2628.811017,586.867402,15140.222328,-7555.716640,10504.716397,-1785.591458,18203.461850,17622.048273,-707.164491,14383.973406,15784.399603,23507.776679,-5317.703523,-5881.079242,-0.006313,-0.026063,0.999625,192.000000,0.000000,0.000000,0.000000,0.000000,0.000000,0.000000,0.000000,0.000000,0.000000,1770901894.948083,0.000000
138.000000,24785.067115,24642.217117,2634.778933,591.315400,15126.118377,-7549.145228,10511.444272,-1779.981170,18196.845734,17620.885983,-701.934183,14384.666310,15788.355862,23513.789298,-5310.707427,-5878.732309,-0.006313,-0.026063,0.999625,192.000000,0.000000,0.000000,0.000000,0.000000,0.000000,0.000000,0.000000,0.000000,0.000000,1770901894.948101,0.000000
140.000000,24779.434476,24630.728320,2624.385372,578.820774,15132.555679,-7567.004271,10500.715435,-1793.258106,18176.840922,17598.243665,-705.018724,14377.692566,15749.955565,23506.860257,-5315.803625,-5879.738138,-0.006313,-0.026063,0.999625,192.000000,0.000000,0.000000,0.000000,0.000000,0.000000,0.000000,0.000000,0.000000,0.000000,1770901894.948119,0.000000
142.000000,24768.437418,24618.837192,2626.128808,576.675007,15122.542098,-7569.865295,10502.056539,-1795.448577,18197.337472,17601.797593,-714.138235,14366.002603,15801.632798,23487.190722,-5319.715180,-5884.789632,-0.006156,-0.024031,1.001812,192.000000,127.500000,104.000000,127.500000,40.000000,15.500000,48.000000,0.000000,0.000000,0.000000,1770901894.948138,0.000000
144.000000,24757.462711,24607.974244,2619.512691,574.216315,15114.741339,-7566.847809,10500.357807,-1801.081216,18154.891509,17572.181531,-713.668849,14361.308737,15729.280201,23479.479370,-5313.635506,-5878.531143,-0.006156,-0.024031,1.001812,192.000000,0.000000,0.000000,0.000000,0.000000,0.000000,0.000000,0.000000,0.000000,0.000000,1770901894.948156,0.000000
146.000000,24752.455920,24603.079212,2609.789683,567.510792,15122.005656,-7571.385213,10488.734900,-1817.152121,18171.476504,17575.288424,-732.131390,14349.886996,15751.006097,23477.937100,-5324.587861,-5875.334844,-0.006156,-0.024031,1.001812,192.000000,0.000000,0.000000,0.000000,0.000000,0.000000,0.000000,0.000000,0.000000,0.000000,1770901894.948173,0.000000
148.000000,24752.701789,24603.503895,2619.713857,577.747891,15102.850211,-7563.964434,10496.490955,-1804.635144,18162.647565,17574.729630,-727.348116,14351.496321,15740.076094,23477.423010,-5315.960087,-5871.222123,-0.006156,-0.024031,1.001812,192.000000,0.000000,0.000000,0.000000,0.000000,0.000000,0.000000,0.000000,0.000000,0.000000,1770901894.948191,0.000000
150.000000,24762.849481,24611.259951,2613.567127,571.131774,15120.083406,-7569.641777,10489.651321,-1809.798397,18149.549442,17573.232063,-727.169302,14358.380658,15731.783596,23463.162597,-5309.165157,-5868.830486,-0.006156,-0.024031,1.001812,192.000000,0.000000,0.000000,0.000000,0.000000,0.000000,0.000000,0.000000,0.000000,0.000000,1770901894.948209,0.000000
152.000000,24773.913595,24622.927561,2624.765351,578.954885,15122.564450,-7559.427030,10497.496783,-1795.940315,18183.725260,17596.477878,-726.677564,14358.157141,15790.971016,23491.035222,-5314.127244,-5874.239609,-0.006156,-0.024031,1.001812,192.000000,0.000000,0.000000,0.000000,0.000000,0.000000,0.000000,0.000000,0.000000,0.000000,1770901894.948225,0.000000
154.000000,24781.982575,24627.576724,2628.945128,584.073434,15114.450766,-7562.779792,10502.972961,-1786.887859,18165.821512,17588.744174,-705.912793,14373.512789,15738.220899,23487.995385,-5305.432416,-5874.820754,-0.002000,-0.020000,1.008000,192.000000,127.500000,120.000000,127.500000,48.000000,15.500000,64.000000,0.000000,0.000000,0.000000,1770901894.948247,0.000000
156.000000,24787.481104,24638.417320,2625.458255,583.313475,15137.942450,-7563.875027,10500.782490,-1788.743054,18196.644568,17606.111480,-711.344267,14373.065755,15764.215978,23494.767963,-5317.211785,-5879.715786,-0.002000,-0.020000,1.008000,192.000000,0.000000,0.000000,0.000000,0.000000,0.000000,0.000000,0.000000,0.000000,0.000000,1770901894.948292,0.000000
158.000000,24791.258549,24641.926544,2636.343555,592.231821,15108.214630,-7555.046088,10510.438443,-1776.494298,18194.968187,17611.498250,-700.436616,14382.609949,15776.710603,23496.801972,-5319.134035,-5880.185173,-0.002000,-0.020000,1.008000,192.000000,0.000000,0.000000,0.000000,0.000000,0.000000,0.000000,0.000000,0.000000,0.000000,1770901894.948312,0.000000
160.000000,24793.001985,24642.015951,2628.229872,583.291123,15119.479909,-7565.104373,10501.833022,-1786.373769,18180.931292,17605.373872,-699.207270,14382.185266,15753.263623,23498.143077,-5321.369209,-5880.811021,-0.002000,-0.020000,1.008000,192.000000,0.000000,0.000000,0.000000,0.000000,0.000000,0.000000,0.000000,0.000000,0.000000,1770901894.948359,0.000000
162.000000,24790.118610,24636.807994,2631.515578,582.262943,15123.302057,-7557.907111,10501.765967,-1788.541888,18213.140155,17614.985122,-706.940974,14374.518618,15793.474411,23506.726147,-5323.962012,-5881.772146,-0.002000,-0.020000,1.008000,192.000000,0.000000,0.000000,0.000000,0.000000,0.000000,0.000000,0.000000,0.000000,0.000000,1770901894.948385,0.000000
164.000000,24781.557892,24626.660302,2630.755619,580.899487,15112.081481,-7560.589321,10500.983656,-1793.883955,18167.542597,17587.626587,-703.252936,14373.825714,15754.470617,23500.333548,-5311.489738,-5878.732309,-0.004000,-0.018000,1.008000,192.000000,127.500000,112.000000,127.500000,56.000000,15.500000,64.000000,0.000000,0.000000,0.000000,1770901894.948404,0.000000
166.000000,24766.381057,24612.198724,2618.618622,567.980178,15127.660647,-7567.741879,10487.304388,-1815.676906,18185.066364,17586.151372,-722.631898,14355.989022,15758.739800,23484.441457,-5315.781273,-5880.006359,-0.004000,-0.018000,1.008000,192.000000,0.000000,0.000000,0.000000,0.000000,0.000000,0.000000,0.000000,0.000000,0.000000,1770901894.948425,0.000000
168.000000,24756.501586,24600.039375,2622.641936,575.244495,15114.830746,-7548.698193,10492.892324,-1812.279440,18172.415277,17575.042555,-728.443352,14349.059981,15762.718411,23479.747591,-5306.885279,-5873.613760,-0.004000,-0.018000,1.008000,192.000000,0.000000,0.000000,0.000000,0.000000,0.000000,0.000000,0.000000,0.000000,0.000000,1770901894.948443,0.000000
170.000000,24754.177005,24598.340642,2612.851872,566.683777,15123.771444,-7566.020795,10484.197495,-1824.483493,18146.666067,17564.067848,-732.377259,14346.489530,15734.152881,23474.405524,-5306.885279,-5866.774126,-0.004000,-0.018000,1.008000,192.000000,0.000000,0.000000,0.000000,0.000000,0.000000,0.000000,0.000000,0.000000,0.000000,1770901894.948459,0.000000
172.000000,24759.429665,24602.900398,2619.870319,576.473841,15122.340932,-7557.057745,10488.600789,-1817.152121,18179.567835,17579.535255,-740.133314,14342.287402,15756.370515,23479.457018,-5310.483910,-5865.924760,-0.004000,-0.018000,1.008000,192.000000,0.000000,0.000000,0.000000,0.000000,0.000000,0.000000,0.000000,0.000000,0.000000,1770901894.948476,0.000000
174.000000,24772.192511,24608.734203,2623.066619,577.211449,15112.640275,-7558.510608,10493.138193,-1808.524347,18156.344373,17572.941491,-724.576500,14353.351516,15732.051817,23485.804914,-5302.996076,-5867.198809,-0.004000,-0.020000,1.014000,192.000000,127.500000,112.000000,127.500000,48.000000,15.500000,88.000000,0.000000,0.000000,0.000000,1770901894.948492,0.000000
176.000000,24790.073906,24621.273532,2622.865453,575.356254,15127.079502,-7568.926521,10492.378234,-1805.484510,18199.751461,17586.129020,-725.179997,14352.211577,15774.296614,23488.174199,-5309.031047,-5877.927646,-0.004000,-0.020000,1.014000,192.000000,0.000000,0.000000,0.000000,0.000000,0.000000,0.000000,0.000000,0.000000,0.000000,1770901894.948509,0.000000
178.000000,24795.997118,24625.855640,2630.755619,585.794519,15099.877429,-7566.780754,10504.559935,-1788.184260,18200.578475,17593.706261,-711.634840,14366.829618,15777.068231,23493.829190,-5313.389637,-5882.688568,-0.004000,-0.020000,1.014000,192.000000,0.000000,0.000000,0.000000,0.000000,0.000000,0.000000,0.000000,0.000000,0.000000,1770901894.948526,0.000000
180.000000,24806.368328,24633.678750,2628.296927,580.675969,15109.063996,-7572.256931,10501.207173,-1787.491356,18197.605693,17588.274787,-703.811729,14373.401031,15734.175233,23498.076021,-5322.218576,-5882.733271,-0.004000,-0.020000,1.014000,192.000000,0.000000,0.000000,0.000000,0.000000,0.000000,0.000000,0.000000,0.000000,0.000000,1770901894.948544,0.000000
182.000000,24809.765793,24638.193803,2634.510712,588.990818,15114.048435,-7566.311367,10506.079853,-1780.316446,18238.911717,17615.633323,-702.671790,14377.066717,15784.578417,23503.306330,-5327.359477,-5884.320245,-0.004000,-0.020000,1.014000,192.000000,0.000000,0.000000,0.000000,0.000000,0.000000,0.000000,0.000000,0.000000,0.000000,1770901894.948561,0.000000
184.000000,24807.888247,24633.634047,2634.175436,587.225030,15103.945446,-7564.992614,10505.744577,-1782.104585,18206.032301,17596.768450,-694.602811,14383.660481,15767.836960,23500.445306,-5320.050457,-5881.123946,-0.004000,-0.020000,1.016000,192.000000,127.500000,112.000000,127.500000,48.000000,15.500000,96.000000,0.000000,0.000000,0.000000,1770901894.948578,0.000000
186.000000,24803.328491,24628.359035,2624.340668,575.065681,15124.553755,-7569.373556,10494.144022,-1798.466062,18236.028342,17603.943360,-706.650401,14371.389374,15773.357841,23499.238312,-5329.035858,-5880.699263,-0.004000,-0.020000,1.016000,192.000000,0.000000,0.000000,0.000000,0.000000,0.000000,0.000000,0.000000,0.000000,0.000000,1770901894.948601,0.000000
188.000000,24793.024336,24617.496087,2629.682735,581.480632,15095.876467,-7560.298748,10499.888420,-1794.286286,18223.131385,17589.548837,-710.964288,14364.616795,15781.873856,23497.003138,-5318.888166,-5878.709957,-0.004000,-0.020000,1.016000,192.000000,0.000000,0.000000,0.000000,0.000000,0.000000,0.000000,0.000000,0.000000,0.000000,1770901894.948618,0.000000
190.000000,24788.308118,24612.981035,2616.472854,575.825641,15105.018330,-7561.393984,10489.763080,-1809.083141,18201.360786,17577.098915,-715.725209,14363.320394,15729.481367,23470.315155,-5322.084465,-5871.624454,-0.004000,-0.020000,1.016000,192.000000,0.000000,0.000000,0.000000,0.000000,0.000000,0.000000,0.000000,0.000000,0.000000,1770901894.948635,0.000000
192.000000,24784.105990,24607.840134,2620.160892,582.240591,15111.410929,-7543.490236,10491.014778,-1807.160891,18225.970057,17593.236875,-728.197483,14357.978327,15770.697984,23490.454077,-5319.670477,-5866.572960,-0.004000,-0.020000,1.016000,192.000000,0.000000,0.000000,0.000000,0.000000,0.000000,0.000000,0.000000,0.000000,0.000000,1770901894.948653,0.000000
194.000000,24777.221653,24596.038413,2621.770218,582.620571,15119.993999,-7532.671992,10491.394757,-1809.977211,18188.620292,17569.812247,-720.575538,14361.331089,15742.981820,23490.387021,-5305.343009,-5853.340727,-0.006000,-0.016000,1.014000,192.000000,127.500000,104.000000,127.500000,64.000000,15.500000,88.000000,0.000000,0.000000,0.000000,1770901895.429084,0.000000
196.000000,24782.831941,24605.515552,2618.059828,578.127870,15145.027953,-7529.945079,10485.471545,-1815.006353,18216.649379,17580.049345,-731.527893,14352.680964,15744.837015,23489.425896,-5300.067997,-5849.876207,-0.006000,-0.016000,1.014000,192.000000,0.000000,0.000000,0.000000,0.000000,0.000000,0.000000,0.000000,0.000000,0.000000,1770901895.429154,0.000000
198.000000,24793.381964,24613.450422,2628.520444,591.583620,15124.844328,-7514.768245,10498.592019,-1796.677923,18217.744615,17587.626587,-724.844721,14362.158103,15762.181969,23494.119763,-5295.240020,-5849.272710,-0.006000,-0.016000,1.014000,192.000000,0.000000,0.000000,0.000000,0.000000,0.000000,0.000000,0.000000,0.000000,0.000000,1770901895.429206,0.000000
200.000000,24807.597674,24624.670997,2623.893633,585.280429,15137.093084,-7522.770169,10494.635760,-1798.264897,18214.637722,17586.509000,-714.361753,14372.328147,15747.295707,23501.048803,-5298.101043,-5851.798457,-0.006000,-0.016000,1.014000,192.000000,0.000000,0.000000,0.000000,0.000000,0.000000,0.000000,0.000000,0.000000,0.000000,1770901895.429258,0.000000
202.000000,24818.840601,24632.292942,2631.806151,594.288182,15127.235964,-7528.671030,10500.983656,-1787.401949,18259.743543,17610.447718,-713.825311,14371.501132,15803.085661,23514.303388,-5311.601497,-5859.286292,-0.006000,-0.016000,1.014000,192.000000,0.000000,0.000000,0.000000,0.000000,0.000000,0.000000,0.000000,0.000000,0.000000,1770901895.429305,0.000000
204.000000,24825.456718,24633.119957,2635.047154,592.723559,15098.759842,-7540.070419,10504.582286,-1779.958818,18226.506499,17594.712090,-692.166471,14386.119173,15746.021658,23502.971053,-5313.143767,-5864.606007,-0.006000,-0.016000,1.014000,192.000000,0.000000,0.000000,127.500000,32.000000,15.500000,72.000000,0.000000,0.000000,0.000000,1770901895.429357,0.000000
206.000000,24822.506287,24632.494108,2627.849892,583.224068,15115.501298,-7556.744821,10496.647417,-1790.710007,18253.417999,17606.402052,-700.637782,14379.480705,15778.543446,23494.879722,-5327.180663,-5871.378585,-0.006000,-0.016000,1.014000,192.000000,0.000000,0.000000,0.000000,0.000000,0.000000,0.000000,0.000000,0.000000,0.000000,1770901895.429378,0.000000
208.000000,24811.620988,24622.011140,2630.576805,588.879059,15104.548944,-7546.463018,10502.570629,-1786.753748,18243.315010,17604.479802,-704.035247,14378.787801,15799.263513,23500.177085,-5321.928003,-5870.864495,-0.006000,-0.016000,1.014000,192.000000,0.000000,0.000000,0.000000,0.000000,0.000000,0.000000,0.000000,0.000000,0.000000,1770901895.429397,0.000000
210.000000,24806.323624,24617.652549,2621.122017,573.769280,15111.813261,-7570.044109,10492.199420,-1800.924754,18224.316028,17582.172761,-709.511424,14371.232911,15731.202451,23490.811704,-5325.213709,-5873.144373,-0.006000,-0.016000,1.014000,192.000000,0.000000,0.000000,0.000000,0.000000,0.000000,0.000000,0.000000,0.000000,0.000000,1770901895.429415,0.000000
212.000000,24805.965996,24614.947988,2625.055924,582.061777,15113.534345,-7570.960530,10495.283961,-1795.180356,18261.688144,17599.651825,-717.021610,14366.829618,15773.156675,23484.910844,-5327.851215,-5878.777013,-0.006000,-0.016000,1.014000,192.000000,0.000000,0.000000,0.000000,0.000000,0.000000,0.000000,0.000000,0.000000,0.000000,1770901895.429433,0.000000
214.000000,24804.468430,24611.259951,2624.385372,582.553516,15098.916304,-7569.820591,10499.955475,-1791.849946,18227.847603,17577.255377,-709.064389,14376.373813,15747.474521,23491.281091,-5321.123340,-5875.178382,-0.007000,-0.020000,1.014000,192.000000,127.500000,96.000000,127.500000,32.000000,15.500000,88.000000,0.000000,0.000000,0.000000,1770901895.429452,0.000000
216.000000,24804.289616,24608.756555,2619.892671,579.044292,15116.663589,-7574.626216,10494.211077,-1799.047208,18259.765894,17581.815133,-715.769913,14367.813095,15762.517245,23481.178103,-5333.305041,-5874.016091,-0.007000,-0.020000,1.014000,192.000000,0.000000,0.000000,0.000000,0.000000,0.000000,0.000000,0.000000,0.000000,0.000000,1770901895.429472,0.000000
218.000000,24800.400412,24601.581645,2629.302756,585.258077,15099.810374,-7558.085925,10501.721263,-1792.229926,18254.535586,17579.356441,-709.064389,14369.198903,15758.583338,23476.327774,-5322.039762,-5868.182286,-0.007000,-0.020000,1.014000,192.000000,0.000000,0.000000,0.000000,0.000000,0.000000,0.000000,0.000000,0.000000,0.000000,1770901895.429510,0.000000
220.000000,24797.338223,24601.872218,2621.926680,579.066644,15120.530441,-7546.463018,10492.199420,-1807.451464,18234.351961,17566.683002,-712.595965,14364.370926,15728.654352,23474.472579,-5315.825977,-5859.845085,-0.007000,-0.020000,1.014000,192.000000,0.000000,0.000000,0.000000,0.000000,0.000000,0.000000,0.000000,0.000000,0.000000,1770901895.429531,0.000000
222.000000,24799.528694,24603.548599,2627.805189,586.085091,15136.131959,-7522.569003,10493.629932,-1804.053998,18265.577348,17590.554665,-722.207215,14360.571129,15784.511362,23492.756306,-5310.662724,-5853.899521,-0.007000,-0.020000,1.014000,192.000000,0.000000,0.000000,0.000000,0.000000,0.000000,0.000000,0.000000,0.000000,0.000000,1770901895.429551,0.000000
224.000000,24805.094278,24605.694366,2635.382430,587.537955,15140.155273,-7514.678838,10497.630894,-1796.700275,18236.005990,17578.909407,-709.801997,14368.640109,15763.679536,23497.807801,-5294.480061,-5848.646861,-0.006500,-0.024000,1.013000,192.000000,127.500000,104.000000,127.500000,16.000000,15.500000,80.000000,0.000000,0.000000,0.000000,1770901895.429571,0.000000
226.000000,24815.353729,24618.345454,2635.360078,583.402882,15165.904482,-7516.221108,10492.199420,-1799.471891,18279.949520,17597.550761,-711.858357,14368.461295,15793.206190,23507.039071,-5297.162270,-5853.430134,-0.006500,-0.024000,1.013000,192.000000,0.000000,0.000000,0.000000,0.000000,0.000000,0.000000,0.000000,0.000000,0.000000,1770901895.429589,0.000000
228.000000,24816.717186,24622.301712,2646.737116,590.667199,15145.139712,-7517.048123,10501.542449,-1785.166774,18285.157476,17601.104689,-698.044979,14377.469048,15798.615312,23514.102222,-5293.429529,-5859.845085,-0.006500,-0.024000,1.013000,192.000000,0.000000,0.000000,0.000000,0.000000,0.000000,0.000000,0.000000,0.000000,0.000000,1770901895.429609,0.000000
230.000000,24813.230313,24619.597151,2631.202654,579.916010,15148.894805,-7535.443608,10492.400586,-1797.437882,18271.880540,17590.577017,-697.575593,14378.877208,15762.181969,23503.418088,-5295.083558,-5864.516600,-0.006500,-0.024000,1.013000,192.000000,0.000000,0.000000,0.000000,0.000000,0.000000,0.000000,0.000000,0.000000,0.000000,1770901895.429628,0.000000
232.000000,24812.380947,24622.346416,2634.980099,583.604048,15136.958973,-7532.850806,10496.043920,-1793.928658,18298.322654,17607.072605,-710.673715,14368.595406,15811.132289,23511.755289,-5306.929983,-5867.511733,-0.006500,-0.024000,1.013000,192.000000,0.000000,0.000000,0.000000,0.000000,0.000000,0.000000,0.000000,0.000000,0.000000,1770901895.429648,0.000000
234.000000,24809.385813,24616.736128,2633.549587,588.163804,15110.405101,-7542.707925,10498.726129,-1793.101644,18255.004973,17586.553703,-702.515328,14376.820848,15757.622213,23497.181952,-5307.913459,-5860.493286,-0.008250,-0.024000,1.011500,192.000000,127.500000,88.000000,127.500000,32.000000,15.500000,72.000000,0.000000,0.000000,0.000000,1770901895.429667,0.000000
236.000000,24815.778412,24622.212305,2625.190035,583.827565,15117.445900,-7551.693326,10494.591057,-1798.287248,18280.441258,17592.946302,-713.490035,14371.389374,15796.648359,23509.520115,-5322.285631,-5865.745946,-0.008250,-0.024000,1.011500,192.000000,0.000000,0.000000,0.000000,0.000000,0.000000,0.000000,0.000000,0.000000,0.000000,1770901895.429686,0.000000
238.000000,24816.270151,24617.943122,2635.270671,592.745911,15092.166077,-7549.480504,10506.437481,-1785.926734,18280.687127,17602.401090,-703.074122,14376.306757,15768.462809,23507.664920,-5325.504282,-5866.885885,-0.008250,-0.024000,1.011500,192.000000,0.000000,0.000000,0.000000,0.000000,0.000000,0.000000,0.000000,0.000000,0.000000,1770901895.429705,0.000000
240.000000,24815.130212,24611.081137,2623.781875,585.839222,15095.094156,-7561.975129,10498.323798,-1796.387350,18255.273194,17587.291311,-704.772854,14380.575941,15726.665047,23502.479315,-5325.794855,-5867.534085,-0.008250,-0.024000,1.011500,192.000000,0.000000,0.000000,0.000000,0.000000,0.000000,0.000000,0.000000,0.000000,0.000000,1770901895.429724,0.000000
242.000000,24814.482011,24609.784735,2629.079238,585.705112,15101.620865,-7553.190893,10501.006007,-1790.553545,18282.765839,17600.344729,-713.400628,14373.199865,15785.919522,23502.144039,-5327.247718,-5867.779954,-0.008250,-0.024000,1.011500,192.000000,0.000000,0.000000,0.000000,0.000000,0.000000,0.000000,0.000000,0.000000,0.000000,1770901895.429743,0.000000
244.000000,24816.851296,24608.913017,2631.314413,589.214336,15096.457612,-7545.099562,10502.168298,-1788.675998,18249.819368,17583.625625,-702.157700,14377.714917,15756.661088,23497.651338,-5313.389637,-5860.515637,-0.007125,-0.026000,1.012750,192.000000,127.500000,104.000000,127.500000,16.000000,15.500000,88.000000,0.000000,0.000000,0.000000,1770901895.429762,0.000000
246.000000,24822.416880,24619.150116,2625.793532,587.850879,15116.596534,-7538.684611,10496.043920,-1793.749844,18278.027270,17599.495363,-709.489073,14377.357289,15787.730013,23510.011853,-5320.631602,-5852.178437,-0.007125,-0.026000,1.012750,192.000000,0.000000,0.000000,0.000000,0.000000,0.000000,0.000000,0.000000,0.000000,0.000000,1770901895.429781,0.000000
248.000000,24823.757985,24616.557314,2636.120038,593.461167,15109.332217,-7522.032562,10503.867031,-1784.786795,18274.003956,17604.233933,-702.940011,14382.185266,15765.892359,23508.335472,-5315.647163,-5848.468047,-0.007125,-0.026000,1.012750,192.000000,0.000000,0.000000,0.000000,0.000000,0.000000,0.000000,0.000000,0.000000,0.000000,1770901895.429802,0.000000
250.000000,24825.322607,24615.730299,2628.475741,584.095786,15117.423548,-7538.841073,10494.479298,-1796.186184,18259.944708,17591.336976,-702.358866,14381.872342,15756.124646,23510.861219,-5310.238041,-5851.284367,-0.007125,-0.026000,1.012750,192.000000,0.000000,0.000000,0.000000,0.000000,0.000000,0.000000,0.000000,0.000000,0.000000,1770901895.429830,0.000000
252.000000,24825.881401,24613.472773,2633.549587,587.873231,15122.989133,-7538.394038,10495.373368,-1792.833423,18286.722098,17605.239762,-711.791302,14375.569150,15789.071118,23509.900094,-5317.703523,-5854.033632,-0.007125,-0.026000,1.012750,192.000000,0.000000,0.000000,0.000000,0.000000,0.000000,0.000000,0.000000,0.000000,0.000000,1770901895.429850,0.000000
254.000000,24825.680235,24611.170544,2635.762410,585.638056,15114.651932,-7542.640870,10498.144984,-1789.368902,18256.614298,17587.246607,-699.386084,14379.190133,15757.353992,23515.935065,-5302.034950,-5854.927701,-0.009562,-0.026000,1.012375,192.000000,127.500000,80.000000,127.500000,24.000000,15.500000,80.000000,0.000000,0.000000,0.000000,1770901895.429868,0.000000
0.000000,24830.239991,24620.871201,2627.984003,581.234763,15120.217516,-7556.990690,10493.696987,-1794.085120,18287.549113,17596.366119,-706.002200,14375.792667,15778.878722,23500.758231,-5317.614116,-5860.113306,-0.009562,-0.026000,1.012375,192.000000,0.000000,0.000000,0.000000,0.000000,0.000000,0.000000,0.000000,0.000000,0.000000,1770901895.429886,0.000000
2.000000,24829.323569,24616.356148,2634.175436,588.230859,15102.693749,-7556.521303,10501.877725,-1786.016141,18271.858188,17597.640168,-704.281116,14376.954958,15785.964225,23507.486106,-5316.340067,-5861.365004,-0.009562,-0.026000,1.012375,192.000000,0.000000,0.000000,0.000000,0.000000,0.000000,0.000000,0.000000,0.000000,0.000000,1770901895.429905,0.000000
4.000000,24826.328436,24615.059747,2626.799360,579.401920,15109.443976,-7570.535847,10494.680464,-1796.141481,18253.216833,17583.938549,-706.248070,14377.245531,15753.107161,23504.155696,-5318.329372,-5862.527294,-0.009562,-0.026000,1.012375,192.000000,0.000000,0.000000,0.000000,0.000000,0.000000,0.000000,0.000000,0.000000,0.000000,1770901895.429924,0.000000
6.000000,24832.519869,24621.318236,2634.354250,582.888792,15110.092176,-7567.048975,10499.731958,-1785.993789,18283.615206,17601.685834,-706.002200,14370.741173,15780.197475,23502.389908,-5325.034896,-5867.668196,-0.009562,-0.026000,1.012375,192.000000,0.000000,0.000000,0.000000,0.000000,0.000000,0.000000,0.000000,0.000000,0.000000,1770901895.429943,0.000000
8.000000,24832.676331,24619.664206,2635.047154,583.447586,15099.631560,-7567.965396,10502.235353,-1781.612847,18260.637612,17586.106668,-691.495918,14382.945226,15756.325812,23493.985652,-5318.172910,-5866.595312,-0.007781,-0.027000,1.014188,192.000000,127.500000,104.000000,127.500000,16.000000,15.500000,96.000000,0.000000,0.000000,0.000000,1770901895.429962,0.000000
10.000000,24830.552915,24619.619503,2628.498093,577.412615,15113.914325,-7571.116992,10493.361711,-1792.721664,18277.401421,17593.415689,-703.431750,14373.959824,15778.185818,23507.016719,-5321.458616,-5866.751774,-0.007781,-0.027000,1.014188,192.000000,0.000000,0.000000,0.000000,0.000000,0.000000,0.000000,0.000000,0.000000,0.000000,1770901895.429981,0.000000
12.000000,24826.507250,24619.261875,2633.057849,592.924725,15099.631560,-7552.587396,10501.274228,-1785.278533,18266.292604,17593.750965,-701.911831,14378.430173,15767.702850,23496.354937,-5320.832768,-5856.335861,-0.007781,-0.027000,1.014188,192.000000,0.000000,0.000000,0.000000,0.000000,0.000000,0.000000,0.000000,0.000000,0.000000,1770901895.430000,0.000000
14.000000,24829.077700,24621.385291,2626.531139,584.229897,15114.942505,-7555.537826,10494.099318,-1792.274629,18246.645420,17587.067793,-704.012895,14379.413650,15756.750495,23501.361728,-5316.764750,-5851.753754,-0.007781,-0.027000,1.014188,192.000000,0.000000,0.000000,0.000000,0.000000,0.000000,0.000000,0.000000,0.000000,0.000000,1770901895.430019,0.000000
16.000000,24833.413939,24627.666131,2634.130732,590.913068,15122.832671,-7544.183140,10498.971999,-1785.837327,18285.649214,17609.374834,-705.733979,14381.447659,15802.660978,23516.337397,-5320.810416,-5855.240626,-0.007781,-0.027000,1.014188,192.000000,0.000000,0.000000,0.000000,0.000000,0.000000,0.000000,0.000000,0.000000,0.000000,1770901895.430038,0.000000
18.000000,24835.179727,24624.805108,2635.225968,591.293048,15112.036778,-7545.278376,10500.626028,-1785.010312,18256.323726,17592.588674,-695.765101,14387.482630,15762.852521,23511.621179,-5311.422683,-5852.469009,-0.006891,-0.025500,1.016094,192.000000,127.500000,104.000000,127.500000,32.000000,15.500000,104.000000,0.000000,0.000000,0.000000,1770901895.430059,0.000000
20.000000,24833.726863,24629.588381,2627.559319,585.995684,15132.913307,-7551.916844,10492.445289,-1794.129824,18286.208008,17600.389433,-703.118825,14380.195961,15765.557082,23517.902019,-5319.871643,-5854.994757,-0.006891,-0.025500,1.016094,192.000000,0.000000,0.000000,0.000000,0.000000,0.000000,0.000000,0.000000,0.000000,0.000000,1770901895.430079,0.000000
22.000000,24828.340093,24621.318236,2633.259014,592.634152,15113.221420,-7542.797332,10499.955475,-1786.552583,18280.731831,17600.948227,-702.425921,14383.504019,15775.861237,23520.271304,-5314.842500,-5852.759582,-0.006891,-0.025500,1.016094,192.000000,0.000000,0.000000,0.000000,0.000000,0.000000,0.000000,0.000000,0.000000,0.000000,1770901895.430099,0.000000
24.000000,24823.266247,24612.623407,2619.602098,580.720673,15118.943467,-7556.230731,10491.238295,-1801.662362,18261.509330,17583.558569,-708.572651,14379.078374,15751.631946,23504.312158,-5317.949393,-5851.239664,-0.006891,-0.025500,1.016094,192.000000,0.000000,0.000000,0.000000,0.000000,0.000000,0.000000,0.000000,0.000000,0.000000,1770901895.430118,0.000000
26.000000,24820.852258,24606.074346,2623.826578,581.458280,15113.556697,-7556.297786,10494.099318,-1800.567126,18291.460668,17595.449697,-717.893328,14368.841275,15781.650338,23508.983673,-5325.548986,-5854.748887,-0.006891,-0.025500,1.016094,192.000000,0.000000,0.000000,0.000000,0.000000,0.000000,0.000000,0.000000,0.000000,0.000000,1770901895.430143,0.000000
28.000000,24819.242933,24603.660357,2623.468950,578.843126,15098.201048,-7567.652472,10495.261609,-1798.913097,18251.965136,17574.416706,-711.008991,14371.456429,15738.131492,23502.345205,-5322.687962,-5859.822733,-0.006891,-0.025500,1.016094,192.000000,0.000000,0.000000,0.000000,0.000000,0.000000,0.000000,0.000000,0.000000,0.000000,1770901895.430162,0.000000
30.000000,24819.689968,24603.213323,2615.265860,569.701263,15113.489641,-7578.291902,10487.147926,-1809.284307,18268.371316,17578.909407,-724.084762,14362.560435,15774.453077,23486.207245,-5328.544119,-5865.544780,-0.004000,-0.026000,1.018000,192.000000,127.500000,112.000000,127.500000,24.000000,15.500000,104.000000,0.000000,0.000000,0.000000,1770901895.430181,0.000000
32.000000,24825.210848,24606.387270,2630.688564,582.575867,15093.797755,-7564.456173,10499.351978,-1792.967533,18271.902892,17581.502209,-714.317049,14365.935548,15774.497780,23498.299539,-5322.889128,-5862.370832,-0.004000,-0.026000,1.018000,192.000000,0.000000,0.000000,0.000000,0.000000,0.000000,0.000000,0.000000,0.000000,0.000000,1770901895.430200,0.000000
34.000000,24831.715206,24614.947988,2623.156026,580.027769,15119.368150,-7567.674824,10493.652283,-1797.706103,18267.365487,17573.880264,-707.700933,14371.143505,15742.601841,23499.037146,-5318.128207,-5855.106515,-0.004000,-0.026000,1.018000,192.000000,0.000000,0.000000,0.000000,0.000000,0.000000,0.000000,0.000000,0.000000,0.000000,1770901895.430219,0.000000
36.000000,24845.014494,24625.453308,2633.057849,588.029693,15132.198051,-7555.202550,10497.854411,-1787.804280,18306.771613,17604.859782,-709.220852,14375.971481,15781.963263,23499.551237,-5320.698657,-5855.508847,-0.004000,-0.026000,1.018000,192.000000,0.000000,0.000000,0.000000,0.000000,0.000000,0.000000,0.000000,0.000000,0.000000,1770901895.430238,0.000000
38.000000,24845.819157,24624.246314,2634.376602,586.353312,15118.317618,-7555.269606,10499.061406,-1784.809147,18284.375165,17592.655729,-693.284058,14386.633263,15740.321963,23500.110030,-5313.680209,-5855.687661,-0.004000,-0.026000,1.018000,192.000000,0.000000,0.000000,0.000000,0.000000,0.000000,0.000000,0.000000,0.000000,0.000000,1770901895.430258,0.000000
40.000000,24852.323515,24630.728320,2630.107418,584.274600,15141.429322,-7559.739954,10494.300484,-1789.055978,18310.750223,17606.022073,-702.560032,14380.911217,15778.632853,23510.168315,-5323.023239,-5857.140524,-0.010000,-0.022000,1.012000,192.000000,127.500000,88.000000,127.500000,40.000000,15.500000,80.000000,0.000000,0.000000,0.000000,1770901895.430277,0.000000
42.000000,24847.897869,24621.698215,2636.410610,591.874193,15125.470176,-7551.782733,10501.184821,-1782.775138,18305.050529,17607.519639,-697.195613,14383.213447,15792.155658,23516.359748,-5310.819186,-5857.766373,-0.010000,-0.022000,1.012000,192.000000,0.000000,0.000000,0.000000,0.000000,0.000000,0.000000,0.000000,0.000000,0.000000,1770901895.430296,0.000000
44.000000,24843.651038,24615.886762,2624.519482,581.257115,15131.572203,-7559.583492,10491.841792,-1797.102606,18283.212874,17593.214523,-701.531851,14380.263016,15766.339393,23506.368519,-5315.334238,-5855.218274,-0.010000,-0.022000,1.012000,192.000000,0.000000,0.000000,0.000000,0.000000,0.000000,0.000000,0.000000,0.000000,0.000000,1770901895.430315,0.000000
46.000000,24835.693817,24611.751689,2628.699258,583.626399,15127.347723,-7556.543655,10490.165411,-1800.008333,18311.040796,17603.071642,-716.284003,14370.472952,15796.469545,23518.393757,-5321.525672,-5853.877169,-0.010000,-0.022000,1.012000,192.000000,0.000000,0.000000,0.000000,0.000000,0.000000,0.000000,0.000000,0.000000,0.000000,1770901895.430334,0.000000
48.000000,24832.899849,24603.392137,2626.598194,582.128833,15118.138804,-7552.967376,10489.181934,-1804.098702,18271.858188,17573.902616,-710.830177,14369.578882,15737.617402,23495.058536,-5311.020352,-5851.217312,-0.010000,-0.022000,1.012000,192.000000,0.000000,0.000000,0.000000,0.000000,0.000000,0.000000,0.000000,0.000000,0.000000,1770901895.430354,0.000000
50.000000,24831.849317,24603.950930,2621.993735,576.607952,15135.729627,-7555.649585,10482.498763,-1813.285269,18297.093308,17583.178590,-721.022573,14359.855874,15787.104164,23500.869989,-5315.937736,-5851.150257,-0.014000,-0.016000,1.008000,192.000000,127.500000,72.000000,127.500000,64.000000,15.500000,64.000000,0.000000,0.000000,0.000000,1770901895.430374,0.000000
52.000000,24827.736596,24602.654529,2630.129770,584.811042,15122.855022,-7547.066515,10491.975903,-1803.674019,18288.264369,17585.525523,-716.976907,14363.946243,15771.882626,23507.262588,-5310.528613,-5848.848027,-0.014000,-0.016000,1.008000,192.000000,0.000000,0.000000,0.000000,0.000000,0.000000,0.000000,0.000000,0.000000,0.000000,1770901895.430393,0.000000
54.000000,24831.446985,24607.147230,2618.775084,578.887830,15140.714066,-7555.850751,10486.700891,-1812.525310,18268.460723,17572.762677,-717.714514,14363.365097,15735.695152,23497.897207,-5310.282744,-5849.809152,-0.014000,-0.016000,1.008000,192.000000,0.000000,0.000000,0.000000,0.000000,0.000000,0.000000,0.000000,0.000000,0.000000,1770901895.430412,0.000000
56.000000,24828.921238,24609.538866,2624.944165,581.480632,15135.461406,-7556.208379,10491.752385,-1805.551565,18301.340139,17593.482744,-723.391858,14362.918063,15786.567722,23503.574551,-5318.798759,-5854.950053,-0.014000,-0.016000,1.008000,192.000000,0.000000,0.000000,0.000000,0.000000,0.000000,0.000000,0.000000,0.000000,0.000000,1770901895.430432,0.000000
58.000000,24829.323569,24607.258988,2622.932508,581.927667,15119.636371,-7562.288053,10494.881629,-1801.260030,18265.331479,17576.227197,-711.992468,14371.210560,15750.112027,23504.580379,-5314.462520,-5858.861608,-0.014000,-0.016000,1.008000,192.000000,0.000000,0.000000,0.000000,0.000000,0.000000,0.000000,0.000000,0.000000,0.000000,1770901895.909930,0.000000
60.000000,24835.872631,24612.332834,2616.718723,576.004455,15119.256391,-7576.101431,10488.846658,-1806.177414,18290.141915,17585.838447,-720.575538,14364.482685,15755.632908,23497.181952,-5333.863835,-5864.158972,-0.014000,-0.022000,1.006000,192.000000,127.500000,72.000000,127.500000,40.000000,15.500000,56.000000,0.000000,0.000000,0.000000,1770901895.910000,0.000000
62.000000,24838.711302,24611.751689,2627.872244,584.051083,15109.063996,-7573.910960,10499.910772,-1792.453443,18286.342119,17588.721822,-711.567785,14371.545836,15744.591146,23501.071155,-5333.506207,-5866.684719,-0.014000,-0.022000,1.006000,192.000000,0.000000,0.000000,0.000000,0.000000,0.000000,0.000000,0.000000,0.000000,0.000000,1770901895.910054,0.000000
64.000000,24842.645209,24615.484430,2622.306659,575.512716,15112.997903,-7579.878876,10493.875801,-1799.941277,18279.346023,17577.456543,-705.845738,14375.345632,15751.073152,23507.307292,-5333.819131,-5865.276559,-0.014000,-0.022000,1.006000,192.000000,0.000000,0.000000,0.000000,0.000000,0.000000,0.000000,0.000000,0.000000,0.000000,1770901895.910108,0.000000
66.000000,24839.314799,24611.885799,2626.218215,578.239629,15109.175755,-7575.520286,10491.819440,-1799.650705,18313.991226,17596.902561,-712.774779,14370.092973,15794.055557,23502.814591,-5336.613099,-5867.690547,-0.014000,-0.022000,1.006000,192.000000,0.000000,0.000000,0.000000,0.000000,0.000000,0.000000,0.000000,0.000000,0.000000,1770901895.910163,0.000000
68.000000,24824.585000,24596.731317,2624.363020,573.992798,15105.957103,-7578.135440,10490.768908,-1805.775083,18274.026307,17572.494456,-707.633878,14368.416592,15733.728198,23493.583321,-5327.404180,-5862.951978,-0.014000,-0.022000,1.006000,192.000000,0.000000,0.000000,0.000000,0.000000,0.000000,0.000000,0.000000,0.000000,0.000000,1770901895.910218,0.000000
70.000000,24822.618046,24597.938311,2616.808130,565.409728,15115.680112,-7576.928446,10481.180010,-1818.672039,18294.098174,17578.261206,-722.698953,14354.178530,15765.110047,23499.372423,-5330.689887,-5860.046251,-0.008000,-0.024000,1.008000,192.000000,127.500000,96.000000,127.500000,32.000000,15.500000,64.000000,0.000000,0.000000,0.000000,1770901895.910258,0.000000
72.000000,24819.578209,24592.260968,2625.435904,576.317379,15108.840479,-7560.611672,10488.287865,-1813.084103,18290.499543,17575.489590,-720.195558,14352.882129,15755.699963,23505.697966,-5322.084465,-5856.402916,-0.008000,-0.024000,1.008000,192.000000,0.000000,0.000000,0.000000,0.000000,0.000000,0.000000,0.000000,0.000000,0.000000,1770901895.910277,0.000000
74.000000,24821.075776,24595.613729,2616.226985,573.232838,15128.420607,-7553.034431,10480.285940,-1821.890691,18270.092400,17564.336069,-722.274270,14355.340821,15723.334637,23484.977899,-5310.595669,-5849.630338,-0.008000,-0.024000,1.008000,192.000000,0.000000,0.000000,0.000000,0.000000,0.000000,0.000000,0.000000,0.000000,0.000000,1770901895.910298,0.000000
76.000000,24822.260418,24600.352299,2626.061753,582.017074,15139.663534,-7538.505797,10484.756289,-1815.431036,18305.944598,17589.347671,-726.990488,14353.239757,15793.452059,23511.487068,-5309.165157,-5842.477780,-0.008000,-0.024000,1.008000,192.000000,0.000000,0.000000,0.000000,0.000000,0.000000,0.000000,0.000000,0.000000,0.000000,1770901895.910318,0.000000
78.000000,24828.764776,24604.956759,2631.023840,584.431062,15140.937584,-7530.816797,10489.539562,-1807.786740,18269.980642,17580.898712,-715.255823,14365.153237,15748.748571,23504.938007,-5298.570430,-5839.661460,-0.008000,-0.024000,1.008000,192.000000,0.000000,0.000000,0.000000,0.000000,0.000000,0.000000,0.000000,0.000000,0.000000,1770901895.910336,0.000000
80.000000,24835.179727,24611.818744,2627.089933,577.949056,15156.807322,-7536.024754,10483.683405,-1813.531138,18300.490773,17595.293235,-719.256785,14363.320394,15787.707661,23515.488030,-5301.319695,-5841.762524,-0.006000,-0.028000,1.004000,192.000000,127.500000,104.000000,127.500000,16.000000,15.500000,48.000000,0.000000,0.000000,0.000000,1770901895.910355,0.000000
82.000000,24836.051445,24607.884837,2638.332860,585.995684,15143.575089,-7533.633117,10492.154717,-1802.131748,18301.004863,17597.930741,-711.299564,14367.701336,15790.546333,23518.103184,-5298.324561,-5845.159989,-0.006000,-0.028000,1.004000,192.000000,0.000000,0.000000,0.000000,0.000000,0.000000,0.000000,0.000000,0.000000,0.000000,1770901895.910372,0.000000
84.000000,24834.665636,24600.464058,2627.827540,574.842164,15152.828712,-7550.754553,10483.348129,-1812.659420,18276.283834,17582.061003,-709.399666,14368.640109,15726.776806,23503.038109,-5297.430491,-5848.646861,-0.006000,-0.028000,1.004000,192.000000,0.000000,0.000000,0.000000,0.000000,0.000000,0.000000,0.000000,0.000000,0.000000,1770901895.910390,0.000000
86.000000,24835.224430,24599.972320,2632.253186,576.898524,15152.918119,-7550.598091,10487.796126,-1807.920850,18300.915456,17589.504133,-719.122674,14357.039554,15798.481202,23509.363652,-5305.499471,-5853.296024,-0.006000,-0.028000,1.004000,192.000000,0.000000,0.000000,0.000000,0.000000,0.000000,0.000000,0.000000,0.000000,0.000000,1770901895.910408,0.000000
88.000000,24834.553878,24594.540846,2631.090895,578.306684,15129.292325,-7560.634024,10489.763080,-1805.283344,18266.761990,17576.517770,-707.656229,14364.259167,15751.184911,23499.506533,-5306.058265,-5852.200789,-0.006000,-0.028000,1.004000,192.000000,0.000000,0.000000,0.000000,0.000000,0.000000,0.000000,0.000000,0.000000,0.000000,1770901895.910426,0.000000
90.000000,24831.648151,24596.843075,2618.439808,571.154126,15121.670380,-7576.235542,10481.627045,-1816.861548,18285.582159,17583.357404,-719.279137,14355.407876,15756.526978,23498.277187,-5322.553852,-5854.435963,-0.004000,-0.024000,1.002000,192.000000,127.500000,112.000000,127.500000,32.000000,15.500000,40.000000,0.000000,0.000000,0.000000,1770901895.910455,0.000000
92.000000,24822.416880,24588.595282,2620.585575,579.111347,15091.182600,-7579.297731,10488.757251,-1809.597231,18274.205121,17578.998814,-723.213044,14356.793685,15778.744612,23480.373440,-5329.549948,-5855.553550,-0.004000,-0.024000,1.002000,192.000000,0.000000,0.000000,0.000000,0.000000,0.000000,0.000000,0.000000,0.000000,0.000000,1770901895.910473,0.000000
94.000000,24820.114651,24590.562235,2615.332915,571.422347,15093.954217,-7593.200516,10484.018682,-1815.922775,18253.909737,17566.325374,-721.670773,14362.582786,15712.561096,23479.747591,-5332.567433,-5859.241588,-0.004000,-0.024000,1.002000,192.000000,0.000000,0.000000,0.000000,0.000000,0.000000,0.000000,0.000000,0.000000,0.000000,1770901895.910491,0.000000
96.000000,24831.625799,24601.112259,2626.173511,578.038463,15101.307941,-7580.303559,10490.679501,-1805.730379,18287.482058,17587.067793,-724.084762,14359.766467,15767.792257,23488.241254,-5331.159274,-5864.203675,-0.004000,-0.024000,1.002000,192.000000,0.000000,0.000000,0.000000,0.000000,0.000000,0.000000,0.000000,0.000000,0.000000,1770901895.910509,0.000000
98.000000,24832.341055,24600.508761,2630.912081,577.569077,15097.306978,-7565.171428,10492.847621,-1801.327086,18266.002031,17574.081430,-706.359828,14367.835446,15729.526070,23505.921484,-5319.558718,-5859.800382,-0.004000,-0.024000,1.002000,192.000000,0.000000,0.000000,0.000000,0.000000,0.000000,0.000000,0.000000,0.000000,0.000000,1770901895.910528,0.000000
100.000000,24836.163203,24605.694366,2624.921814,578.016112,15116.820051,-7563.271530,10485.337434,-1808.859624,18288.487886,17585.413764,-716.172244,14362.314565,15764.797123,23491.370498,-5322.553852,-5852.089030,-0.008000,-0.020000,1.004000,192.000000,127.500000,80.000000,127.500000,64.000000,15.500000,56.000000,0.000000,0.000000,0.000000,1770901895.910549,0.000000
102.000000,24836.230258,24604.129744,2633.348421,590.018998,15111.545040,-7545.211321,10495.283961,-1797.259068,18287.213837,17590.755831,-711.500730,14368.014260,15759.075076,23497.204303,-5316.608288,-5846.992832,-0.008000,-0.020000,1.004000,192.000000,0.000000,0.000000,0.000000,0.000000,0.000000,0.000000,0.000000,0.000000,0.000000,1770901895.910567,0.000000
104.000000,24839.694779,24607.236637,2625.525311,583.849917,15119.837537,-7549.234635,10489.763080,-1801.885879,18264.146836,17576.495418,-708.997334,14370.428249,15753.576547,23502.322853,-5313.680209,-5840.823751,-0.008000,-0.020000,1.004000,192.000000,0.000000,0.000000,0.000000,0.000000,0.000000,0.000000,0.000000,0.000000,0.000000,1770901895.910585,0.000000
106.000000,24843.136948,24612.511648,2630.420343,588.700245,15131.303982,-7543.713754,10491.528868,-1796.208536,18294.679319,17600.232971,-712.350096,14368.707164,15786.567722,23515.331568,-5318.687000,-5842.790704,-0.008000,-0.020000,1.004000,192.000000,0.000000,0.000000,0.000000,0.000000,0.000000,0.000000,0.000000,0.000000,0.000000,1770901895.910604,0.000000
108.000000,24840.611200,24608.041299,2631.359116,588.812004,15116.082444,-7545.881873,10493.182897,-1794.889783,18262.872787,17582.284520,-703.744674,14377.983138,15741.730123,23508.737804,-5313.076712,-5841.986041,-0.008000,-0.020000,1.004000,192.000000,0.000000,0.000000,0.000000,0.000000,0.000000,0.000000,0.000000,0.000000,0.000000,1770901895.910622,0.000000
110.000000,24837.012570,24604.688538,2622.977212,579.737196,15134.433226,-7550.016946,10485.225676,-1808.524347,18281.871770,17585.570226,-714.898195,14365.667327,15775.056574,23512.202324,-5320.653954,-5847.238701,-0.010000,-0.019000,1.005000,192.000000,127.500000,80.000000,127.500000,56.000000,15.500000,56.000000,0.000000,0.000000,0.000000,1770901895.910640,0.000000
112.000000,24830.664674,24598.564160,2629.280404,585.258077,15116.954162,-7548.206454,10493.272304,-1801.304734,18276.775572,17584.810267,-713.244166,14367.343708,15761.422010,23501.361728,-5323.425570,-5844.243567,-0.010000,-0.019000,1.005000,192.000000,0.000000,0.000000,0.000000,0.000000,0.000000,0.000000,0.000000,0.000000,0.000000,1770901895.910658,0.000000
114.000000,24832.139889,24599.100602,2618.283345,573.054024,15122.273877,-7558.890588,10483.571647,-1812.525310,18254.356772,17570.371040,-714.004125,14363.499208,15740.992515,23497.852504,-5324.185529,-5847.015184,-0.010000,-0.019000,1.005000,192.000000,0.000000,0.000000,0.000000,0.000000,0.000000,0.000000,0.000000,0.000000,0.000000,1770901895.910676,0.000000
116.000000,24828.250686,24598.407697,2621.323183,578.820774,15123.816147,-7550.352222,10485.628007,-1813.218214,18288.778459,17583.603273,-722.654250,14354.804379,15773.559007,23498.411298,-5331.382791,-5850.099725,-0.010000,-0.019000,1.005000,192.000000,0.000000,0.000000,0.000000,0.000000,0.000000,0.000000,0.000000,0.000000,0.000000,1770901895.910694,0.000000
118.000000,24821.723976,24593.624424,2625.122979,575.937399,15114.629580,-7559.203513,10488.019644,-1810.491301,18249.305278,17566.347726,-716.663982,14362.091048,15732.677666,23497.249007,-5318.888166,-5850.367945,-0.010000,-0.019000,1.005000,192.000000,0.000000,0.000000,0.000000,0.000000,0.000000,0.000000,0.000000,0.000000,0.000000,1770901895.910712,0.000000
120.000000,24823.646226,24598.497104,2620.049133,570.707091,15131.214575,-7566.065498,10483.124612,-1816.168644,18274.182770,17570.907482,-723.771837,14354.111475,15755.878777,23485.380231,-5325.660744,-5855.642957,-0.009000,-0.015500,1.007500,192.000000,127.500000,96.000000,127.500000,80.000000,15.500000,72.000000,0.000000,0.000000,0.000000,1770901895.910730,0.000000
122.000000,24820.651093,24595.591378,2630.666212,577.814946,15125.023142,-7559.739954,10492.154717,-1805.305696,18272.059354,17574.819037,-717.066314,14358.850045,15749.530882,23489.694117,-5318.619945,-5859.845085,-0.009000,-0.015500,1.007500,192.000000,0.000000,0.000000,0.000000,0.000000,0.000000,0.000000,0.000000,0.000000,0.000000,1770901895.910751,0.000000
124.000000,24824.003854,24593.669128,2622.351363,571.087071,15127.772406,-7571.116992,10485.091565,-1813.732304,18254.043848,17564.716049,-714.451160,14359.945281,15749.419123,23481.893358,-5314.060189,-5860.046251,-0.009000,-0.015500,1.007500,192.000000,0.000000,0.000000,0.000000,0.000000,0.000000,0.000000,0.000000,0.000000,0.000000,1770901895.910769,0.000000
126.000000,24824.361482,24595.926654,2627.022878,573.411652,15135.148482,-7568.658300,10487.080871,-1811.318315,18287.593816,17582.485686,-723.436561,14354.223234,15774.274263,23493.091582,-5320.162215,-5861.275597,-0.009000,-0.015500,1.007500,192.000000,0.000000,0.000000,0.000000,0.000000,0.000000,0.000000,0.000000,0.000000,0.000000,1770901895.910787,0.000000
128.000000,24827.446023,24597.714793,2631.068543,577.814946,15119.390502,-7562.891550,10491.104185,-1804.769254,18260.101171,17569.365212,-709.734942,14361.353440,15740.500777,23488.867103,-5313.948430,-5854.525370,-0.009000,-0.015500,1.007500,192.000000,0.000000,0.000000,0.000000,0.000000,0.000000,0.000000,0.000000,0.000000,0.000000,1770901895.910805,0.000000
130.000000,24830.664674,24604.353262,2624.564186,572.539934,15137.406008,-7567.920693,10485.628007,-1812.234737,18281.357680,17578.484723,-717.222776,14355.877263,15781.560931,23492.219864,-5322.755018,-5855.799419,-0.008500,-0.016750,1.007750,192.000000,127.500000,96.000000,127.500000,56.000000,15.500000,64.000000,0.000000,0.000000,0.000000,1770901895.910824,0.000000
132.000000,24823.310950,24601.671052,2632.879035,583.916972,15112.282647,-7556.633062,10494.769871,-1801.662362,18278.831932,17574.796686,-710.316087,14360.861702,15762.427838,23486.050783,-5324.006715,-5854.570073,-0.008500,-0.016750,1.007750,192.000000,0.000000,0.000000,0.000000,0.000000,0.000000,0.000000,0.000000,0.000000,0.000000,1770901895.910842,0.000000
134.000000,24811.665691,24595.345508,2618.931546,574.059853,15122.877374,-7565.707870,10485.225676,-1818.828502,18246.958345,17561.497398,-716.619279,14360.906406,15745.239347,23473.690268,-5327.292422,-5849.004489,-0.008500,-0.016750,1.007750,192.000000,0.000000,0.000000,0.000000,0.000000,0.000000,0.000000,0.000000,0.000000,0.000000,1770901895.910860,0.000000
136.000000,24804.401374,24589.802276,2620.362058,577.122042,15117.222383,-7562.645681,10485.158620,-1820.594289,18279.144857,17567.174741,-728.599814,14349.730533,15758.113951,23475.366649,-5334.199111,-5848.378640,-0.008500,-0.016750,1.007750,192.000000,0.000000,0.000000,0.000000,0.000000,0.000000,0.000000,0.000000,0.000000,0.000000,1770901895.910878,0.000000
138.000000,24789.805685,24574.580738,2612.784816,573.366949,15104.750109,-7566.020795,10484.063385,-1827.076295,18235.916583,17546.812301,-727.459875,14352.233929,15721.680608,23471.633908,-5328.007678,-5845.249396,-0.008500,-0.016750,1.007750,192.000000,0.000000,0.000000,0.000000,0.000000,0.000000,0.000000,0.000000,0.000000,0.000000,1770901895.910896,0.000000
140.000000,24783.882473,24570.199796,2601.810110,562.347539,15113.087310,-7574.693271,10473.267492,-1843.147200,18246.354848,17546.633488,-748.336404,14337.884109,15733.929364,23474.718448,-5337.149541,-5848.400992,-0.010250,-0.016375,1.007875,192.000000,127.500000,80.000000,127.500000,64.000000,15.500000,64.000000,0.000000,0.000000,0.000000,1770901895.910927,0.000000
142.000000,24781.401429,24564.522453,2613.164796,570.215353,15097.083461,-7560.902245,10483.191667,-1832.820694,18248.813540,17541.492586,-746.168285,14335.023085,15743.853538,23455.920631,-5333.550910,-5849.049193,-0.010250,-0.016375,1.007875,192.000000,0.000000,0.000000,0.000000,0.000000,0.000000,0.000000,0.000000,0.000000,0.000000,1770901895.910945,0.000000
144.000000,24790.945624,24575.340697,2608.515633,567.734309,15107.164098,-7568.412431,10479.861257,-1832.328955,18239.269345,17532.976572,-738.412230,14340.342801,15708.895410,23459.407504,-5332.969765,-5849.607986,-0.010250,-0.016375,1.007875,192.000000,0.000000,0.000000,0.000000,0.000000,0.000000,0.000000,0.000000,0.000000,0.000000,1770901895.910963,0.000000
146.000000,24804.915465,24586.360107,2618.685677,572.204658,15118.541136,-7572.480449,10487.460850,-1819.208481,18282.519970,17557.719953,-736.914663,14345.997792,15763.187797,23473.265585,-5337.395410,-5856.447620,-0.010250,-0.016375,1.007875,192.000000,0.000000,0.000000,0.000000,0.000000,0.000000,0.000000,0.000000,0.000000,0.000000,1770901895.910979,0.000000
148.000000,24821.589866,24594.607901,2627.805189,577.300856,15104.571295,-7571.921655,10495.306312,-1808.189071,18255.921394,17552.757866,-717.401590,14360.392315,15727.201489,23474.718448,-5327.918271,-5862.035556,-0.010250,-0.016375,1.007875,192.000000,0.000000,0.000000,0.000000,0.000000,0.000000,0.000000,0.000000,0.000000,0.000000,1770901895.910996,0.000000
150.000000,24830.888192,24603.772116,2626.687601,572.204658,15121.558621,-7576.637873,10491.126536,-1812.458254,18290.208970,17562.816151,-716.865148,14357.844217,15757.152826,23484.173236,-5336.814265,-5862.750812,-0.011125,-0.020188,1.007937,192.000000,127.500000,80.000000,127.500000,32.000000,15.500000,64.000000,0.000000,0.000000,0.000000,1770901895.911014,0.000000
152.000000,24833.413939,24606.051994,2637.774067,583.872269,15112.752034,-7566.221960,10500.827193,-1797.884917,18288.845514,17572.002717,-708.729113,14367.544874,15766.182931,23483.994422,-5328.611175,-5862.415536,-0.011125,-0.020188,1.007937,192.000000,0.000000,0.000000,0.000000,0.000000,0.000000,0.000000,0.000000,0.000000,0.000000,1770901895.911031,0.000000
154.000000,24835.872631,24606.297863,2626.732305,578.887830,15131.102816,-7567.987748,10493.384062,-1807.071484,18270.673546,17559.597499,-705.622221,14369.377717,15743.227690,23486.386059,-5326.398352,-5856.760544,-0.011125,-0.020188,1.007937,192.000000,0.000000,0.000000,0.000000,0.000000,0.000000,0.000000,0.000000,0.000000,0.000000,1770901895.911051,0.000000
156.000000,24836.029093,24606.811953,2633.191959,581.704149,15127.660647,-7559.650547,10494.635760,-1804.679847,18304.044700,17578.976462,-715.769913,14364.147409,15799.218810,23494.835018,-5331.472198,-5853.698355,-0.011125,-0.020188,1.007937,192.000000,0.000000,0.000000,0.000000,0.000000,0.000000,0.000000,0.000000,0.000000,0.000000,1770901895.911068,0.000000
158.000000,24828.697721,24600.240541,2630.040363,583.827565,15114.450766,-7552.833265,10494.613408,-1807.674981,18274.495694,17562.927909,-705.041075,14369.377717,15724.832204,23489.180027,-5322.062114,-5845.964652,-0.011125,-0.020188,1.007937,192.000000,0.000000,0.000000,0.000000,0.000000,0.000000,0.000000,0.000000,0.000000,0.000000,1770901895.911086,0.000000
160.000000,24814.549066,24589.489351,2617.501034,574.328074,15128.018275,-7557.773001,10482.431708,-1824.975231,18281.424735,17560.960956,-725.850549,14355.050249,15750.357896,23492.353975,-5325.057247,-5840.153198,-0.011125,-0.020188,1.007937,192.000000,0.000000,0.000000,0.000000,0.000000,0.000000,0.000000,0.000000,0.000000,0.000000,1770901895.911105,0.000000
162.000000,24806.211866,24582.001517,2625.145331,579.491327,15113.444938,-7552.296824,10487.170277,-1822.471836,18274.339232,17557.563491,-727.839855,14351.026935,15760.237367,23491.795181,-5322.665611,-5834.878187,-0.006000,-0.026000,1.008000,192.000000,127.500000,104.000000,127.500000,24.000000,15.500000,64.000000,0.000000,0.000000,0.000000,1770901895.911123,0.000000
164.000000,24800.601578,24576.368877,2615.109398,564.806231,15118.898764,-7559.695251,10475.882647,-1840.509694,18247.450083,17536.329333,-733.651308,14343.449693,15716.427948,23465.107198,-5310.685076,-5831.994812,-0.006000,-0.026000,1.008000,192.000000,0.000000,0.000000,0.000000,0.000000,0.000000,0.000000,0.000000,0.000000,0.000000,1770901895.911140,0.000000
166.000000,24803.261435,24575.497159,2618.909194,568.471917,15125.447825,-7549.167579,10477.871952,-1836.531083,18279.524836,17549.382752,-743.039041,14331.849138,15777.269396,23462.961431,-5310.707427,-5832.397143,-0.006000,-0.026000,1.008000,192.000000,0.000000,0.000000,0.000000,0.000000,0.000000,0.000000,0.000000,0.000000,0.000000,1770901895.911158,0.000000
168.000000,24808.424688,24575.027773,2621.546700,569.008359,15112.729682,-7544.607823,10481.604693,-1827.612737,18249.037057,17529.176775,-731.192616,14342.645030,15698.948884,23473.243233,-5301.565564,-5830.273727,-0.006000,-0.026000,1.008000,192.000000,0.000000,0.000000,0.000000,0.000000,0.000000,0.000000,0.000000,0.000000,0.000000,1770901895.911175,0.000000
170.000000,24820.561686,24591.299843,2619.333877,566.013225,15124.978438,-7553.079135,10479.548333,-1826.763371,18277.893159,17543.884223,-735.417096,14340.521615,15744.188815,23478.093562,-5314.529576,-5840.019088,-0.006000,-0.026000,1.008000,192.000000,0.000000,0.000000,0.000000,0.000000,0.000000,0.000000,0.000000,0.000000,0.000000,1770901895.911193,0.000000
172.000000,24827.937761,24601.805163,2631.672040,581.480632,15114.428415,-7544.294899,10493.428766,-1804.478682,18288.174962,17556.021220,-723.168340,14356.257243,15761.690231,23484.597920,-5314.127244,-5844.869416,-0.004000,-0.028000,1.010000,192.000000,127.500000,112.000000,127.500000,16.000000,15.500000,72.000000,0.000000,0.000000,0.000000,1770901895.911210,0.000000
174.000000,24837.794881,24613.070442,2626.553491,578.463147,15112.886144,-7555.046088,10489.807783,-1804.881013,18278.720174,17553.383714,-710.181977,14367.969557,15733.392922,23487.615405,-5319.290497,-5846.165818,-0.004000,-0.028000,1.010000,192.000000,0.000000,0.000000,0.000000,0.000000,0.000000,0.000000,0.000000,0.000000,0.000000,1770901895.911227,0.000000
176.000000,24841.549974,24621.273532,2631.627337,586.219202,15111.992074,-7554.263777,10494.769871,-1795.605039,18317.500450,17584.184418,-712.506558,14370.294138,15785.003100,23496.489048,-5335.406105,-5853.228969,-0.004000,-0.028000,1.010000,192.000000,0.000000,0.000000,0.000000,0.000000,0.000000,0.000000,0.000000,0.000000,0.000000,1770901895.911244,0.000000
178.000000,24844.120424,24620.848849,2633.706049,590.622495,15101.374996,-7555.515475,10498.323798,-1790.218269,18284.553979,17570.505151,-697.352075,14383.392260,15729.079035,23504.021585,-5333.439151,-5850.077373,-0.004000,-0.028000,1.010000,192.000000,0.000000,0.000000,0.000000,0.000000,0.000000,0.000000,0.000000,0.000000,0.000000,1770901896.389594,0.000000
180.000000,24840.387683,24622.011140,2624.743000,585.280429,15120.463386,-7560.499914,10489.830135,-1801.572955,18302.994168,17583.178590,-707.410360,14377.737269,15764.908882,23502.926350,-5337.730686,-5847.573977,-0.004000,-0.028000,1.010000,192.000000,0.000000,0.000000,0.000000,0.000000,0.000000,0.000000,0.000000,0.000000,0.000000,1770901896.389668,0.000000
182.000000,24830.530564,24609.203590,2631.023840,587.537955,15097.955179,-7558.868236,10494.613408,-1797.594344,18299.306130,17577.054212,-707.075084,14373.848066,15758.985669,23501.361728,-5340.301137,-5844.489437,-0.004000,-0.026000,1.012000,192.000000,127.500000,112.000000,127.500000,24.000000,15.500000,80.000000,0.000000,0.000000,0.000000,1770901896.389739,0.000000
184.000000,24825.769642,24604.532075,2616.875186,575.020978,15095.094156,-7574.894437,10485.180972,-1811.452426,18265.800865,17558.569319,-712.998296,14369.020089,15711.801137,23480.306385,-5334.221463,-5843.595367,-0.004000,-0.026000,1.012000,192.000000,0.000000,0.000000,0.000000,0.000000,0.000000,0.000000,0.000000,0.000000,0.000000,1770901896.389793,0.000000
186.000000,24817.253627,24592.685651,2617.165758,574.909219,15098.446917,-7573.061594,10483.817516,-1817.375638,18286.990319,17570.169874,-730.164436,14357.061906,15776.978824,23481.468675,-5339.295309,-5844.288271,-0.004000,-0.026000,1.012000,192.000000,0.000000,0.000000,0.000000,0.000000,0.000000,0.000000,0.000000,0.000000,0.000000,1770901896.389870,0.000000
188.000000,24811.218656,24586.337755,2620.071485,573.009321,15097.284627,-7565.752574,10486.320911,-1817.375638,18247.405380,17546.991115,-725.939956,14355.184359,15707.867230,23462.380286,-5322.285631,-5842.231910,-0.004000,-0.026000,1.012000,192.000000,0.000000,0.000000,0.000000,0.000000,0.000000,0.000000,0.000000,0.000000,0.000000,1770901896.389931,0.000000
190.000000,24817.141869,24589.332889,2616.338744,569.589504,15126.274839,-7560.902245,10478.363690,-1825.623432,18266.538473,17552.802569,-735.953538,14347.450655,15740.791350,23471.969184,-5316.943564,-5839.884977,-0.004000,-0.026000,1.012000,192.000000,0.000000,0.000000,0.000000,0.000000,0.000000,0.000000,0.000000,0.000000,0.000000,1770901896.389953,0.000000
192.000000,24821.276941,24588.282357,2630.174474,576.920876,15126.498357,-7540.405695,10485.717414,-1815.006353,18274.406287,17560.938604,-728.152779,14352.949185,15768.328699,23470.203396,-5301.766730,-5835.034649,-0.006000,-0.020000,1.012000,192.000000,127.500000,104.000000,127.500000,48.000000,15.500000,80.000000,0.000000,0.000000,0.000000,1770901896.389979,0.000000
194.000000,24823.422709,24596.485447,2624.340668,574.104556,15144.379752,-7538.282280,10479.816554,-1819.901385,18260.995240,17553.741342,-722.564843,14355.050249,15706.950808,23475.746629,-5289.339160,-5827.636221,-0.006000,-0.020000,1.012000,192.000000,0.000000,0.000000,0.000000,0.000000,0.000000,0.000000,0.000000,0.000000,0.000000,1770901896.389998,0.000000
196.000000,24836.498479,24609.404756,2630.196825,581.324170,15149.230081,-7525.877062,10483.772812,-1809.932507,18309.967912,17579.758773,-724.375334,14356.257243,15770.072135,23485.849617,-5295.776462,-5825.915137,-0.006000,-0.020000,1.012000,192.000000,0.000000,0.000000,0.000000,0.000000,0.000000,0.000000,0.000000,0.000000,0.000000,1770901896.390018,0.000000
198.000000,24840.030055,24611.841096,2632.432000,586.398016,15136.042552,-7525.765303,10489.047824,-1801.528251,18281.737659,17570.415744,-710.494901,14365.846141,15745.887547,23494.656205,-5295.329427,-5825.781027,-0.006000,-0.020000,1.012000,192.000000,0.000000,0.000000,0.000000,0.000000,0.000000,0.000000,0.000000,0.000000,0.000000,1770901896.390035,0.000000
200.000000,24850.334209,24621.273532,2628.185168,580.161879,15147.844273,-7539.489274,10483.638702,-1806.020952,18301.697767,17590.107631,-715.099360,14369.712993,15778.275225,23500.668824,-5312.473215,-5832.732419,-0.006000,-0.020000,1.012000,192.000000,0.000000,0.000000,0.000000,0.000000,0.000000,0.000000,0.000000,0.000000,0.000000,1770901896.390056,0.000000
202.000000,24851.161224,24623.732224,2635.047154,590.153109,15120.664551,-7542.439704,10493.048786,-1793.235754,18304.871715,17595.829677,-705.778683,14373.535141,15772.195550,23495.259702,-5316.831805,-5836.755733,-0.006000,-0.022000,1.008000,192.000000,127.500000,104.000000,127.500000,40.000000,15.500000,64.000000,0.000000,0.000000,0.000000,1770901896.390075,0.000000
204.000000,24851.004762,24621.519401,2621.569052,580.541859,15120.642200,-7562.980957,10485.628007,-1802.712894,18279.904816,17581.457505,-703.945840,14374.272749,15734.622268,23494.209170,-5326.063076,-5838.677983,-0.006000,-0.022000,1.008000,192.000000,0.000000,0.000000,0.000000,0.000000,0.000000,0.000000,0.000000,0.000000,0.000000,1770901896.390091,0.000000
206.000000,24846.802634,24617.049052,2622.485473,579.670141,15112.327351,-7567.920693,10486.700891,-1802.601135,18311.912514,17592.856895,-715.054657,14367.678984,15756.616385,23496.824324,-5339.138846,-5843.975347,-0.006000,-0.022000,1.008000,192.000000,0.000000,0.000000,0.000000,0.000000,0.000000,0.000000,0.000000,0.000000,0.000000,1770901896.390108,0.000000
208.000000,24842.712264,24613.472773,2625.257090,580.005417,15100.257409,-7568.993577,10489.383100,-1801.416493,18279.815409,17574.148485,-708.796168,14370.137676,15724.429873,23487.436591,-5334.601442,-5844.981175,-0.006000,-0.022000,1.008000,192.000000,0.000000,0.000000,0.000000,0.000000,0.000000,0.000000,0.000000,0.000000,0.000000,1770901896.390130,0.000000
210.000000,24845.573288,24619.753613,2620.362058,574.551591,15118.496432,-7573.866257,10482.878743,-1809.351362,18300.602532,17583.580921,-717.535701,14363.186283,15743.652373,23510.145963,-5334.243814,-5847.976309,-0.006000,-0.022000,1.008000,192.000000,0.000000,0.000000,0.000000,0.000000,0.000000,0.000000,0.000000,0.000000,0.000000,1770901896.390149,0.000000
212.000000,24842.265229,24615.663244,2631.448523,583.984027,15109.846307,-7564.232655,10492.378234,-1799.561298,18302.010691,17585.838447,-713.914718,14369.668289,15764.238329,23485.134361,-5325.616041,-5844.332974,-0.008000,-0.018000,1.006000,192.000000,127.500000,96.000000,127.500000,56.000000,15.500000,56.000000,0.000000,0.000000,0.000000,1770901896.390165,0.000000
214.000000,24838.174860,24612.846924,2623.759523,575.423309,15123.212650,-7569.775888,10484.286902,-1810.178376,18278.139028,17571.488627,-714.048828,14369.936510,15742.981820,23478.026507,-5316.205956,-5842.254262,-0.008000,-0.018000,1.006000,192.000000,0.000000,0.000000,0.000000,0.000000,0.000000,0.000000,0.000000,0.000000,0.000000,1770901896.390177,0.000000
216.000000,24833.883325,24607.773078,2627.358154,577.636132,15132.823900,-7560.455210,10482.699929,-1812.324144,18316.964008,17584.631453,-722.117808,14360.191150,15784.310196,23484.754382,-5316.921212,-5840.600233,-0.008000,-0.018000,1.006000,192.000000,0.000000,0.000000,0.000000,0.000000,0.000000,0.000000,0.000000,0.000000,0.000000,1770901896.390193,0.000000
218.000000,24834.687988,24597.915959,2629.280404,578.083167,15125.671342,-7552.050954,10484.376309,-1812.592365,18285.157476,17565.096028,-714.406456,14361.286385,15725.569812,23476.551292,-5301.274991,-5834.297041,-0.008000,-0.018000,1.006000,192.000000,0.000000,0.000000,0.000000,0.000000,0.000000,0.000000,0.000000,0.000000,0.000000,1770901896.390218,0.000000
220.000000,24836.967866,24599.659395,2621.636107,571.623513,15149.967688,-7549.480504,10474.921522,-1823.388257,18309.587933,17570.035764,-723.414209,14352.435094,15739.673762,23494.455039,-5307.824052,-5830.497245,-0.008000,-0.018000,1.006000,192.000000,0.000000,0.000000,0.000000,0.000000,0.000000,0.000000,0.000000,0.000000,0.000000,1770901896.390232,0.000000
222.000000,24836.342017,24596.351337,2632.141427,580.966542,15136.288421,-7537.276451,10485.158620,-1810.312487,18311.465479,17572.717973,-720.642593,14353.262109,15769.490989,23494.075059,-5300.135052,-5825.758675,-0.006000,-0.022000,1.008000,192.000000,127.500000,104.000000,127.500000,40.000000,15.500000,64.000000,0.000000,0.000000,0.000000,1770901896.390250,0.000000
224.000000,24829.703549,24597.535979,2620.987907,571.534106,15144.916194,-7553.526169,10478.564856,-1816.526272,18283.391688,17561.340935,-719.122674,14358.268900,15740.992515,23481.312213,-5300.112700,-5827.926794,-0.006000,-0.022000,1.008000,192.000000,0.000000,0.000000,0.000000,0.000000,0.000000,0.000000,0.000000,0.000000,0.000000,1770901896.390266,0.000000
226.000000,24832.206944,24600.039375,2628.006354,571.288237,15131.438092,-7556.878931,10483.348129,-1807.987906,18314.348854,17570.974537,-725.604680,14351.384562,15779.571626,23482.921539,-5314.529576,-5837.180416,-0.006000,-0.022000,1.008000,192.000000,0.000000,0.000000,0.000000,0.000000,0.000000,0.000000,0.000000,0.000000,0.000000,1770901896.390283,0.000000
228.000000,24840.655904,24598.407697,2628.475741,579.223106,15116.104795,-7561.729260,10489.427804,-1800.321257,18284.799848,17560.357459,-706.896270,14364.661499,15718.149032,23467.163559,-5317.524709,-5839.706163,-0.006000,-0.022000,1.008000,192.000000,0.000000,0.000000,0.000000,0.000000,0.000000,0.000000,0.000000,0.000000,0.000000,1770901896.390296,0.000000
230.000000,24843.159299,24599.324119,2622.127846,571.757623,15128.398255,-7572.346338,10482.945798,-1809.776045,18300.535476,17568.404087,-717.870977,14359.051211,15768.932196,23471.589204,-5330.086390,-5843.505960,-0.006000,-0.022000,1.008000,192.000000,0.000000,0.000000,0.000000,0.000000,0.000000,0.000000,0.000000,0.000000,0.000000,1770901896.390314,0.000000
232.000000,24840.052407,24595.457267,2629.213349,578.373740,15111.008598,-7567.138382,10492.311179,-1803.808129,18308.202125,17570.594558,-711.232509,14362.448676,15746.245175,23471.522149,-5338.267128,-5848.244530,-0.007000,-0.023000,1.006000,192.000000,127.500000,96.000000,127.500000,32.000000,15.500000,48.000000,0.000000,0.000000,0.000000,1770901896.390329,0.000000
