Sample_index,EXG Channel 0,EXG Channel 1,EXG Channel 2,EXG Channel 3,EXG Channel 4,EXG Channel 5,EXG Channel 6,EXG Channel 7,EXG Channel 8,EXG Channel 9,EXG Channel 10,EXG Channel 11,EXG Channel 12,EXG Channel 13,EXG Channel 14,EXG Channel 15,Accel Channel 0,Accel Channel 1,Accel Channel 2,Not Used,Digital Channel 0 (D11),Digital Channel 1 (D12),Digital Channel 2 (D13),Digital Channel 3 (D17),Not Used,Digital Channel 4 (D18),Analog Channel 0,Analog Channel 1,Analog Channel 2,Timestamp,Marker Channel
88.000000,15301.758385,-35877.857909,-5040.005450,7155.821580,-20621.182993,-6257.504971,-17433.533661,-22058.936603,6774.657282,11109.085215,17209.815050,-6104.149652,-6986.305950,-97628.731743,10779.039357,16316.684045,0.008000,-0.012000,1.012000,192.000000,0.000000,0.000000,0.000000,0.000000,0.000000,0.000000,0.000000,0.000000,0.000000,1772617170.691008,101.000000
90.000000,15439.556889,-35731.655148,-4898.340094,7020.504119,-20474.644956,-6113.604440,-17289.700185,-21909.403433,6830.782513,11186.019920,17279.150162,-6024.175110,-6905.638505,-97171.347996,10848.262709,16358.280642,0.008000,-0.012000,1.012000,192.000000,0.000000,0.000000,0.000000,0.000000,0.000000,0.000000,0.000000,0.000000,0.000000,1772617170.691117,0.000000
92.000000,15299.433803,-35879.869566,-5045.794552,7163.354118,-20630.235449,-6271.206590,-17441.312068,-22066.424437,6837.935071,11204.415405,17288.224970,-6014.966192,-6887.243019,-97902.764130,10865.026518,16370.976433,0.008000,-0.012000,1.012000,192.000000,0.000000,0.000000,0.000000,0.000000,0.000000,0.000000,0.000000,0.000000,0.000000,1772617170.691186,0.000000
94.000000,15374.647424,-35805.706478,-4959.494467,7060.804315,-20547.869271,-6198.518717,-17355.727238,-21985.377012,6767.907055,11103.474927,17203.109527,-6115.772559,-6989.412843,-97205.032075,10788.047110,16320.170918,0.006000,-0.006000,1.014000,192.000000,0.000000,24.000000,127.500000,104.000000,15.500000,88.000000,0.000000,0.000000,0.000000,1772617170.691255,0.000000
96.000000,15395.926284,-35789.322649,-4936.539225,7087.537001,-20533.452396,-6181.486688,-17332.034389,-21960.723038,6884.426699,11240.133493,17330.358008,-5969.145116,-6849.669737,-97600.792062,10900.856364,16376.698479,0.006000,-0.006000,1.014000,192.000000,0.000000,0.000000,0.000000,0.000000,0.000000,0.000000,0.000000,0.000000,0.000000,1772617170.691334,0.000000
98.000000,15317.404606,-35875.421569,-5030.952994,7162.951787,-20639.533775,-6276.034567,-17424.905887,-22046.799606,6780.446384,11108.414663,17218.152251,-6103.032065,-6986.842392,-97659.510095,10771.663281,16312.325455,0.006000,-0.006000,1.014000,192.000000,0.000000,0.000000,0.000000,0.000000,0.000000,0.000000,0.000000,0.000000,0.000000,1772617170.691394,0.000000
100.000000,15465.641375,-35722.736802,-4878.827021,7039.614861,-20481.641052,-6119.974687,-17271.863493,-21885.509418,6853.715402,11191.764318,17298.439717,-6012.798072,-6898.709464,-97178.053519,10820.993581,16335.124235,0.006000,-0.006000,1.014000,192.000000,0.000000,0.000000,0.000000,0.000000,0.000000,0.000000,0.000000,0.000000,0.000000,1772617170.691470,0.000000
102.000000,15325.272420,-35873.141691,-5024.001601,7192.791366,-20628.626124,-6266.110392,-17418.222716,-22035.601382,6876.134202,11205.130661,17320.478537,-5989.820479,-6871.999129,-97913.850595,10841.914814,16341.293316,0.006000,-0.006000,1.014000,192.000000,0.000000,0.000000,0.000000,0.000000,0.000000,0.000000,0.000000,0.000000,0.000000,1772617170.691519,0.000000
104.000000,15396.328616,-35796.832835,-4948.787981,7084.519516,-20545.343524,-6193.489575,-17342.360895,-21956.409151,6795.153832,11107.095910,17232.613830,-6093.733739,-6973.990139,-97215.179767,10756.553502,16289.794897,0.008000,-0.006000,1.010000,192.000000,0.000000,32.000000,127.500000,104.000000,15.500000,72.000000,0.000000,0.000000,0.000000,1772617170.691569,0.000000
106.000000,15411.527802,-35783.131216,-4932.717077,7102.132690,-20524.466994,-6174.132964,-17329.195717,-21945.926183,6908.946563,11247.911900,17356.509549,-5947.754496,-6827.250937,-97594.220650,10882.170306,16360.851092,0.008000,-0.006000,1.010000,192.000000,0.000000,0.000000,0.000000,0.000000,0.000000,0.000000,0.000000,0.000000,0.000000,1772617170.691611,0.000000
108.000000,15308.821536,-35894.577014,-5028.583709,7160.694261,-20618.053748,-6269.999596,-17430.136195,-22054.443902,6794.393873,11094.936561,17228.299943,-6103.255582,-6972.738442,-97644.377964,10774.367842,16298.042691,0.008000,-0.006000,1.010000,192.000000,0.000000,0.000000,0.000000,0.000000,0.000000,0.000000,0.000000,0.000000,0.000000,1772617170.691622,0.000000
110.000000,15431.957296,-35770.077797,-4891.634571,7026.181463,-20472.208616,-6129.988269,-17292.315339,-21920.959284,6841.868978,11160.114248,17290.661310,-6031.707648,-6897.144842,-97196.203136,10840.707820,16336.599450,0.008000,-0.006000,1.010000,192.000000,0.000000,0.000000,0.000000,0.000000,0.000000,0.000000,0.000000,0.000000,0.000000,1772617170.691633,0.000000
112.000000,15299.567914,-35920.862665,-5034.328107,7175.513467,-20622.345283,-6265.305730,-17438.473396,-22072.817036,6853.827161,11152.201730,17297.322130,-6033.585195,-6887.041853,-97922.143092,10857.158703,16345.048409,0.008000,-0.006000,1.010000,192.000000,0.000000,0.000000,0.000000,0.000000,0.000000,0.000000,0.000000,0.000000,0.000000,1772617170.691643,0.000000
114.000000,15373.798057,-35843.726795,-4959.807391,7068.828591,-20543.801253,-6189.108633,-17362.835093,-21995.658814,6785.721396,11069.455572,17209.949161,-6132.603423,-6965.787049,-97228.389648,10779.531095,16299.987292,0.006000,-0.002000,1.010000,192.000000,0.000000,24.000000,127.500000,120.000000,15.500000,72.000000,0.000000,0.000000,0.000000,1772617170.691653,0.000000
116.000000,15376.994357,-35844.330292,-4942.328327,7079.691539,-20528.803233,-6191.455566,-17347.568851,-21984.795867,6889.478193,11184.477649,17323.540726,-5996.704816,-6833.308260,-97635.750191,10908.143033,16366.081401,0.006000,-0.002000,1.010000,192.000000,0.000000,0.000000,0.000000,0.000000,0.000000,0.000000,0.000000,0.000000,0.000000,1772617170.691664,0.000000
118.000000,15301.646626,-35922.427287,-5033.478741,7148.177284,-20626.659170,-6283.030663,-17441.781454,-22075.678060,6784.223829,11046.522682,17203.914190,-6137.185530,-6979.622779,-97688.254438,10793.746804,16295.516943,0.006000,-0.002000,1.010000,192.000000,0.000000,0.000000,0.000000,0.000000,0.000000,0.000000,0.000000,0.000000,0.000000,1772617170.691674,0.000000
120.000000,15455.381925,-35760.734768,-4881.643341,7024.728599,-20479.137657,-6136.559681,-17286.727403,-21914.253761,6860.420926,11139.416532,17281.765316,-6047.532683,-6890.215801,-97213.458683,10845.625203,16327.167014,0.006000,-0.002000,1.010000,192.000000,0.000000,0.000000,0.000000,0.000000,0.000000,0.000000,0.000000,0.000000,0.000000,1772617170.691684,0.000000
122.000000,15327.708760,-35899.516749,-5016.893746,7186.287008,-20619.841888,-6261.885913,-17422.469547,-22049.884146,6889.053510,11167.825600,17312.521316,-6016.106131,-6862.946673,-97950.038069,10861.830218,16351.105732,0.006000,-0.002000,1.010000,192.000000,0.000000,0.000000,0.000000,0.000000,0.000000,0.000000,0.000000,0.000000,0.000000,1772617170.691694,0.000000
124.000000,15403.078843,-35823.252597,-4940.249615,7085.748862,-20531.284276,-6186.068795,-17344.506662,-21969.283756,6812.275268,11066.974529,17233.194975,-6115.347876,-6956.935758,-97259.503276,10769.830438,16297.193324,0.004000,-0.002000,1.012000,192.000000,0.000000,16.000000,127.500000,120.000000,15.500000,80.000000,0.000000,0.000000,0.000000,1772617170.691705,0.000000
126.000000,15418.881526,-35806.667603,-4922.658792,7105.865432,-20514.766337,-6168.656787,-17326.960543,-21952.676410,6929.800740,11208.058740,17360.041125,-5972.676691,-6799.423015,-97639.885263,10885.903047,16357.073648,0.004000,-0.002000,1.012000,192.000000,0.000000,0.000000,0.000000,0.000000,0.000000,0.000000,0.000000,0.000000,0.000000,1772617170.691716,0.000000
128.000000,15328.580478,-35900.790799,-5019.978287,7173.479459,-20620.288923,-6265.931578,-17427.565745,-22051.582879,6816.678562,11063.241787,17237.821786,-6115.951373,-6953.225369,-97691.674255,10778.569970,16294.600522,0.004000,-0.002000,1.012000,192.000000,0.000000,0.000000,0.000000,0.000000,0.000000,0.000000,0.000000,0.000000,0.000000,1772617170.691725,0.000000
130.000000,15461.908634,-35756.979675,-4877.865896,7040.106599,-20475.181398,-6125.339106,-17281.765316,-21905.894209,6872.803792,11142.121094,17301.099575,-6035.999183,-6879.710481,-97213.816311,10841.736000,16328.374008,0.004000,-0.002000,1.012000,192.000000,0.000000,0.000000,0.000000,0.000000,0.000000,0.000000,0.000000,0.000000,0.000000,1772617170.691736,0.000000
132.000000,15318.812766,-35907.071639,-5027.555529,7182.218991,-20628.469661,-6279.521439,-17433.980695,-22064.904519,6880.492792,11148.357230,17306.128717,-6026.231471,-6869.003996,-97961.146886,10859.103305,16340.041618,0.004000,-0.002000,1.012000,192.000000,0.000000,0.000000,0.000000,0.000000,0.000000,0.000000,0.000000,0.000000,0.000000,1772617170.691746,0.000000
134.000000,15389.019595,-35834.048490,-4954.800600,7079.043338,-20548.405713,-6210.588659,-17359.370572,-21990.964948,6802.261687,11053.272909,17216.297056,-6128.758923,-6970.525619,-97275.864753,10771.730336,16290.286635,0.001000,-0.004000,1.013000,192.000000,127.500000,120.000000,127.500000,104.000000,15.500000,88.000000,0.000000,0.000000,0.000000,1772617170.691757,0.000000
136.000000,15392.439412,-35828.214685,-4938.550882,7086.218248,-20533.497099,-6200.932706,-17343.299668,-21979.476151,6909.058322,11181.370757,17341.422122,-5993.016779,-6837.420981,-97657.096107,10893.212067,16357.341869,0.001000,-0.004000,1.013000,192.000000,0.000000,0.000000,0.000000,0.000000,0.000000,0.000000,0.000000,0.000000,0.000000,1772617170.691776,0.000000
138.000000,15291.096603,-35936.933570,-5040.944224,7149.719554,-20642.283039,-6310.970343,-17447.145873,-22088.351499,6789.409434,11030.630592,17212.430204,-6148.830789,-6987.758814,-97729.068724,10782.481525,16286.442135,0.001000,-0.004000,1.013000,192.000000,0.000000,0.000000,0.000000,0.000000,0.000000,0.000000,0.000000,0.000000,0.000000,1772617170.691787,0.000000
140.000000,15435.175948,-35782.058332,-4892.528640,7018.336000,-20491.587578,-6155.938644,-17294.349348,-21933.856241,6848.999184,11101.776195,17275.059792,-6070.733794,-6910.265316,-97258.855076,10832.348267,16318.092205,0.001000,-0.004000,1.013000,192.000000,0.000000,0.000000,0.000000,0.000000,0.000000,0.000000,0.000000,0.000000,0.000000,1772617170.691798,0.000000
142.000000,15310.408510,-35916.548779,-5030.081276,7179.983816,-20633.856432,-6281.197820,-17434.651248,-22074.180493,6874.770746,11128.218308,17302.597142,-6041.475361,-6877.162382,-98003.324628,10844.127636,16331.547955,0.001000,-0.004000,1.013000,192.000000,0.000000,0.000000,0.000000,0.000000,0.000000,0.000000,0.000000,0.000000,0.000000,1772617170.691809,0.000000
144.000000,15396.641540,-35823.431411,-4945.502275,7088.073443,-20545.567041,-6187.633418,-17348.529976,-21982.739506,6803.289867,11043.594604,17221.661475,-6133.519844,-6955.505247,-97304.385579,10752.753705,16284.005795,0.001000,-0.004000,1.013000,192.000000,0.000000,0.000000,0.000000,0.000000,15.500000,80.000000,0.000000,0.000000,0.000000,1772617170.691819,0.000000
146.000000,15424.715331,-35795.871710,-4918.344905,7110.559298,-20520.242515,-6173.596522,-17323.719540,-21954.017514,6934.092275,11202.068472,17362.566872,-5969.927427,-6806.352056,-97689.506136,10875.665948,16355.509026,0.001000,-0.004000,1.013000,192.000000,0.000000,0.000000,0.000000,0.000000,0.000000,0.000000,0.000000,0.000000,0.000000,1772617170.691830,0.000000
148.000000,15329.474548,-35896.566319,-5022.772255,7173.300645,-20617.740824,-6278.649721,-17428.348056,-22055.516786,6820.366600,11054.457552,17238.648801,-6115.370228,-6945.066982,-97746.994823,10765.717717,16290.152525,0.001000,-0.004000,1.013000,192.000000,0.000000,0.000000,0.000000,0.000000,0.000000,0.000000,0.000000,0.000000,0.000000,1772617170.691840,0.000000
150.000000,15478.471277,-35736.572532,-4873.619065,7042.498236,-20465.257223,-6126.769617,-17277.496133,-21901.222694,6886.460708,11143.439846,17308.632113,-6025.940898,-6856.576426,-97259.503276,10832.035343,16330.408016,0.001000,-0.004000,1.013000,192.000000,0.000000,0.000000,0.000000,0.000000,0.000000,0.000000,0.000000,0.000000,0.000000,1772617170.691850,0.000000
152.000000,15339.644592,-35883.691714,-5013.049246,7184.990607,-20605.670882,-6255.850942,-17422.514251,-22055.539138,6907.337237,11160.784800,17325.597087,-6014.697971,-6865.226551,-97995.322704,10853.493017,16341.159206,0.001000,-0.004000,1.013000,192.000000,0.000000,0.000000,0.000000,0.000000,0.000000,0.000000,0.000000,0.000000,0.000000,1772617170.691880,0.000000
154.000000,15391.053604,-35822.604397,-4949.614996,7080.406795,-20539.107387,-6196.596467,-17355.079038,-21991.680204,6821.953573,11059.039659,17231.764463,-6120.265260,-6962.568398,-97327.229062,10773.004386,16299.674368,0.001500,-0.006000,1.011500,192.000000,0.000000,8.000000,127.500000,96.000000,15.500000,72.000000,0.000000,0.000000,0.000000,1772617170.691890,0.000000
156.000000,15397.915590,-35814.647176,-4930.168978,7085.972379,-20524.757567,-6173.350653,-17334.806005,-21975.005803,6913.461615,11178.688547,17343.344372,-5992.882668,-6829.240242,-97694.825851,10888.562904,16358.124180,0.001500,-0.006000,1.011500,192.000000,0.000000,0.000000,0.000000,0.000000,0.000000,0.000000,0.000000,0.000000,0.000000,1772617170.691900,0.000000
158.000000,15299.970245,-35916.079392,-5028.740171,7152.290005,-20622.010007,-6288.573896,-17436.484091,-22077.108571,6804.049826,11041.202967,17218.018141,-6135.285632,-6970.369157,-97763.177486,10784.068499,16288.967882,0.001500,-0.006000,1.011500,192.000000,0.000000,0.000000,0.000000,0.000000,0.000000,0.000000,0.000000,0.000000,0.000000,1772617170.691911,0.000000
160.000000,15431.465558,-35773.519966,-4889.511155,7018.425407,-20482.311604,-6150.216597,-17293.768203,-21928.268305,6853.648347,11115.969553,17280.535970,-6057.613320,-6892.070996,-97310.666419,10846.899253,16309.956170,0.001500,-0.006000,1.011500,192.000000,0.000000,0.000000,0.000000,0.000000,0.000000,0.000000,0.000000,0.000000,0.000000,1772617170.691921,0.000000
162.000000,15315.303542,-35904.031802,-5023.465159,7168.450316,-20625.988618,-6279.856715,-17431.522004,-22063.362248,6879.263446,11138.701277,17304.809964,-6034.613375,-6876.760051,-98044.720059,10859.818561,16313.890077,0.001500,-0.006000,1.011500,192.000000,0.000000,0.000000,0.000000,0.000000,0.000000,0.000000,0.000000,0.000000,0.000000,1772617170.691931,0.000000
164.000000,15390.159534,-35822.447934,-4951.447839,7076.092908,-20552.160806,-6204.129005,-17357.493026,-21988.081573,6802.149928,11051.618880,17220.633295,-6130.189434,-6965.585883,-97365.204676,10765.293034,16270.415934,0.001750,-0.007000,1.010750,192.000000,0.000000,8.000000,127.500000,96.000000,15.500000,72.000000,0.000000,0.000000,0.000000,1772617170.691941,0.000000
166.000000,15418.658008,-35791.758989,-4919.641306,7100.143385,-20520.890715,-6170.981368,-17324.255982,-21952.475244,6923.899880,11203.923667,17350.340468,-5975.425956,-6814.555146,-97721.223262,10877.923474,16337.381761,0.001750,-0.007000,1.010750,192.000000,0.000000,0.000000,0.000000,0.000000,0.000000,0.000000,0.000000,0.000000,0.000000,1772617170.691952,0.000000
168.000000,15321.003237,-35892.699467,-5022.973421,7167.846819,-20622.278228,-6275.743994,-17426.805786,-22054.198033,6817.326762,11064.091154,17230.848042,-6116.331353,-6960.065002,-97784.322236,10761.716755,16270.371231,0.001750,-0.007000,1.010750,192.000000,0.000000,0.000000,0.000000,0.000000,0.000000,0.000000,0.000000,0.000000,0.000000,1772617170.691962,0.000000
170.000000,15459.584053,-35745.982617,-4875.317797,7030.294184,-20466.017183,-6122.075751,-17277.563188,-21902.675557,6876.156554,11139.707105,17297.567999,-6036.401515,-6879.777536,-97298.708236,10825.933316,16303.585923,0.001750,-0.007000,1.010750,192.000000,0.000000,0.000000,0.000000,0.000000,0.000000,0.000000,0.000000,0.000000,0.000000,1772617170.691972,0.000000
172.000000,15326.054731,-35885.725723,-5016.245546,7183.269523,-20610.431804,-6257.326157,-17420.010855,-22051.247603,6900.765824,11156.985004,17312.856592,-6015.279116,-6841.176074,-98055.493600,10851.973099,16321.377912,0.001750,-0.007000,1.010750,192.000000,0.000000,0.000000,0.000000,0.000000,0.000000,0.000000,0.000000,0.000000,0.000000,1772617170.691983,0.000000
174.000000,15396.932113,-35808.768667,-4944.496446,7083.379577,-20536.581640,-6193.131947,-17345.736008,-21975.117561,6814.890422,11066.974529,17221.147385,-6113.760902,-6943.681174,-97376.537010,10765.248330,16267.420801,0.004875,-0.006500,1.008375,192.000000,0.000000,32.000000,127.500000,104.000000,15.500000,56.000000,0.000000,0.000000,0.000000,1772617170.691993,0.000000
176.000000,15409.449090,-35794.463550,-4927.911452,7098.511708,-20523.394111,-6177.016339,-17330.648581,-21962.645288,6921.038857,11206.471766,17340.729218,-5968.206342,-6814.532794,-97758.975358,10883.600817,16324.596563,0.004875,-0.006500,1.008375,192.000000,0.000000,0.000000,0.000000,0.000000,0.000000,0.000000,0.000000,0.000000,0.000000,1772617170.692003,0.000000
178.000000,15305.267609,-35905.283499,-5033.724610,7161.565979,-20630.570725,-6272.637102,-17437.624030,-22075.119266,6801.166451,11058.056183,17209.144498,-6121.248737,-6982.260285,-97828.936318,10770.299825,16256.468446,0.004875,-0.006500,1.008375,192.000000,0.000000,0.000000,0.000000,0.000000,0.000000,0.000000,0.000000,0.000000,0.000000,1772617170.692013,0.000000
180.000000,15433.834843,-35769.004913,-4892.908620,7024.348620,-20480.054078,-6128.781274,-17295.154011,-21936.426692,6851.144952,11121.848061,17265.292080,-6056.495733,-6900.207031,-97344.238740,10828.324953,16290.666615,0.004875,-0.006500,1.008375,192.000000,0.000000,0.000000,0.000000,0.000000,0.000000,0.000000,0.000000,0.000000,0.000000,1772617170.692024,0.000000
182.000000,15290.537809,-35924.126020,-5040.832465,7173.457107,-20634.437577,-6285.243486,-17442.988448,-22091.123115,6869.026347,11135.840253,17278.032574,-6047.689146,-6891.847478,-98093.670379,10862.076087,16309.911467,0.004875,-0.006500,1.008375,192.000000,0.000000,0.000000,0.000000,0.000000,0.000000,0.000000,0.000000,0.000000,0.000000,1772617170.692034,0.000000
184.000000,15364.991470,-35842.340987,-4962.131973,7072.449574,-20554.485387,-6219.730523,-17361.270471,-21999.860942,6775.573704,11024.953249,17190.056108,-6151.468295,-7004.544974,-97389.568077,10764.845999,16250.567585,0.004438,-0.005250,1.007188,192.000000,0.000000,16.000000,127.500000,112.000000,15.500000,56.000000,0.000000,0.000000,0.000000,1772617170.692044,0.000000
186.000000,15396.552133,-35804.924167,-4932.784132,7096.231830,-20534.681742,-6181.397281,-17332.526127,-21963.695820,6905.370284,11188.947998,17334.090750,-5985.260723,-6842.003088,-97753.946215,10879.488096,16317.153432,0.004438,-0.005250,1.007188,192.000000,0.000000,0.000000,0.000000,0.000000,0.000000,0.000000,0.000000,0.000000,0.000000,1772617170.692056,0.000000
188.000000,15309.760309,-35896.141636,-5027.533177,7165.343424,-20625.563935,-6267.406794,-17430.829100,-22060.836501,6804.720378,11060.961909,17214.754786,-6121.740475,-6964.937683,-97831.216196,10757.648737,16247.058361,0.004438,-0.005250,1.007188,192.000000,0.000000,0.000000,0.000000,0.000000,0.000000,0.000000,0.000000,0.000000,0.000000,1772617170.692066,0.000000
190.000000,15455.717201,-35743.166297,-4878.134117,7037.737314,-20471.269843,-6119.102969,-17283.017013,-21907.838810,6867.506429,11142.009335,17286.369775,-6041.207140,-6882.236228,-97350.519580,10815.360941,16275.512132,0.004438,-0.005250,1.007188,192.000000,0.000000,0.000000,0.000000,0.000000,0.000000,0.000000,0.000000,0.000000,0.000000,1772617170.692075,0.000000
192.000000,15331.530909,-35877.857909,-5012.132825,7195.406520,-20612.443461,-6258.019061,-17420.524945,-22049.392408,6901.972819,11168.630262,17310.979046,-6009.534718,-6852.664870,-98083.656798,10847.323936,16299.853182,0.004438,-0.005250,1.007188,192.000000,0.000000,0.000000,0.000000,0.000000,0.000000,0.000000,0.000000,0.000000,0.000000,1772617170.692086,0.000000
194.000000,15398.094404,-35806.555844,-4942.596548,7097.148251,-20536.603992,-6186.962865,-17350.318116,-21975.721058,6820.925393,11069.857904,17223.539021,-6111.190452,-6955.549950,-97409.528185,10759.548635,16246.119588,0.004219,-0.002625,1.007594,192.000000,0.000000,16.000000,0.000000,0.000000,15.500000,64.000000,0.000000,0.000000,0.000000,1772617170.692096,0.000000
196.000000,15415.774633,-35790.261422,-4918.099036,7100.903344,-20518.119099,-6172.881266,-17329.709808,-21957.236166,6921.552947,11202.291990,17345.020753,-5972.319063,-6796.606695,-97759.914131,10881.812678,16306.335188,0.004219,-0.002625,1.007594,192.000000,0.000000,0.000000,0.000000,0.000000,0.000000,0.000000,0.000000,0.000000,0.000000,1772617170.692106,0.000000
198.000000,15316.644647,-35896.678078,-5024.292174,7162.527104,-20623.708740,-6273.084137,-17439.032190,-22069.128998,6826.826254,11067.220398,17229.596344,-6116.487815,-6975.644168,-97843.062621,10776.915941,16244.644373,0.004219,-0.002625,1.007594,192.000000,0.000000,0.000000,0.000000,0.000000,0.000000,0.000000,0.000000,0.000000,0.000000,1772617170.692116,0.000000
200.000000,15438.036971,-35764.623972,-4884.772585,7021.465244,-20473.728534,-6130.189434,-17294.394051,-21931.330494,6865.450068,11126.586631,17280.223045,-6052.718288,-6896.004903,-97363.193019,10833.309392,16273.902807,0.004219,-0.002625,1.007594,192.000000,0.000000,0.000000,0.000000,0.000000,0.000000,0.000000,0.000000,0.000000,0.000000,1772617170.692127,0.000000
202.000000,15299.322045,-35911.229063,-5027.644936,7169.947883,-20623.909905,-6279.364977,-17439.635687,-22082.405935,6876.111850,11146.032649,17295.444583,-6037.563805,-6877.140031,-98105.270935,10862.925454,16284.363423,0.004219,-0.002625,1.007594,192.000000,0.000000,0.000000,0.000000,0.000000,0.000000,0.000000,0.000000,0.000000,0.000000,1772617170.692137,0.000000
204.000000,15371.652290,-35838.362376,-4952.185446,7068.135687,-20551.110274,-6212.175633,-17362.566872,-22000.062108,6795.243239,11038.163130,17211.871411,-6145.969766,-6986.462413,-97410.198737,10775.798354,16228.729931,0.004219,-0.002625,1.007594,192.000000,0.000000,0.000000,0.000000,0.000000,0.000000,0.000000,0.000000,0.000000,0.000000,1772617170.692147,0.000000
206.000000,15398.742604,-35808.366335,-4927.106789,7081.390271,-20528.937343,-6175.965807,-17336.035351,-21972.770628,6915.629734,11182.376585,17341.623287,-5991.698026,-6831.073085,-97774.822745,10885.925399,16293.125307,0.004219,-0.002625,1.007594,192.000000,0.000000,0.000000,127.500000,96.000000,15.500000,64.000000,0.000000,0.000000,0.000000,1772617170.692157,0.000000
208.000000,15299.076176,-35911.676098,-5032.830540,7155.978043,-20629.184917,-6282.561276,-17440.328591,-22079.902539,6798.528945,11047.148531,17216.051187,-6134.302155,-6974.124250,-97863.358004,10768.489333,16228.774634,0.004219,-0.002625,1.007594,192.000000,0.000000,0.000000,0.000000,0.000000,0.000000,0.000000,0.000000,0.000000,0.000000,1772617171.171757,0.000000
210.000000,15442.641430,-35756.957323,-4881.710396,7029.668335,-20472.901520,-6129.205958,-17287.822638,-21925.451985,6854.810638,11127.748922,17281.050060,-6055.378146,-6895.021426,-97382.393167,10820.658305,16262.525769,0.004219,-0.002625,1.007594,192.000000,0.000000,0.000000,0.000000,0.000000,0.000000,0.000000,0.000000,0.000000,0.000000,1772617171.171813,0.000000
212.000000,15315.907039,-35893.302964,-5012.401046,7188.835107,-20608.017815,-6248.094886,-17421.933105,-22060.076542,6891.266333,11158.929605,17317.192831,-6023.392799,-6853.246016,-98126.125112,10853.850645,16283.044670,0.004219,-0.002625,1.007594,192.000000,0.000000,0.000000,0.000000,0.000000,0.000000,0.000000,0.000000,0.000000,0.000000,1772617171.171851,0.000000
214.000000,15378.246054,-35821.889141,-4944.898778,7097.148251,-20532.714788,-6176.256380,-17354.028506,-21986.740468,6804.586268,11062.437125,17226.400045,-6126.277879,-6957.248683,-97457.338566,10764.421316,16233.848480,0.004219,-0.002625,1.007594,192.000000,0.000000,0.000000,0.000000,0.000000,0.000000,0.000000,0.000000,0.000000,0.000000,1772617171.171892,0.000000
216.000000,15403.369415,-35795.156454,-4920.445969,7115.633144,-20498.695433,-6142.438190,-17329.866270,-21959.806616,6927.364400,11215.904202,17357.068343,-5971.067366,-6794.550335,-97811.278440,10887.735890,16313.130118,0.004000,-0.012000,1.008000,192.000000,0.000000,16.000000,127.500000,80.000000,15.500000,64.000000,0.000000,0.000000,0.000000,1772617171.171937,0.000000
218.000000,15295.455193,-35902.042496,-5018.458369,7185.370587,-20602.228713,-6251.112372,-17428.057483,-22063.608118,6802.641666,11070.439049,17232.680885,-6118.231251,-6956.779296,-97873.684510,10780.268703,16253.987402,0.004000,-0.012000,1.008000,192.000000,0.000000,0.000000,0.000000,0.000000,0.000000,0.000000,0.000000,0.000000,0.000000,1772617171.171978,0.000000
220.000000,15434.505395,-35757.784338,-4881.464527,7045.068687,-20463.290270,-6113.805606,-17291.018938,-21923.239162,6850.317937,11146.367925,17290.527200,-6043.688183,-6892.450975,-97395.826566,10838.204424,16291.538333,0.004000,-0.012000,1.008000,192.000000,0.000000,0.000000,0.000000,0.000000,0.000000,0.000000,0.000000,0.000000,0.000000,1772617171.172018,0.000000
222.000000,15293.644702,-35909.172703,-5023.062828,7191.427909,-20608.062519,-6261.215360,-17433.801882,-22072.481760,6869.406327,11157.722611,17304.742909,-6029.047791,-6869.205161,-98118.681981,10868.669852,16302.960074,0.004000,-0.012000,1.008000,192.000000,0.000000,0.000000,0.000000,0.000000,0.000000,0.000000,0.000000,0.000000,0.000000,1772617171.172029,0.000000
224.000000,15356.251938,-35839.032929,-4952.632481,7088.118146,-20531.530146,-6186.471127,-17361.672802,-22000.777364,6782.547448,11052.736467,17210.485603,-6135.665612,-6961.629625,-97432.751648,10786.571894,16251.551062,0.004000,-0.012000,1.008000,192.000000,0.000000,0.000000,0.000000,0.000000,0.000000,0.000000,0.000000,0.000000,0.000000,1772617171.172048,0.000000
226.000000,15373.127505,-35825.286606,-4926.391533,7094.577801,-20511.704148,-6166.823943,-17335.767130,-21979.230282,6901.883412,11190.982007,17339.857500,-5991.318046,-6826.133350,-97787.809108,10913.395693,16324.373045,0.002000,-0.006000,1.006000,192.000000,0.000000,8.000000,127.500000,104.000000,15.500000,56.000000,0.000000,0.000000,0.000000,1772617171.172058,0.000000
228.000000,15273.394021,-35925.981215,-5030.573014,7165.075203,-20629.497842,-6269.507858,-17437.936954,-22081.869493,6780.781660,11048.154360,17211.089100,-6140.225368,-6982.953189,-97875.807926,10789.209400,16260.692926,0.002000,-0.006000,1.006000,192.000000,0.000000,0.000000,0.000000,0.000000,0.000000,0.000000,0.000000,0.000000,0.000000,1772617171.172069,0.000000
230.000000,15426.101139,-35763.729902,-4887.231277,7035.300974,-20481.238721,-6124.914423,-17289.096688,-21925.653151,6836.750428,11137.583689,17277.898464,-6054.618186,-6908.454825,-97397.100615,10831.722418,16283.916388,0.002000,-0.006000,1.006000,192.000000,0.000000,0.000000,0.000000,0.000000,0.000000,0.000000,0.000000,0.000000,0.000000,1772617171.172079,0.000000
232.000000,15296.952760,-35904.210616,-5022.369924,7195.205354,-20619.216039,-6267.831477,-17425.956419,-22062.155254,6863.036080,11165.836294,17299.490249,-6027.952555,-6868.400498,-98123.711124,10849.849683,16294.600522,0.002000,-0.006000,1.006000,192.000000,0.000000,0.000000,0.000000,0.000000,0.000000,0.000000,0.000000,0.000000,0.000000,1772617171.172090,0.000000
234.000000,15379.989491,-35812.993147,-4935.198120,7109.575821,-20525.361064,-6171.763679,-17338.829319,-21969.596680,6795.310294,11070.573160,17226.802376,-6118.655934,-6964.915331,-97427.454284,10767.081173,16252.512187,0.002000,-0.006000,1.006000,192.000000,0.000000,0.000000,0.000000,0.000000,0.000000,0.000000,0.000000,0.000000,0.000000,1772617171.172100,0.000000
236.000000,15406.386901,-35785.388742,-4909.583021,7122.450426,-20494.314491,-6139.286594,-17318.533935,-21946.686142,6915.786197,11228.532938,17362.231596,-5960.338528,-6821.864166,-97813.424207,10895.067262,16324.328342,0.002000,-0.008000,1.010000,192.000000,0.000000,8.000000,127.500000,96.000000,15.500000,72.000000,0.000000,0.000000,0.000000,1772617171.172110,0.000000
238.000000,15307.592190,-35888.139711,-5015.574994,7198.111081,-20599.926484,-6240.651755,-17426.917544,-22054.332144,6809.905983,11099.205744,17240.191071,-6103.255582,-6956.399316,-97883.474575,10784.806107,16257.451923,0.002000,-0.008000,1.010000,192.000000,0.000000,0.000000,0.000000,0.000000,0.000000,0.000000,0.000000,0.000000,0.000000,1772617171.172120,0.000000
240.000000,15444.742494,-35744.417995,-4864.387794,7059.194989,-20442.659610,-6082.915495,-17274.545702,-21900.373328,6866.075917,11167.356213,17305.860496,-6028.377238,-6874.971911,-97371.999606,10846.653384,16298.176801,0.002000,-0.008000,1.010000,192.000000,0.000000,0.000000,0.000000,0.000000,0.000000,0.000000,0.000000,0.000000,0.000000,1772617171.172131,0.000000
242.000000,15307.860411,-35889.883147,-5005.829633,7201.061511,-20587.811838,-6232.627479,-17422.246030,-22054.779178,6884.493754,11186.511658,17320.545592,-6013.759197,-6849.177998,-98116.670324,10877.856419,16320.930877,0.002000,-0.008000,1.010000,192.000000,0.000000,0.000000,0.000000,0.000000,0.000000,0.000000,0.000000,0.000000,0.000000,1772617171.172141,0.000000
244.000000,15364.052697,-35828.013519,-4936.271004,7094.153117,-20517.672064,-6170.109650,-17353.536767,-21990.920245,6802.395797,11083.648930,17223.293152,-6126.456693,-6956.868703,-97442.675822,10794.730281,16266.750248,0.002000,-0.008000,1.010000,192.000000,0.000000,0.000000,0.000000,0.000000,0.000000,0.000000,0.000000,0.000000,0.000000,1772617171.172151,0.000000
246.000000,15389.556037,-35804.052449,-4915.685048,7102.378559,-20501.087070,-6152.295310,-17330.425063,-21968.143817,6907.896031,11222.252097,17344.573718,-5983.852563,-6820.813634,-97807.813920,10922.872832,16328.195194,-0.002000,-0.006000,1.014000,192.000000,127.500000,120.000000,127.500000,104.000000,15.500000,88.000000,0.000000,0.000000,0.000000,1772617171.172161,0.000000
248.000000,15286.648606,-35914.626529,-5024.739209,7176.251075,-20620.780661,-6271.810087,-17437.132291,-22071.833559,6791.108166,11074.775287,17216.699388,-6129.720048,-6974.526581,-97885.307418,10802.553392,16251.685173,-0.002000,-0.006000,1.014000,192.000000,0.000000,0.000000,0.000000,0.000000,0.000000,0.000000,0.000000,0.000000,0.000000,1772617171.172173,0.000000
250.000000,15435.645334,-35754.744500,-4874.893114,7044.465190,-20467.738267,-6117.091312,-17283.084069,-21909.872819,6842.450123,11148.200768,17284.581636,-6047.957366,-6893.680321,-97374.279484,10845.334631,16271.444115,-0.002000,-0.006000,1.014000,192.000000,0.000000,0.000000,0.000000,0.000000,0.000000,0.000000,0.000000,0.000000,0.000000,1772617171.172184,0.000000
252.000000,15309.447385,-35893.727648,-5011.305810,7196.322941,-20613.806917,-6249.190122,-17423.631838,-22053.706295,6876.581237,11181.013129,17315.941133,-6017.648401,-6867.797001,-98117.676153,10860.466762,16291.471278,-0.002000,-0.006000,1.014000,192.000000,0.000000,0.000000,0.000000,0.000000,0.000000,0.000000,0.000000,0.000000,0.000000,1772617171.172194,0.000000
254.000000,15378.380165,-35821.240940,-4938.953214,7098.668170,-20534.949962,-6179.363272,-17349.513453,-21980.616090,6794.930314,11074.797639,17225.327161,-6125.517920,-6970.056232,-97447.414392,10771.171543,16241.358667,-0.002000,-0.006000,1.014000,192.000000,0.000000,0.000000,0.000000,0.000000,0.000000,0.000000,0.000000,0.000000,0.000000,1772617171.172204,0.000000
0.000000,15404.218781,-35795.134103,-4911.661734,7112.503900,-20505.490363,-6145.969766,-17325.842956,-21959.091360,6913.483967,11226.655391,17351.391000,-5974.218962,-6809.347190,-97815.972306,10894.240248,16319.656827,0.004000,-0.006000,1.008000,192.000000,0.000000,16.000000,127.500000,104.000000,15.500000,64.000000,0.000000,0.000000,0.000000,1772617171.172215,0.000000
2.000000,15309.805013,-35888.832615,-5010.299982,7186.666988,-20604.262722,-6246.507912,-17426.045826,-22061.037667,6803.714550,11097.328198,17225.483623,-6118.320658,-6968.893942,-97884.390996,10782.347415,16259.105952,0.004000,-0.006000,1.008000,192.000000,0.000000,0.000000,0.000000,0.000000,0.000000,0.000000,0.000000,0.000000,0.000000,1772617171.172225,0.000000
4.000000,15449.503416,-35746.854335,-4865.192457,7054.121143,-20445.386522,-6100.819242,-17279.507790,-21910.208095,6853.335423,11170.016071,17286.414479,-6040.693050,-6890.349911,-97393.881964,10839.478474,16294.891095,0.004000,-0.006000,1.008000,192.000000,0.000000,0.000000,0.000000,0.000000,0.000000,0.000000,0.000000,0.000000,0.000000,1772617171.172235,0.000000
6.000000,15315.839984,-35894.219386,-5002.968610,7208.482290,-20583.877931,-6232.493369,-17424.101224,-22061.417647,6889.031159,11185.796402,17311.582543,-6014.742674,-6846.764010,-98129.991964,10873.631939,16319.232144,0.004000,-0.006000,1.008000,192.000000,0.000000,0.000000,0.000000,0.000000,0.000000,0.000000,0.000000,0.000000,0.000000,1772617171.172246,0.000000
8.000000,15379.050717,-35822.313824,-4934.035830,7109.464062,-20508.261980,-6168.947359,-17354.788465,-21988.550960,6795.802032,11074.819991,17215.358283,-6123.752132,-6936.863892,-97422.827473,10795.981979,16267.912539,0.004000,-0.006000,1.008000,192.000000,0.000000,0.000000,0.000000,0.000000,0.000000,0.000000,0.000000,0.000000,0.000000,1772617171.172256,0.000000
10.000000,15406.722177,-35795.447027,-4907.884289,7115.074350,-20486.960767,-6147.266167,-17329.396883,-21964.813407,6912.791063,11225.023714,17344.953697,-5972.877857,-6804.698027,-97776.365015,10925.644448,16338.722865,0.002000,-0.006000,1.008000,192.000000,0.000000,8.000000,127.500000,104.000000,15.500000,64.000000,0.000000,0.000000,0.000000,1772617171.172266,0.000000
12.000000,15293.398832,-35912.436058,-5026.348534,7183.202467,-20613.069309,-6263.048203,-17441.870861,-22080.818961,6794.684445,11076.541075,17217.034664,-6124.802664,-6963.350709,-97887.252019,10808.901287,16267.152580,0.002000,-0.006000,1.008000,192.000000,0.000000,0.000000,0.000000,0.000000,0.000000,0.000000,0.000000,0.000000,0.000000,1772617171.172277,0.000000
14.000000,15434.125416,-35761.047692,-4882.582114,7045.448666,-20470.912215,-6118.432417,-17292.807078,-21925.563744,6830.782513,11141.986983,17266.946109,-6054.104096,-6908.074845,-97394.083130,10852.733058,16288.654958,0.002000,-0.006000,1.008000,192.000000,0.000000,0.000000,0.000000,0.000000,0.000000,0.000000,0.000000,0.000000,0.000000,1772617171.172287,0.000000
16.000000,15304.530001,-35900.477874,-5022.548738,7198.893392,-20625.094548,-6263.338776,-17431.231431,-22067.407914,6856.598777,11162.036498,17291.868304,-6030.634765,-6891.221630,-98144.319432,10871.396765,16295.494592,0.002000,-0.006000,1.008000,192.000000,0.000000,0.000000,0.000000,0.000000,0.000000,0.000000,0.000000,0.000000,0.000000,1772617171.172297,0.000000
18.000000,15376.189694,-35821.687975,-4949.547940,7108.145309,-20548.025733,-6189.645075,-17355.995459,-21990.339099,6771.595093,11065.141686,17203.176582,-6131.485835,-6994.464337,-97462.837096,10771.685633,16241.090446,0.002000,-0.006000,1.008000,192.000000,0.000000,0.000000,0.000000,0.000000,0.000000,0.000000,0.000000,0.000000,0.000000,1772617171.172307,0.000000
20.000000,15405.381072,-35791.043733,-4917.584946,7119.075313,-20513.671102,-6168.701490,-17329.463938,-21959.337230,6892.495679,11212.797309,17334.068398,-5981.997369,-6837.085704,-97817.469873,10887.490021,16308.436252,0.003000,-0.007000,1.008000,192.000000,0.000000,16.000000,127.500000,96.000000,15.500000,64.000000,0.000000,0.000000,0.000000,1772617171.172318,0.000000
22.000000,15323.104301,-35883.289383,-5009.674133,7200.569773,-20604.665053,-6247.111410,-17425.822309,-22051.828748,6800.205326,11084.230075,17229.506937,-6110.654010,-6959.193284,-97892.236458,10775.016043,16253.428609,0.003000,-0.007000,1.008000,192.000000,0.000000,0.000000,0.000000,0.000000,0.000000,0.000000,0.000000,0.000000,0.000000,1772617171.172328,0.000000
24.000000,15465.216692,-35733.957378,-4860.900922,7074.036547,-20452.807302,-6101.556850,-17278.859589,-21902.697909,6866.232379,11163.154085,17304.497040,-6032.735828,-6873.049661,-97407.829452,10835.253994,16291.583036,0.003000,-0.007000,1.008000,192.000000,0.000000,0.000000,0.000000,0.000000,0.000000,0.000000,0.000000,0.000000,0.000000,1772617171.172340,0.000000
26.000000,15330.748597,-35878.237889,-4993.335008,7224.620250,-20592.192780,-6239.176540,-17416.859259,-22047.939545,6888.360606,11181.728385,17327.139357,-6013.938011,-6846.361678,-98143.403011,10869.586273,16314.761795,0.003000,-0.007000,1.008000,192.000000,0.000000,0.000000,0.000000,0.000000,0.000000,0.000000,0.000000,0.000000,0.000000,1772617171.172350,0.000000
28.000000,15394.182848,-35808.075763,-4920.915356,7129.960612,-20513.112308,-6166.019281,-17346.048933,-21973.977622,6802.440501,11078.619788,17231.987981,-6118.924155,-6955.460543,-97466.167506,10790.259932,16266.325565,0.003000,-0.007000,1.008000,192.000000,0.000000,0.000000,0.000000,0.000000,0.000000,0.000000,0.000000,0.000000,0.000000,1772617171.172360,0.000000
30.000000,15412.533630,-35787.087475,-4895.233201,7140.063601,-20480.367003,-6139.197187,-17321.260848,-21952.944631,6916.948487,11225.515452,17355.213148,-5967.558142,-6813.191690,-97819.101550,10926.627925,16343.930822,0.004500,-0.006500,1.008000,192.000000,0.000000,24.000000,127.500000,104.000000,15.500000,64.000000,0.000000,0.000000,0.000000,1772617171.172370,0.000000
32.000000,15315.348246,-35889.927851,-5002.298057,7209.778692,-20577.954719,-6238.796561,-17427.476338,-22057.595498,6802.015817,11092.857849,17225.774196,-6110.251678,-6951.079601,-97910.564889,10820.501843,16286.263321,0.004500,-0.006500,1.008000,192.000000,0.000000,0.000000,0.000000,0.000000,0.000000,0.000000,0.000000,0.000000,0.000000,1772617171.172381,0.000000
34.000000,15454.085523,-35743.658035,-4859.045727,7077.881047,-20432.400159,-6091.319751,-17281.117115,-21908.464659,6859.526856,11168.451448,17292.784726,-6032.199387,-6867.104097,-97413.797368,10883.086727,16319.679179,0.004500,-0.006500,1.008000,192.000000,0.000000,0.000000,0.000000,0.000000,0.000000,0.000000,0.000000,0.000000,0.000000,1772617171.172398,0.000000
36.000000,15315.303542,-35891.403066,-4997.134804,7219.769921,-20582.112143,-6239.489465,-17419.586172,-22053.661591,6871.216818,11182.086013,17313.460089,-6014.921488,-6842.427771,-98148.521560,10905.997265,16327.167014,0.004500,-0.006500,1.008000,192.000000,0.000000,0.000000,0.000000,0.000000,0.000000,0.000000,0.000000,0.000000,0.000000,1772617171.172408,0.000000
38.000000,15377.396688,-35824.705461,-4930.705420,7122.048095,-20534.190003,-6190.516793,-17349.736971,-21982.426582,6792.806899,11077.412793,17228.791681,-6122.209862,-6950.945491,-97479.958532,10810.801185,16268.314870,0.004500,-0.006500,1.008000,192.000000,0.000000,0.000000,0.000000,0.000000,0.000000,0.000000,0.000000,0.000000,0.000000,1772617171.172418,0.000000
40.000000,15396.663892,-35805.393553,-4907.034922,7130.161778,-20515.928628,-6164.409955,-17321.685531,-21956.789131,6900.050569,11222.319153,17354.654354,-5976.007101,-6826.602736,-97829.986850,10910.847594,16334.163110,0.005250,-0.004250,1.007000,192.000000,0.000000,24.000000,127.500000,120.000000,15.500000,56.000000,0.000000,0.000000,0.000000,1772617171.172428,0.000000
42.000000,15303.233600,-35908.591558,-5008.914174,7205.800081,-20621.294751,-6264.590474,-17421.754291,-22055.762655,6776.735994,11077.144572,17232.524423,-6120.332315,-6974.593636,-97925.674668,10784.515534,16267.040821,0.005250,-0.004250,1.007000,192.000000,0.000000,0.000000,0.000000,0.000000,0.000000,0.000000,0.000000,0.000000,0.000000,1772617171.172439,0.000000
44.000000,15448.184663,-35758.253724,-4860.029204,7074.528286,-20463.491435,-6112.777425,-17273.875150,-21902.407337,6841.086667,11148.424285,17304.295874,-6037.832026,-6895.066130,-97442.295842,10838.137369,16300.635493,0.005250,-0.004250,1.007000,192.000000,0.000000,0.000000,0.000000,0.000000,0.000000,0.000000,0.000000,0.000000,0.000000,1772617171.172449,0.000000
46.000000,15313.515402,-35896.186339,-4995.480775,7229.649392,-20596.998405,-6243.043392,-17418.535640,-22052.052266,6876.022443,11177.548608,17328.256944,-6014.675619,-6851.748449,-98163.318415,10861.718459,16314.225354,0.005250,-0.004250,1.007000,192.000000,0.000000,0.000000,0.000000,0.000000,0.000000,0.000000,0.000000,0.000000,0.000000,1772617171.172459,0.000000
48.000000,15374.155685,-35832.349757,-4918.523719,7132.329897,-20510.050119,-6172.434231,-17346.451264,-21983.119486,6792.561030,11081.681977,17242.403894,-6121.740475,-6941.870682,-97465.295787,10785.208438,16276.294443,0.005250,-0.004250,1.007000,192.000000,0.000000,0.000000,0.000000,0.000000,0.000000,0.000000,0.000000,0.000000,0.000000,1772617171.172469,0.000000
50.000000,15403.212953,-35807.293452,-4885.689007,7133.671002,-20478.645918,-6145.388621,-17317.036368,-21957.280869,6911.740531,11206.695283,17369.965299,-5984.724281,-6800.942934,-97817.156949,10915.720274,16349.138778,0.004625,-0.001125,1.008500,192.000000,0.000000,16.000000,0.000000,8.000000,15.500000,72.000000,0.000000,0.000000,0.000000,1772617171.172479,0.000000
52.000000,15307.279266,-35906.043459,-4990.697502,7220.909860,-20588.750611,-6246.373802,-17421.374312,-22057.751960,6817.147948,11086.264084,17260.508807,-6116.979553,-6936.483912,-97933.386020,10817.305543,16292.342996,0.004625,-0.001125,1.008500,192.000000,0.000000,0.000000,0.000000,0.000000,0.000000,0.000000,0.000000,0.000000,0.000000,1772617171.172490,0.000000
54.000000,15439.646296,-35762.902887,-4850.596768,7085.391234,-20442.726665,-6099.701655,-17277.339670,-21910.476316,6856.017632,11150.458294,17310.889639,-6049.298471,-6860.130353,-97432.125799,10866.613491,16308.570362,0.004625,-0.001125,1.008500,192.000000,0.000000,0.000000,0.000000,0.000000,0.000000,0.000000,0.000000,0.000000,0.000000,1772617171.172500,0.000000
56.000000,15301.579571,-35906.311680,-4988.372921,7236.690192,-20585.084925,-6236.516683,-17416.501631,-22055.807359,6880.582199,11176.140449,17337.130587,-6019.369485,-6847.479266,-98180.238686,10905.326713,16327.904621,0.004625,-0.001125,1.008500,192.000000,0.000000,0.000000,0.000000,0.000000,0.000000,0.000000,0.000000,0.000000,0.000000,1772617171.172512,0.000000
58.000000,15363.829179,-35842.832725,-4922.569385,7140.197711,-20521.941247,-6164.678176,-17347.501796,-21987.545131,6785.989617,11066.236921,17239.341705,-6131.083504,-6968.089279,-97510.401608,10814.869203,16268.963071,0.004625,-0.001125,1.008500,192.000000,0.000000,0.000000,0.000000,0.000000,0.000000,0.000000,0.000000,0.000000,0.000000,1772617171.172522,0.000000
60.000000,15380.861209,-35826.404193,-4901.357579,7144.913929,-20503.076375,-6156.564493,-17327.362874,-21972.167131,6897.591877,11193.574809,17362.723334,-5990.356921,-6820.277193,-97870.890542,10929.846576,16326.921144,0.003313,-0.002563,1.008250,192.000000,0.000000,8.000000,127.500000,112.000000,15.500000,64.000000,0.000000,0.000000,0.000000,1772617171.172532,0.000000
62.000000,15295.254027,-35919.275691,-5000.085235,7210.426892,-20608.353091,-6264.992805,-17428.973905,-22071.833559,6798.193669,11056.156284,17238.045304,-6136.716144,-6956.287558,-97957.615311,10798.552430,16248.377114,0.003313,-0.002563,1.008250,192.000000,0.000000,0.000000,0.000000,0.000000,0.000000,0.000000,0.000000,0.000000,0.000000,1772617171.172542,0.000000
64.000000,15429.498604,-35777.677390,-4852.854294,7076.227018,-20455.243642,-6125.741437,-17281.206522,-21920.422843,6860.353870,11138.500111,17306.687511,-6053.277082,-6865.204199,-97474.415299,10849.022668,16281.614158,0.003313,-0.002563,1.008250,192.000000,0.000000,0.000000,0.000000,0.000000,0.000000,0.000000,0.000000,0.000000,0.000000,1772617171.172554,0.000000
66.000000,15306.631065,-35910.893787,-4986.629484,7227.973011,-20590.784620,-6258.622558,-17420.167317,-22055.628545,6885.343121,11155.956823,17331.117968,-6029.450122,-6842.405420,-98218.303706,10870.010957,16287.559722,0.003313,-0.002563,1.008250,192.000000,0.000000,0.000000,0.000000,0.000000,0.000000,0.000000,0.000000,0.000000,0.000000,1772617171.172565,0.000000
68.000000,15383.610473,-35826.448897,-4914.947440,7139.482455,-20508.083166,-6171.048423,-17348.686439,-21974.715230,6805.010951,11068.874427,17241.912155,-6127.618984,-6944.754057,-97534.630899,10778.525266,16234.273164,0.003313,-0.002563,1.008250,192.000000,0.000000,0.000000,0.000000,0.000000,0.000000,0.000000,0.000000,0.000000,0.000000,1772617171.172575,0.000000
70.000000,15412.757148,-35799.559748,-4886.739539,7154.391069,-20470.532235,-6134.615080,-17318.556287,-21947.446102,6934.427552,11224.062589,17375.843808,-5966.574665,-6774.098489,-97881.664083,10909.797062,16315.231182,0.003313,-0.002563,1.008250,192.000000,0.000000,0.000000,127.500000,104.000000,15.500000,72.000000,0.000000,0.000000,0.000000,1772617171.172585,0.000000
72.000000,15305.580533,-35909.597386,-4991.658627,7237.517206,-20574.959585,-6237.835436,-17426.314047,-22059.048362,6819.114902,11080.765555,17247.902423,-6111.771597,-6927.476159,-97992.416977,10798.239505,16256.691963,0.003313,-0.002563,1.008250,192.000000,0.000000,0.000000,0.000000,0.000000,0.000000,0.000000,0.000000,0.000000,0.000000,1772617171.651174,0.000000
74.000000,15444.943660,-35760.757120,-4844.047707,7104.323161,-20424.845269,-6083.943675,-17280.334804,-21911.236276,6879.866943,11153.274614,17313.907124,-6036.870901,-6857.582254,-97481.813727,10863.618358,16294.645225,0.003313,-0.002563,1.008250,192.000000,0.000000,0.000000,0.000000,0.000000,0.000000,0.000000,0.000000,0.000000,0.000000,1772617171.651273,0.000000
76.000000,15310.386158,-35902.154255,-4980.996845,7254.459829,-20566.801198,-6225.787845,-17420.100262,-22056.969649,6897.703635,11179.292045,17334.604840,-6015.368523,-6822.802940,-98206.501985,10893.055605,16311.721958,0.003313,-0.002563,1.008250,192.000000,0.000000,0.000000,0.000000,0.000000,0.000000,0.000000,0.000000,0.000000,0.000000,1772617171.651331,0.000000
78.000000,15372.300490,-35834.853153,-4912.019361,7156.872112,-20493.710994,-6158.844371,-17350.094599,-21986.472247,6806.575573,11074.730584,17242.783873,-6122.142806,-6944.374078,-97539.235358,10811.292924,16261.497588,0.003313,-0.002563,1.008250,192.000000,0.000000,0.000000,0.000000,0.000000,0.000000,0.000000,0.000000,0.000000,0.000000,1772617171.651373,0.000000
80.000000,15389.980720,-35815.675356,-4896.440196,7154.771048,-20481.842218,-6147.802609,-17332.727293,-21969.999012,6915.383865,11211.545612,17366.321965,-5976.968226,-6793.142175,-97911.503662,10935.255699,16323.657790,0.003313,-0.002563,1.008250,192.000000,0.000000,0.000000,0.000000,0.000000,0.000000,0.000000,0.000000,0.000000,0.000000,1772617171.651414,0.000000
82.000000,15287.833248,-35926.361194,-5008.981229,7223.860291,-20606.542600,-6267.406794,-17444.351905,-22079.321394,6793.544506,11062.526532,17235.385446,-6130.703524,-6944.530540,-98012.377085,10808.454252,16239.190547,0.002000,-0.006000,1.012000,192.000000,0.000000,8.000000,127.500000,104.000000,15.500000,80.000000,0.000000,0.000000,0.000000,1772617171.651454,0.000000
84.000000,15427.866927,-35777.297411,-4862.800820,7088.587533,-20462.530310,-6115.861966,-17294.103479,-21923.105052,6847.300452,11129.559413,17303.938246,-6055.154628,-6891.668664,-97491.402625,10849.402648,16259.575338,0.002000,-0.006000,1.012000,192.000000,0.000000,0.000000,0.000000,0.000000,0.000000,0.000000,0.000000,0.000000,0.000000,1772617171.651501,0.000000
86.000000,15306.318141,-35907.541026,-4997.514784,7243.149846,-20602.608693,-6244.093924,-17430.985562,-22059.227176,6874.658987,11159.242530,17330.648581,-6026.298526,-6851.301414,-98231.692401,10858.432753,16279.893074,0.002000,-0.006000,1.012000,192.000000,0.000000,0.000000,0.000000,0.000000,0.000000,0.000000,0.000000,0.000000,0.000000,1772617171.651551,0.000000
88.000000,15374.870941,-35834.651987,-4927.889100,7152.804095,-20528.780881,-6181.620798,-17360.376401,-21988.081573,6797.500765,11058.749087,17243.789702,-6130.725876,-6956.153447,-97553.339309,10762.186141,16233.513204,0.002000,-0.006000,1.012000,192.000000,0.000000,0.000000,0.000000,0.000000,0.000000,0.000000,0.000000,0.000000,0.000000,1772617171.651619,0.000000
90.000000,15415.707578,-35791.334306,-4888.773547,7162.616511,-20485.574959,-6130.144731,-17322.981933,-21950.061256,6922.379961,11216.261830,17375.240311,-5972.877857,-6802.351094,-97883.005188,10886.975931,16316.594638,0.002000,-0.006000,1.012000,192.000000,0.000000,0.000000,0.000000,0.000000,0.000000,0.000000,0.000000,0.000000,0.000000,1772617171.651660,0.000000
92.000000,15312.889554,-35898.577976,-4992.820918,7240.534692,-20591.455172,-6234.169750,-17428.124538,-22059.338934,6817.058541,11080.497334,17258.832426,-6112.576260,-6924.503377,-98007.347942,10782.861505,16256.647260,0.004000,-0.012000,1.012000,192.000000,0.000000,16.000000,127.500000,80.000000,15.500000,80.000000,0.000000,0.000000,0.000000,1772617171.651711,0.000000
94.000000,15456.588919,-35750.385910,-4841.924291,7106.021894,-20434.948258,-6087.877582,-17275.506827,-21903.882552,6871.932074,11153.252262,17327.295819,-6037.653212,-6878.481135,-97521.041038,10843.099456,16294.868743,0.004000,-0.012000,1.012000,192.000000,0.000000,0.000000,0.000000,0.000000,0.000000,0.000000,0.000000,0.000000,0.000000,1772617171.651752,0.000000
96.000000,15331.754426,-35886.351572,-4979.789851,7255.219788,-20574.803123,-6216.556575,-17416.859259,-22044.609135,6900.072920,11181.862495,17356.643660,-6008.998276,-6843.634766,-98282.542620,10874.548361,16316.505231,0.004000,-0.012000,1.012000,192.000000,0.000000,0.000000,0.000000,0.000000,0.000000,0.000000,0.000000,0.000000,0.000000,1772617171.651792,0.000000
98.000000,15381.084726,-35825.197199,-4915.886213,7160.247226,-20508.776070,-6179.027996,-17350.742799,-21978.246805,6803.960419,11073.858866,17254.764408,-6123.394504,-6954.611177,-97619.031086,10783.777926,16252.154559,0.004000,-0.012000,1.012000,192.000000,0.000000,0.000000,0.000000,0.000000,0.000000,0.000000,0.000000,0.000000,0.000000,1772617171.651804,0.000000
100.000000,15406.744529,-35791.669582,-4891.098129,7171.579560,-20485.418497,-6154.329318,-17321.819642,-21949.994200,6901.212859,11217.424121,17373.474523,-5968.608674,-6816.209175,-97965.572532,10914.200355,16308.436252,0.004000,-0.012000,1.012000,192.000000,0.000000,0.000000,0.000000,0.000000,0.000000,0.000000,0.000000,0.000000,0.000000,1772617171.651816,0.000000
102.000000,15298.517382,-35908.949185,-5002.141595,7247.016698,-20598.160696,-6256.834418,-17430.829100,-22063.429304,6798.752463,11079.647968,17251.970440,-6107.077731,-6952.376002,-98076.705405,10804.922677,16243.437379,0.002000,-0.012000,1.016000,192.000000,0.000000,8.000000,127.500000,80.000000,15.500000,96.000000,0.000000,0.000000,0.000000,1772617171.651828,0.000000
104.000000,15433.387808,-35767.775568,-4860.297425,7105.865432,-20455.400104,-6106.697751,-17285.967444,-21919.439366,6839.365582,11143.238681,17299.825525,-6045.163398,-6876.737699,-97557.452030,10860.712631,16269.611272,0.002000,-0.012000,1.016000,192.000000,0.000000,0.000000,0.000000,0.000000,0.000000,0.000000,0.000000,0.000000,0.000000,1772617171.651839,0.000000
106.000000,15306.631065,-35907.630433,-4994.027912,7250.235349,-20600.999367,-6246.507912,-17422.782472,-22063.026972,6870.099231,11162.841161,17329.843918,-6022.856357,-6872.557923,-98302.860356,10881.745622,16284.676347,0.002000,-0.012000,1.016000,192.000000,0.000000,0.000000,0.000000,0.000000,0.000000,0.000000,0.000000,0.000000,0.000000,1772617171.651850,0.000000
108.000000,15372.367546,-35841.178696,-4929.431370,7162.705918,-20532.312457,-6197.177612,-17356.978936,-21995.234131,6793.455099,11061.543055,17240.995734,-6133.363382,-6964.736517,-97645.249682,10779.754612,16231.501547,0.002000,-0.012000,1.016000,192.000000,0.000000,0.000000,0.000000,0.000000,0.000000,0.000000,0.000000,0.000000,0.000000,1772617171.651862,0.000000
110.000000,15408.800889,-35801.705516,-4892.752158,7169.858476,-20495.901465,-6154.441077,-17321.350255,-21954.933936,6913.394560,11208.595182,17376.581416,-5980.075119,-6819.785454,-97971.294578,10887.266503,16306.089319,0.002000,-0.012000,1.016000,192.000000,0.000000,0.000000,0.000000,0.000000,0.000000,0.000000,0.000000,0.000000,0.000000,1772617171.651873,0.000000
112.000000,15318.119862,-35898.488569,-4992.507993,7243.239253,-20592.796277,-6250.128895,-17425.241163,-22057.327277,6813.258745,11079.491506,17265.984984,-6113.872661,-6945.514017,-98091.390501,10776.625368,16250.344068,0.004000,-0.014000,1.012000,192.000000,0.000000,16.000000,127.500000,72.000000,15.500000,80.000000,0.000000,0.000000,0.000000,1772617171.651884,0.000000
114.000000,15456.477160,-35750.341207,-4849.747401,7105.127824,-20441.407912,-6101.646257,-17282.860551,-21912.733842,6871.149763,11154.079277,17326.915840,-6040.670698,-6868.489905,-97600.032103,10836.304526,16287.760888,0.004000,-0.014000,1.012000,192.000000,0.000000,0.000000,0.000000,0.000000,0.000000,0.000000,0.000000,0.000000,0.000000,1772617171.651896,0.000000
116.000000,15322.769025,-35894.465255,-4988.551735,7255.510361,-20586.738954,-6241.545825,-17425.263515,-22061.194129,6890.260505,11180.096707,17347.658258,-6017.983677,-6845.422905,-98335.292737,10861.941977,16301.574266,0.004000,-0.014000,1.012000,192.000000,0.000000,0.000000,0.000000,0.000000,0.000000,0.000000,0.000000,0.000000,0.000000,1772617171.651907,0.000000
118.000000,15380.458877,-35832.372109,-4921.161225,7160.336633,-20519.035520,-6175.921103,-17357.224805,-21995.100021,6796.673750,11066.058107,17250.606984,-6137.386696,-6967.485782,-97634.744362,10770.568045,16240.375190,0.004000,-0.014000,1.012000,192.000000,0.000000,0.000000,0.000000,0.000000,0.000000,0.000000,0.000000,0.000000,0.000000,1772617171.651919,0.000000
120.000000,15416.132261,-35794.731771,-4884.549068,7163.175304,-20481.015203,-6139.353650,-17319.584467,-21957.079703,6918.580165,11217.312362,17385.030375,-5984.299598,-6802.485204,-97964.298482,10904.991437,16322.808423,0.004000,-0.014000,1.012000,192.000000,0.000000,0.000000,0.000000,0.000000,0.000000,0.000000,0.000000,0.000000,0.000000,1772617171.651931,0.000000
122.000000,15309.737958,-35903.584767,-4992.128014,7240.154712,-20591.857504,-6244.853883,-17428.437463,-22062.334068,6810.598887,11084.140668,17269.650670,-6122.209862,-6926.403275,-98102.544022,10802.016950,16253.719181,0.002000,-0.012000,1.012000,192.000000,0.000000,8.000000,127.500000,80.000000,15.500000,80.000000,0.000000,0.000000,0.000000,1772617171.651942,0.000000
124.000000,15445.793026,-35754.722149,-4844.315928,7102.915001,-20443.888956,-6108.083559,-17281.430040,-21910.565723,6860.376222,11150.078315,17327.787558,-6048.359698,-6887.824164,-97596.366417,10860.533817,16276.495609,0.002000,-0.012000,1.012000,192.000000,0.000000,0.000000,0.000000,0.000000,0.000000,0.000000,0.000000,0.000000,0.000000,1772617171.651954,0.000000
126.000000,15318.142214,-35892.677116,-4984.461365,7246.256738,-20585.889588,-6255.493314,-17425.062349,-22057.103760,6886.214839,11173.435888,17347.546500,-6022.297564,-6863.863094,-98346.356850,10891.401576,16280.384812,0.002000,-0.012000,1.012000,192.000000,0.000000,0.000000,0.000000,0.000000,0.000000,0.000000,0.000000,0.000000,0.000000,1772617171.651965,0.000000
128.000000,15384.526895,-35823.543170,-4922.167053,7154.234607,-20519.013169,-6190.427386,-17355.794293,-21986.986338,6802.552259,11071.422526,17251.143426,-6127.462521,-6963.574226,-97666.796764,10797.323084,16222.292629,0.002000,-0.012000,1.012000,192.000000,0.000000,0.000000,0.000000,0.000000,0.000000,0.000000,0.000000,0.000000,0.000000,1772617171.651976,0.000000
130.000000,15418.412139,-35787.847434,-4885.934876,7162.683566,-20485.753773,-6153.614063,-17318.913915,-21950.016552,6921.105912,11215.703036,17377.699003,-5976.320025,-6807.983733,-98006.342114,10904.924381,16296.634531,0.002000,-0.012000,1.012000,192.000000,0.000000,0.000000,0.000000,0.000000,0.000000,0.000000,0.000000,0.000000,0.000000,1772617171.651988,0.000000
132.000000,15311.950780,-35898.063886,-4997.604191,7241.585224,-20603.525114,-6253.280491,-17431.790225,-22059.920080,6815.516271,11078.910360,17260.017068,-6117.784216,-6950.811380,-98137.904482,10781.855676,16234.519033,0.002000,-0.012000,1.012000,192.000000,0.000000,0.000000,127.500000,88.000000,15.500000,72.000000,0.000000,0.000000,0.000000,1772617171.651998,0.000000
134.000000,15460.142846,-35742.227524,-4848.406297,7112.235679,-20453.701371,-6103.032065,-17280.312452,-21901.759136,6867.394670,11152.246434,17319.964447,-6043.017631,-6887.734757,-97607.788158,10824.681619,16272.584054,0.002000,-0.012000,1.012000,192.000000,0.000000,0.000000,0.000000,0.000000,0.000000,0.000000,0.000000,0.000000,0.000000,1772617171.652010,0.000000
136.000000,15320.645609,-35888.497339,-4988.752900,7260.830076,-20601.245237,-6242.663412,-17422.201326,-22049.593574,6891.132223,11181.773088,17347.479444,-6009.042979,-6862.477286,-98346.245092,10851.704878,16297.819173,0.002000,-0.012000,1.012000,192.000000,0.000000,0.000000,0.000000,0.000000,0.000000,0.000000,0.000000,0.000000,0.000000,1772617171.652022,0.000000
138.000000,15381.889389,-35819.385745,-4918.255498,7168.427964,-20527.417425,-6172.054252,-17350.675744,-21981.018422,6796.785509,11073.143610,17247.924775,-6121.069923,-6972.939607,-97664.472182,10763.996633,16248.846501,0.002000,-0.012000,1.012000,192.000000,0.000000,0.000000,0.000000,0.000000,0.000000,0.000000,0.000000,0.000000,0.000000,1772617171.652034,0.000000
140.000000,15412.421872,-35791.244899,-4881.710396,7171.333691,-20490.335881,-6136.537330,-17316.477575,-21951.022381,6919.585993,11227.482406,17379.867122,-5967.826363,-6808.341361,-98004.039884,10895.000207,16318.069854,0.002000,-0.012000,1.012000,192.000000,0.000000,0.000000,0.000000,0.000000,0.000000,0.000000,0.000000,0.000000,0.000000,1772617171.652045,0.000000
142.000000,15310.989655,-35903.741229,-4986.316560,7250.682384,-20591.321062,-6246.127933,-17429.264477,-22063.071676,6817.349114,11086.018215,17261.134656,-6110.274030,-6954.007680,-98145.481723,10788.002406,16248.958260,0.002000,-0.012000,1.012000,192.000000,0.000000,0.000000,127.500000,104.000000,15.500000,72.000000,0.000000,0.000000,0.000000,1772617171.652057,0.000000
144.000000,15460.478122,-35748.284846,-4833.564738,7112.436844,-20431.506089,-6096.930039,-17277.585540,-21905.737746,6874.368414,11146.993774,17320.143261,-6046.549207,-6877.363548,-97622.964993,10844.932299,16275.936815,0.002000,-0.012000,1.012000,192.000000,0.000000,0.000000,0.000000,0.000000,0.000000,0.000000,0.000000,0.000000,0.000000,1772617171.652069,0.000000
146.000000,15328.021685,-35888.005601,-4967.451688,7260.897131,-20571.428009,-6232.873348,-17415.384044,-22046.017295,6916.434397,11189.842068,17360.532863,-6005.064369,-6821.305373,-98382.074938,10884.338425,16293.438231,0.002000,-0.012000,1.012000,192.000000,0.000000,0.000000,0.000000,0.000000,0.000000,0.000000,0.000000,0.000000,0.000000,1772617171.652080,0.000000
148.000000,15384.951578,-35822.447934,-4906.721998,7166.595121,-20501.869381,-6165.818115,-17351.681572,-21979.677317,6821.975925,11075.110564,17253.423304,-6125.964955,-6920.591822,-97706.046427,10790.103470,16236.106007,0.002000,-0.012000,1.012000,192.000000,0.000000,0.000000,0.000000,0.000000,0.000000,0.000000,0.000000,0.000000,0.000000,1772617171.652094,0.000000
150.000000,15423.620096,-35781.298373,-4871.942684,7172.004243,-20471.605119,-6136.470275,-17315.695264,-21940.561764,6943.815284,11234.366743,17380.492971,-5968.094584,-6766.275378,-98027.173940,10917.709579,16309.799708,0.002000,-0.012000,1.012000,192.000000,0.000000,0.000000,0.000000,0.000000,0.000000,0.000000,0.000000,0.000000,0.000000,1772617171.652105,0.000000
152.000000,15310.184993,-35900.075543,-4991.837441,7248.380154,-20601.558161,-6256.968529,-17428.638629,-22060.702391,6830.335478,11097.752881,17257.647783,-6108.754111,-6946.586901,-98171.230933,10796.674883,16248.377114,0.002000,-0.011000,1.011000,192.000000,0.000000,8.000000,127.500000,88.000000,15.500000,72.000000,0.000000,0.000000,0.000000,1772617171.652117,0.000000
154.000000,15440.875642,-35758.589001,-4854.754192,7107.564164,-20460.026915,-6111.905707,-17284.022842,-21916.041901,6859.169228,11156.806190,17303.468860,-6045.364564,-6895.311999,-97668.227275,10832.996468,16273.478123,0.002000,-0.011000,1.011000,192.000000,0.000000,0.000000,0.000000,0.000000,0.000000,0.000000,0.000000,0.000000,0.000000,1772617171.652129,0.000000
156.000000,15309.827365,-35904.925871,-4990.026950,7253.275186,-20599.501800,-6242.775171,-17423.385969,-22059.875376,6876.134202,11167.199751,17321.372607,-6028.131369,-6875.441298,-98416.541328,10849.201482,16292.678272,0.002000,-0.011000,1.011000,192.000000,0.000000,0.000000,0.000000,0.000000,0.000000,0.000000,0.000000,0.000000,0.000000,1772617171.652140,0.000000
158.000000,15375.183865,-35830.472211,-4922.859958,7156.179208,-20525.137547,-6167.203923,-17356.844825,-21989.981471,6800.987637,11067.756840,17236.346571,-6133.408086,-6975.934741,-97767.133745,10760.487409,16244.219690,0.002000,-0.011000,1.011000,192.000000,0.000000,0.000000,0.000000,0.000000,0.000000,0.000000,0.000000,0.000000,0.000000,1772617171.652151,0.000000
160.000000,15392.953502,-35815.608301,-4894.249725,7150.278348,-20500.483573,-6145.880359,-17330.358008,-21965.707477,6902.218688,11207.812870,17355.414314,-5987.071215,-6831.631879,-98101.337028,10880.203352,16309.509135,0.002000,-0.011000,1.011000,192.000000,0.000000,0.000000,0.000000,0.000000,0.000000,0.000000,0.000000,0.000000,0.000000,1772617171.652162,0.000000
162.000000,15295.634007,-35922.360232,-5001.515746,7230.498759,-20603.726280,-6257.326157,-17441.245012,-22078.516731,6798.394835,11061.498351,17228.568164,-6130.994097,-6955.460543,-98206.926669,10775.418374,16243.727951,0.002000,-0.010500,1.012500,192.000000,0.000000,8.000000,127.500000,88.000000,15.500000,88.000000,0.000000,0.000000,0.000000,1772617171.652173,0.000000
164.000000,15437.344067,-35769.496652,-4849.546236,7090.688597,-20439.150386,-6101.668608,-17291.801249,-21927.485994,6850.988490,11137.561338,17282.994662,-6061.100192,-6881.185696,-97667.467316,10832.817654,16271.354708,0.002000,-0.010500,1.012500,192.000000,0.000000,0.000000,0.000000,0.000000,0.000000,0.000000,0.000000,0.000000,0.000000,1772617171.652184,0.000000
166.000000,15305.580533,-35913.151313,-4978.851077,7239.841788,-20573.462018,-6241.970508,-17430.650286,-22071.095952,6883.666740,11165.232797,17317.393996,-6033.182863,-6849.937958,-98425.750247,10875.688300,16293.795859,0.002000,-0.010500,1.012500,192.000000,0.000000,0.000000,0.000000,0.000000,0.000000,0.000000,0.000000,0.000000,0.000000,1772617171.652195,0.000000
168.000000,15382.112906,-35832.886199,-4899.971771,7150.457162,-20493.733346,-6172.143659,-17353.737933,-21989.176808,6806.508518,11066.862770,17234.446673,-6135.419743,-6936.349802,-97751.621634,10795.825517,16232.775597,0.002000,-0.010500,1.012500,192.000000,0.000000,0.000000,0.000000,0.000000,0.000000,0.000000,0.000000,0.000000,0.000000,1772617171.652207,0.000000
170.000000,15417.965104,-35796.475207,-4865.974768,7156.134505,-20463.111456,-6132.558719,-17320.344427,-21950.910622,6929.107836,11221.201565,17371.775791,-5976.118860,-6786.481355,-98091.658722,10923.543384,16298.422670,0.002000,-0.010500,1.012500,192.000000,0.000000,0.000000,0.000000,0.000000,0.000000,0.000000,0.000000,0.000000,0.000000,1772617171.652219,0.000000
172.000000,15316.689350,-35902.534235,-4980.616865,7241.562872,-20583.922635,-6239.243596,-17430.247954,-22059.137769,6825.283983,11091.516744,17260.352345,-6112.240984,-6928.549043,-98226.618555,10811.069406,16237.648277,0.003000,-0.011250,1.009250,192.000000,0.000000,16.000000,127.500000,80.000000,15.500000,56.000000,0.000000,0.000000,0.000000,1772617171.652231,0.000000
174.000000,15457.907672,-35750.318855,-4836.202244,7109.687580,-20437.719874,-6081.060300,-17277.294967,-21902.519095,6870.590969,11160.293062,17311.180211,-6040.938919,-6871.730908,-97702.984238,10848.575634,16265.140923,0.003000,-0.011250,1.009250,192.000000,0.000000,0.000000,0.000000,0.000000,0.000000,0.000000,0.000000,0.000000,0.000000,1772617171.652242,0.000000
176.000000,15322.277286,-35895.180511,-4982.092080,7262.260587,-20586.738954,-6230.995802,-17421.486070,-22050.845271,6904.610324,11187.696300,17342.740875,-6010.428788,-6841.623109,-98468.330320,10866.345270,16290.063118,0.003000,-0.011250,1.009250,192.000000,0.000000,0.000000,0.000000,0.000000,0.000000,0.000000,0.000000,0.000000,0.000000,1772617171.652253,0.000000
178.000000,15383.968101,-35823.766687,-4918.970754,7172.495982,-20521.583619,-6152.451772,-17354.229671,-21983.141837,6800.674713,11082.330177,17239.922850,-6127.909556,-6945.044630,-97781.818841,10765.002461,16238.654106,0.003000,-0.011250,1.009250,192.000000,0.000000,0.000000,0.000000,0.000000,0.000000,0.000000,0.000000,0.000000,0.000000,1772617171.652264,0.000000
180.000000,15411.550154,-35803.270138,-4887.812422,7171.512505,-20492.369889,-6135.866777,-17327.698151,-21961.885329,6913.931002,11229.806987,17363.460942,-5976.074156,-6817.170300,-98110.121263,10887.065338,16318.472185,0.003000,-0.011250,1.009250,192.000000,0.000000,0.000000,0.000000,0.000000,0.000000,0.000000,0.000000,0.000000,0.000000,1772617171.652276,0.000000
182.000000,15308.419205,-35919.543912,-4994.162022,7246.726125,-20596.864295,-6242.439895,-17437.579326,-22075.454542,6806.709684,11078.485677,17244.862586,-6123.528614,-6954.722936,-98233.927576,10781.453345,16263.062210,0.002500,-0.010625,1.008625,192.000000,0.000000,8.000000,127.500000,88.000000,15.500000,64.000000,0.000000,0.000000,0.000000,1772617171.652287,0.000000
184.000000,15449.235195,-35770.211908,-4848.518056,7104.323161,-20437.272839,-6096.728873,-17292.628264,-21927.843622,6861.024423,11148.871320,17302.440679,-6055.802829,-6879.822240,-97728.889910,10839.657288,16292.410051,0.002500,-0.010625,1.008625,192.000000,0.000000,0.000000,0.000000,0.000000,0.000000,0.000000,0.000000,0.000000,0.000000,1772617171.652299,0.000000
186.000000,15311.079062,-35918.560436,-4983.209668,7252.403468,-20575.786600,-6230.213491,-17431.969038,-22072.347650,6886.147784,11167.691489,17322.758415,-6031.215910,-6844.126504,-98481.808422,10874.280140,16306.223429,0.002500,-0.010625,1.008625,192.000000,0.000000,0.000000,0.000000,0.000000,0.000000,0.000000,0.000000,0.000000,0.000000,1772617171.652310,0.000000
188.000000,15370.020612,-35849.873525,-4916.266193,7160.850723,-20505.311549,-6170.266112,-17368.221863,-22005.493582,6793.723320,11060.805447,17219.515707,-6143.801647,-6953.135962,-97803.231812,10783.397947,16242.811530,0.002500,-0.010625,1.008625,192.000000,0.000000,0.000000,0.000000,0.000000,0.000000,0.000000,0.000000,0.000000,0.000000,1772617171.652320,0.000000
190.000000,15415.707578,-35802.912510,-4869.126364,7165.499886,-20458.149369,-6129.384772,-17324.032465,-21960.745390,6916.054418,11216.261830,17359.437628,-5986.870049,-6787.330721,-98103.035760,10924.102178,16307.966865,0.002500,-0.010625,1.008625,192.000000,0.000000,0.000000,0.000000,0.000000,0.000000,0.000000,0.000000,0.000000,0.000000,1772617171.652331,0.000000
192.000000,15316.018798,-35909.396220,-4981.309769,7243.328660,-20569.885739,-6232.180444,-17435.992352,-22069.553682,6820.925393,11088.879238,17251.322240,-6123.662725,-6921.597650,-98236.140399,10819.853642,16242.655068,0.000250,-0.010312,1.008313,192.000000,127.500000,120.000000,127.500000,88.000000,15.500000,64.000000,0.000000,0.000000,0.000000,1772617172.133096,0.000000
194.000000,15459.718163,-35754.498631,-4834.838788,7112.347437,-20421.917191,-6078.668663,-17281.921778,-21911.504497,6873.474344,11158.840198,17308.654464,-6047.197407,-6861.158533,-97724.084285,10870.033308,16269.611272,0.000250,-0.010312,1.008313,192.000000,0.000000,0.000000,0.000000,0.000000,0.000000,0.000000,0.000000,0.000000,0.000000,1772617172.133149,0.000000
196.000000,15324.981847,-35895.068752,-4975.520667,7257.723183,-20583.542655,-6225.251403,-17421.195498,-22053.706295,6898.217726,11193.351292,17334.671895,-6013.334514,-6831.788341,-98494.995951,10885.925399,16287.179743,0.000250,-0.010312,1.008313,192.000000,0.000000,0.000000,0.000000,0.000000,0.000000,0.000000,0.000000,0.000000,0.000000,1772617172.133186,0.000000
198.000000,15374.848589,-35841.491621,-4917.920222,7159.979005,-20532.111291,-6175.786993,-17359.303517,-21995.055317,6795.712625,11076.496372,17231.317429,-6131.172911,-6966.502305,-97837.921719,10776.334796,16234.563736,0.000250,-0.010312,1.008313,192.000000,0.000000,0.000000,0.000000,0.000000,0.000000,0.000000,0.000000,0.000000,0.000000,1772617172.133223,0.000000
200.000000,15407.012750,-35810.065068,-4883.565591,7163.756450,-20497.890770,-6132.961051,-17321.238496,-21960.745390,6904.565621,11214.093711,17353.469712,-5983.897267,-6827.072123,-98145.325261,10891.714500,16314.314760,0.000250,-0.010312,1.008313,192.000000,0.000000,0.000000,0.000000,0.000000,0.000000,0.000000,0.000000,0.000000,0.000000,1772617172.133260,0.000000
202.000000,15302.339530,-35922.226122,-4994.653761,7243.820398,-20608.844830,-6242.037564,-17432.773701,-22073.621699,6796.696102,11078.686843,17233.440844,-6123.014524,-6945.514017,-98293.070292,10778.502915,16257.027239,-0.001875,-0.010156,1.008156,192.000000,127.500000,112.000000,127.500000,88.000000,15.500000,64.000000,0.000000,0.000000,0.000000,1772617172.133301,0.000000
204.000000,15437.277012,-35777.319762,-4847.869855,7106.513632,-20453.164930,-6098.360550,-17284.849856,-21927.463642,6843.232434,11145.585614,17284.782801,-6060.384936,-6897.278952,-97779.807184,10834.449331,16284.698699,-0.001875,-0.010156,1.008156,192.000000,0.000000,0.000000,0.000000,0.000000,0.000000,0.000000,0.000000,0.000000,0.000000,1772617172.133338,0.000000
206.000000,15307.793356,-35915.252377,-4980.683920,7252.761096,-20591.142248,-6228.872386,-17420.524945,-22066.603251,6868.266388,11168.853780,17310.509659,-6030.254785,-6866.500600,-98545.510894,10874.660119,16308.771528,-0.001875,-0.010156,1.008156,192.000000,0.000000,0.000000,0.000000,0.000000,0.000000,0.000000,0.000000,0.000000,0.000000,1772617172.133349,0.000000
208.000000,15370.266482,-35847.772461,-4917.182614,7164.494057,-20515.325131,-6155.379850,-17359.392924,-21999.570370,6782.189820,11069.656738,17217.816975,-6135.084466,-6964.401241,-97897.980857,10783.621464,16251.774579,-0.001875,-0.010156,1.008156,192.000000,0.000000,0.000000,0.000000,0.000000,0.000000,0.000000,0.000000,0.000000,0.000000,1772617172.133359,0.000000
210.000000,15413.338293,-35802.823103,-4875.541315,7161.007185,-20472.029802,-6124.221519,-17323.808947,-21961.952384,6906.443168,11219.189908,17352.754456,-5984.836040,-6809.704817,-98214.034523,10914.021541,16322.070816,-0.001875,-0.010156,1.008156,192.000000,0.000000,0.000000,0.000000,0.000000,0.000000,0.000000,0.000000,0.000000,0.000000,1772617172.133370,0.000000
212.000000,15311.079062,-35909.306813,-4977.934656,7242.479294,-20573.149094,-6226.570156,-17429.890326,-22069.128998,6808.676637,11093.036663,17244.974344,-6117.895975,-6946.273976,-98348.592025,10816.255011,16258.167178,-0.001875,-0.010156,1.008156,192.000000,0.000000,0.000000,0.000000,0.000000,0.000000,0.000000,0.000000,0.000000,0.000000,1772617172.133380,0.000000
214.000000,15453.258509,-35759.617181,-4830.033163,7106.603039,-20422.923019,-6086.536477,-17280.938301,-21911.392738,6858.096344,11161.477704,17303.379453,-6049.365526,-6873.451993,-97830.232719,10873.453125,16276.652071,0.002000,-0.010000,1.010000,192.000000,0.000000,8.000000,127.500000,88.000000,15.500000,72.000000,0.000000,0.000000,0.000000,1772617172.133391,0.000000
216.000000,15332.268516,-35888.542043,-4963.003691,7256.493837,-20564.521320,-6223.552671,-17410.466660,-22040.272896,6879.106984,11185.930513,17335.320095,-6012.015761,-6839.209120,-98577.965626,10897.704768,16288.766717,0.002000,-0.010000,1.010000,192.000000,0.000000,0.000000,0.000000,0.000000,0.000000,0.000000,0.000000,0.000000,0.000000,1772617172.133410,0.000000
218.000000,15389.667796,-35824.303129,-4903.123367,7168.852647,-20506.786764,-6161.303063,-17345.847767,-21973.977622,6796.472585,11082.173715,17248.952955,-6112.240984,-6949.112648,-97921.740761,10790.930485,16232.283858,0.002000,-0.010000,1.010000,192.000000,0.000000,0.000000,0.000000,0.000000,0.000000,0.000000,0.000000,0.000000,0.000000,1772617172.133420,0.000000
220.000000,15421.474328,-35792.250728,-4868.433460,7169.076165,-20477.036593,-6120.980516,-17308.252133,-21945.188575,6905.616153,11234.590260,17374.346241,-5960.562046,-6803.893364,-98244.455247,10903.024483,16308.592714,0.002000,-0.010000,1.010000,192.000000,0.000000,0.000000,0.000000,0.000000,0.000000,0.000000,0.000000,0.000000,0.000000,1772617172.133430,0.000000
222.000000,15312.263705,-35911.430229,-4989.490508,7253.431648,-20600.194705,-6237.544863,-17429.175070,-22072.168836,6792.136346,11092.053186,17247.164815,-6111.212803,-6945.156389,-98395.575392,10779.911075,16242.744475,0.002000,-0.010000,1.010000,192.000000,0.000000,0.000000,0.000000,0.000000,0.000000,0.000000,0.000000,0.000000,0.000000,1772617172.133441,0.000000
224.000000,15449.905747,-35764.221640,-4844.472390,7115.521385,-20452.159101,-6086.648236,-17280.066583,-21920.154622,6834.783475,11158.169646,17299.803174,-6045.141047,-6885.052548,-97878.467784,10828.928450,16274.752173,0.006000,-0.008000,1.012000,192.000000,0.000000,24.000000,127.500000,96.000000,15.500000,80.000000,0.000000,0.000000,0.000000,1772617172.133452,0.000000
226.000000,15317.717530,-35905.372906,-4980.505107,7258.840771,-20595.880818,-6222.792712,-17420.815518,-22063.049324,6852.888388,11181.974254,17324.703017,-6019.883575,-6865.807696,-98645.713764,10857.136352,16288.967882,0.006000,-0.008000,1.012000,192.000000,0.000000,0.000000,0.000000,0.000000,0.000000,0.000000,0.000000,0.000000,0.000000,1772617172.133462,0.000000
228.000000,15383.297549,-35835.568408,-4911.080588,7169.679662,-20522.120061,-6157.324452,-17354.989631,-21993.043660,6768.555256,11074.708232,17233.463196,-6132.357554,-6981.925009,-97982.850430,10769.897493,16239.391713,0.006000,-0.008000,1.012000,192.000000,0.000000,0.000000,0.000000,0.000000,0.000000,0.000000,0.000000,0.000000,0.000000,1772617172.133472,0.000000
230.000000,15404.397595,-35809.349812,-4876.748309,7170.551380,-20481.283424,-6129.764751,-17324.434796,-21964.545186,6888.382958,11218.318190,17364.243253,-5982.444403,-6825.529853,-98306.526042,10898.598838,16314.091243,0.006000,-0.008000,1.012000,192.000000,0.000000,0.000000,0.000000,0.000000,0.000000,0.000000,0.000000,0.000000,0.000000,1772617172.133483,0.000000
232.000000,15296.081042,-35922.449639,-4989.468156,7251.107067,-20588.929425,-6241.948157,-17438.361637,-22081.333051,6782.122765,11086.822878,17238.872318,-6121.561661,-6960.824962,-98435.696773,10798.261857,16243.258565,0.006000,-0.008000,1.012000,192.000000,0.000000,0.000000,0.000000,0.000000,0.000000,0.000000,0.000000,0.000000,0.000000,1772617172.133493,0.000000
234.000000,15441.725009,-35768.848451,-4836.358707,7103.786719,-20425.873450,-6085.553001,-17287.666176,-21924.669674,6828.480283,11152.089972,17291.935359,-6054.528779,-6890.193449,-97881.977008,10850.453180,16265.006812,0.004000,-0.006000,1.004000,192.000000,0.000000,16.000000,127.500000,104.000000,15.500000,48.000000,0.000000,0.000000,0.000000,1772617172.133504,0.000000
236.000000,15329.988638,-35897.348630,-4960.276778,7240.579395,-20557.972259,-6216.847148,-17418.803861,-22055.852062,6871.820315,11194.535934,17333.487252,-6018.207195,-6824.635783,-98619.517519,10902.979780,16282.485876,0.004000,-0.006000,1.004000,192.000000,0.000000,0.000000,0.000000,0.000000,0.000000,0.000000,0.000000,0.000000,0.000000,1772617172.133514,0.000000
238.000000,15391.165363,-35828.147629,-4901.178765,7157.475609,-20500.617683,-6158.531446,-17355.056686,-21988.215683,6795.913791,11088.834535,17249.578804,-6125.920251,-6948.710316,-97973.440346,10811.538793,16222.717312,0.004000,-0.006000,1.004000,192.000000,0.000000,0.000000,0.000000,0.000000,0.000000,0.000000,0.000000,0.000000,0.000000,1772617172.133525,0.000000
240.000000,15436.137073,-35782.147739,-4862.577303,7157.319147,-20465.816017,-6118.991210,-17313.951828,-21945.747369,6916.523804,11233.383266,17382.884608,-5971.961435,-6801.568783,-98283.526097,10921.710541,16287.090336,0.004000,-0.006000,1.004000,192.000000,0.000000,0.000000,0.000000,0.000000,0.000000,0.000000,0.000000,0.000000,0.000000,1772617172.133540,0.000000
242.000000,15325.920621,-35897.974479,-4980.795679,7243.440419,-20587.722431,-6241.054087,-17433.220736,-22066.491493,6813.459911,11102.893782,17268.644842,-6104.149652,-6936.170988,-98447.990232,10796.808993,16223.141995,0.004000,-0.006000,1.004000,192.000000,0.000000,0.000000,0.000000,0.000000,0.000000,0.000000,0.000000,0.000000,0.000000,1772617172.133550,0.000000
244.000000,15464.635547,-35747.122556,-4834.034125,7112.101568,-20432.623676,-6090.313922,-17283.307586,-21915.818383,6854.005975,11158.057887,17315.225877,-6044.202273,-6874.234304,-97915.281107,10842.518311,16250.053495,0.002000,-0.006000,1.006000,192.000000,0.000000,8.000000,127.500000,104.000000,15.500000,56.000000,0.000000,0.000000,0.000000,1772617172.133561,0.000000
246.000000,15332.983772,-35884.205804,-4969.195124,7265.255721,-20572.456190,-6219.819930,-17419.832041,-22055.025048,6881.163345,11200.794423,17351.815683,-6002.449215,-6831.184844,-98679.934285,10879.018710,16278.753135,0.002000,-0.006000,1.006000,192.000000,0.000000,0.000000,0.000000,0.000000,0.000000,0.000000,0.000000,0.000000,0.000000,1772617172.133571,0.000000
248.000000,15384.392784,-35823.543170,-4909.225393,7175.289950,-20514.319302,-6156.609196,-17358.744724,-21995.837628,6777.317140,11083.894799,17246.918946,-6125.719085,-6959.550912,-98025.206986,10780.715737,16222.292629,0.002000,-0.006000,1.006000,192.000000,0.000000,0.000000,0.000000,0.000000,0.000000,0.000000,0.000000,0.000000,0.000000,1772617172.133583,0.000000
250.000000,15422.994247,-35789.814388,-4872.792050,7171.445450,-20478.958843,-6119.661763,-17323.786595,-21958.711381,6895.222592,11234.456150,17377.296672,-5974.040148,-6820.076027,-98341.730039,10905.282009,16303.451813,0.002000,-0.006000,1.006000,192.000000,0.000000,0.000000,0.000000,0.000000,0.000000,0.000000,0.000000,0.000000,0.000000,1772617172.133594,0.000000
252.000000,15314.700045,-35909.396220,-4988.216458,7248.558968,-20594.070327,-6229.855863,-17439.836853,-22073.576996,6790.348207,11083.067785,17256.373734,-6121.405199,-6959.930892,-98484.647093,10794.037377,16241.358667,0.002000,-0.006000,1.006000,192.000000,0.000000,0.000000,0.000000,0.000000,0.000000,0.000000,0.000000,0.000000,0.000000,1772617172.133604,0.000000
254.000000,15451.045686,-35766.769739,-4843.891244,7109.933449,-20442.212575,-6090.895068,-17294.215237,-21926.882497,6841.936033,11154.705126,17312.118985,-6053.746468,-6890.573429,-97957.056517,10855.437619,16274.618062,0.002000,-0.008000,1.012000,192.000000,0.000000,8.000000,127.500000,96.000000,15.500000,80.000000,0.000000,0.000000,0.000000,1772617172.133614,0.000000
0.000000,15322.277286,-35906.401087,-4978.292284,7246.904939,-20575.339565,-6221.876290,-17432.594887,-22072.973498,6866.142972,11181.907199,17332.526127,-6028.287831,-6861.158533,-98698.396826,10886.685358,16286.509190,0.002000,-0.008000,1.012000,192.000000,0.000000,0.000000,0.000000,0.000000,0.000000,0.000000,0.000000,0.000000,0.000000,1772617172.133625,0.000000
2.000000,15373.216912,-35848.465365,-4914.768626,7151.172418,-20507.747889,-6171.450755,-17369.428857,-22011.796774,6777.786526,11071.221360,17235.273687,-6146.662670,-6968.871590,-98055.404193,10804.520345,16225.935963,0.002000,-0.008000,1.012000,192.000000,0.000000,0.000000,0.000000,0.000000,0.000000,0.000000,0.000000,0.000000,0.000000,1772617172.133635,0.000000
4.000000,15413.159479,-35808.053411,-4874.043748,7151.798266,-20472.387430,-6134.659783,-17330.134491,-21970.066067,6887.868868,11213.400807,17363.975032,-5997.643590,-6822.892347,-98380.465612,10926.516167,16279.781315,0.002000,-0.008000,1.012000,192.000000,0.000000,0.000000,0.000000,0.000000,0.000000,0.000000,0.000000,0.000000,0.000000,1772617172.133645,0.000000
6.000000,15310.877897,-35915.185322,-4988.328217,7239.394753,-20594.539713,-6243.713944,-17441.110902,-22082.227121,6788.761233,11090.533267,17256.329031,-6128.311888,-6947.615081,-98528.948251,10813.170470,16215.341236,0.002000,-0.008000,1.012000,192.000000,0.000000,0.000000,0.000000,0.000000,0.000000,0.000000,0.000000,0.000000,0.000000,1772617172.133655,0.000000
8.000000,15451.984459,-35764.981599,-4839.309137,7106.133652,-20447.308772,-6102.160347,-17287.956749,-21928.581229,6839.566748,11157.297928,17311.023749,-6058.619149,-6874.122545,-97991.746425,10847.793323,16241.760998,0.002000,-0.010000,1.010000,192.000000,0.000000,8.000000,127.500000,88.000000,15.500000,72.000000,0.000000,0.000000,0.000000,1772617172.133665,0.000000
10.000000,15320.198574,-35903.204787,-4972.793755,7259.645433,-20590.337585,-6230.280546,-17424.078873,-22069.888958,6867.752298,11192.434870,17341.645639,-6021.694067,-6854.028327,-98749.582320,10870.837971,16261.922271,0.002000,-0.010000,1.010000,192.000000,0.000000,0.000000,0.000000,0.000000,0.000000,0.000000,0.000000,0.000000,0.000000,1772617172.133675,0.000000
12.000000,15381.665871,-35835.300188,-4910.119463,7181.593142,-20524.757567,-6156.832714,-17356.978936,-22002.185524,6773.986730,11078.686843,17241.196900,-6136.537330,-6979.913352,-98091.457557,10768.243464,16207.138146,0.002000,-0.010000,1.010000,192.000000,0.000000,0.000000,0.000000,0.000000,0.000000,0.000000,0.000000,0.000000,0.000000,1772617172.133685,0.000000
14.000000,15416.624000,-35798.643327,-4874.244913,7179.469726,-20488.637148,-6119.482949,-17324.188927,-21967.406209,6883.599685,11235.529034,17366.009041,-5984.456060,-6832.369486,-98405.834842,10889.546381,16283.201132,0.002000,-0.010000,1.010000,192.000000,0.000000,0.000000,0.000000,0.000000,0.000000,0.000000,0.000000,0.000000,0.000000,1772617172.133695,0.000000
16.000000,15310.117937,-35918.225159,-4983.366130,7260.695965,-20596.171391,-6238.058953,-17436.953477,-22080.774257,6788.984750,11096.411776,17256.194920,-6120.779350,-6959.819133,-98556.843228,10789.187049,16226.740626,0.002000,-0.010000,1.010000,192.000000,0.000000,0.000000,0.000000,0.000000,0.000000,0.000000,0.000000,0.000000,0.000000,1772617172.133705,0.000000
18.000000,15443.781369,-35772.290620,-4840.650241,7120.081141,-20450.795645,-6093.823146,-17292.002415,-21931.710474,6823.317030,11151.240605,17305.189944,-6062.664814,-6899.156499,-98027.039829,10837.779741,16252.825111,0.002000,-0.010000,1.014000,192.000000,0.000000,8.000000,127.500000,88.000000,15.500000,88.000000,0.000000,0.000000,0.000000,1772617172.133716,0.000000
20.000000,15321.852603,-35900.164950,-4972.480830,7263.132306,-20586.783658,-6225.743142,-17428.884498,-22074.940452,6853.335423,11197.464013,17334.336619,-6026.253823,-6859.817429,-98768.894228,10878.594026,16275.445077,0.002000,-0.010000,1.014000,192.000000,0.000000,0.000000,0.000000,0.000000,0.000000,0.000000,0.000000,0.000000,0.000000,1772617172.133726,0.000000
22.000000,15373.172208,-35844.352644,-4912.086417,7168.472668,-20520.756605,-6174.132964,-17368.579491,-22017.697634,6766.275378,11085.995863,17232.747940,-6145.858007,-6977.253494,-98134.998755,10793.255066,16215.028312,0.002000,-0.010000,1.014000,192.000000,0.000000,0.000000,0.000000,0.000000,0.000000,0.000000,0.000000,0.000000,0.000000,1772617172.133736,0.000000
24.000000,15404.643465,-35810.065068,-4877.105937,7160.873075,-20485.239683,-6140.135961,-17330.872098,-21983.812390,6876.245961,11223.883775,17354.296727,-6003.499747,-6834.224681,-98459.233160,10909.148861,16276.607368,0.002000,-0.010000,1.014000,192.000000,0.000000,0.000000,0.000000,0.000000,0.000000,0.000000,0.000000,0.000000,0.000000,1772617172.133748,0.000000
26.000000,15298.293865,-35924.193075,-4989.557563,7244.893282,-20600.060594,-6247.200817,-17443.703704,-22097.828638,6772.198590,11096.903514,17237.710027,-6138.079600,-6963.864799,-98629.709915,10804.475642,16213.195469,0.002000,-0.010000,1.014000,192.000000,0.000000,0.000000,0.000000,0.000000,0.000000,0.000000,0.000000,0.000000,0.000000,1772617172.133758,0.000000
28.000000,15437.098198,-35775.173995,-4844.561797,7107.541812,-20452.159101,-6108.307076,-17299.378490,-21945.657962,6815.583326,11154.638070,17282.972310,-6076.969931,-6900.944638,-98096.844327,10847.681564,16232.037989,0.004000,-0.007000,1.012000,192.000000,0.000000,24.000000,127.500000,112.000000,15.500000,72.000000,0.000000,0.000000,0.000000,1772617172.133769,0.000000
30.000000,15322.724321,-35901.349592,-4969.999787,7254.839808,-20581.508646,-6228.402999,-17428.750387,-22075.409839,6858.677490,11199.162745,17320.858517,-6033.227567,-6860.778554,-98835.569481,10882.594989,16254.970879,0.004000,-0.007000,1.012000,192.000000,0.000000,0.000000,0.000000,0.000000,0.000000,0.000000,0.000000,0.000000,0.000000,1772617172.133779,0.000000
32.000000,15382.939921,-35837.378900,-4907.951344,7170.640787,-20516.554477,-6176.837525,-17363.751514,-22007.929922,6773.338529,11097.216439,17231.563298,-6142.259376,-6973.006662,-98190.073453,10784.761403,16205.864096,0.004000,-0.007000,1.012000,192.000000,0.000000,0.000000,0.000000,0.000000,0.000000,0.000000,0.000000,0.000000,0.000000,1772617172.133789,0.000000
34.000000,15419.641485,-35798.442161,-4872.479126,7171.512505,-20478.847084,-6133.341030,-17324.837127,-21968.300279,6890.595781,11243.419199,17360.778732,-5989.954590,-6822.892347,-98495.174765,10895.916628,16281.256530,0.004000,-0.007000,1.012000,192.000000,0.000000,0.000000,0.000000,0.000000,0.000000,0.000000,0.000000,0.000000,0.000000,1772617172.133800,0.000000
36.000000,15312.889554,-35910.759677,-4989.110528,7260.271282,-20591.745745,-6235.712020,-17441.580289,-22081.444810,6783.955608,11108.928753,17243.387371,-6123.036876,-6960.087354,-98645.400839,10785.119031,16225.600687,0.004000,-0.007000,1.012000,192.000000,0.000000,0.000000,0.000000,0.000000,0.000000,0.000000,0.000000,0.000000,0.000000,1772617172.133810,0.000000
38.000000,15456.231291,-35760.466547,-4843.041878,7117.465987,-20439.284496,-6088.458727,-17292.672967,-21928.692988,6829.955498,11168.272635,17297.567999,-6059.490867,-6899.625885,-98095.436167,10838.942032,16257.161350,0.005000,-0.004500,1.011000,192.000000,0.000000,24.000000,127.500000,120.000000,15.500000,72.000000,0.000000,0.000000,0.000000,1772617172.133820,0.000000
40.000000,15334.861318,-35891.179549,-4977.509973,7256.940872,-20580.122838,-6218.523528,-17429.622105,-22065.284498,6862.320824,11208.304609,17336.392979,-6022.029343,-6863.103135,-98847.170037,10877.990529,16286.352728,0.005000,-0.004500,1.011000,192.000000,0.000000,0.000000,0.000000,0.000000,0.000000,0.000000,0.000000,0.000000,0.000000,1772617172.133830,0.000000
42.000000,15384.437488,-35835.881333,-4917.316725,7164.024671,-20518.677893,-6162.174781,-17370.032355,-22011.036815,6773.383233,11098.646951,17235.340743,-6138.861911,-6977.387604,-98191.146337,10786.370729,16231.322733,0.005000,-0.004500,1.011000,192.000000,0.000000,0.000000,0.000000,0.000000,0.000000,0.000000,0.000000,0.000000,0.000000,1772617172.133841,0.000000
44.000000,15408.286799,-35810.087420,-4882.380948,7152.737040,-20489.799439,-6134.503321,-17334.358970,-21982.001899,6879.464612,11230.589298,17351.435703,-6001.689255,-6833.151797,-98492.805480,10904.387939,16294.019377,0.005000,-0.004500,1.011000,192.000000,0.000000,0.000000,0.000000,0.000000,0.000000,0.000000,0.000000,0.000000,0.000000,1772617172.133851,0.000000
46.000000,15306.049920,-35917.889883,-4988.082348,7238.478331,-20599.680614,-6249.659508,-17442.675524,-22089.357327,6772.153887,11090.466212,17237.061827,-6143.086391,-6970.995005,-98643.009203,10795.333778,16223.186698,0.005000,-0.004500,1.011000,192.000000,0.000000,0.000000,0.000000,0.000000,0.000000,0.000000,0.000000,0.000000,0.000000,1772617172.133861,0.000000
48.000000,15449.414009,-35766.881498,-4839.197378,7107.921792,-20446.325296,-6104.641390,-17291.309511,-21933.878593,6829.463760,11154.012222,17301.144278,-6071.538457,-6900.184679,-98113.272859,10847.860378,16245.784312,0.004500,-0.006250,1.010500,192.000000,0.000000,16.000000,127.500000,96.000000,15.500000,72.000000,0.000000,0.000000,0.000000,1772617172.133872,0.000000
50.000000,15324.378350,-35898.265052,-4969.552752,7253.610462,-20583.430896,-6240.629404,-17424.503556,-22069.531330,6858.833952,11190.244399,17327.675799,-6034.121637,-6866.210027,-98854.300243,10880.940960,16262.458713,0.004500,-0.006250,1.010500,192.000000,0.000000,0.000000,0.000000,0.000000,0.000000,0.000000,0.000000,0.000000,0.000000,1772617172.133882,0.000000
52.000000,15380.324767,-35837.937693,-4910.968830,7167.846819,-20522.701207,-6183.923028,-17364.533825,-22009.069861,6770.008119,11086.197029,17231.250373,-6143.779295,-6979.421613,-98215.688552,10789.544676,16206.065262,0.004500,-0.006250,1.010500,192.000000,0.000000,0.000000,0.000000,0.000000,0.000000,0.000000,0.000000,0.000000,0.000000,1772617172.133892,0.000000
54.000000,15416.355779,-35796.542263,-4870.378062,7163.085897,-20486.737250,-6144.695716,-17322.914877,-21967.562672,6880.425737,11223.660257,17355.637831,-6000.303447,-6838.583271,-98518.487634,10904.253829,16266.727897,0.004500,-0.006250,1.010500,192.000000,0.000000,0.000000,0.000000,0.000000,0.000000,0.000000,0.000000,0.000000,0.000000,1772617172.133902,0.000000
56.000000,15309.223868,-35907.384563,-4988.104700,7252.068192,-20607.839001,-6262.645872,-17441.312068,-22084.127019,6782.346282,11103.899611,17246.829539,-6126.702562,-6970.816192,-98688.740872,10793.545639,16209.775652,0.004500,-0.006250,1.010500,192.000000,0.000000,0.000000,0.000000,0.000000,0.000000,0.000000,0.000000,0.000000,0.000000,1772617172.133914,0.000000
58.000000,15449.525768,-35758.544297,-4844.584148,7110.738112,-20452.807302,-6108.217670,-17297.813868,-21936.091415,6820.388951,11156.023879,17286.749755,-6072.320768,-6912.366380,-98138.709144,10831.454197,16238.072960,0.003250,-0.009125,1.011250,192.000000,0.000000,8.000000,127.500000,80.000000,15.500000,80.000000,0.000000,0.000000,0.000000,1772617172.613327,0.000000
60.000000,15336.582403,-35880.629525,-4969.440993,7255.309195,-20581.799219,-6229.766456,-17427.833966,-22065.686830,6863.885446,11203.409577,17324.680665,-6027.505520,-6864.466591,-98877.054319,10875.710651,16274.796876,0.003250,-0.009125,1.011250,192.000000,0.000000,0.000000,0.000000,0.000000,0.000000,0.000000,0.000000,0.000000,0.000000,1772617172.613393,0.000000
62.000000,15389.243113,-35825.040737,-4913.427521,7168.874999,-20517.381491,-6170.511981,-17370.434686,-22010.276855,6772.243294,11092.701387,17226.534155,-6145.366269,-6974.481878,-98245.617538,10783.062671,16224.550155,0.003250,-0.009125,1.011250,192.000000,0.000000,0.000000,0.000000,0.000000,0.000000,0.000000,0.000000,0.000000,0.000000,1772617172.613443,0.000000
64.000000,15427.106968,-35786.394571,-4872.233256,7164.091726,-20477.751848,-6130.211786,-17330.626229,-21976.391611,6892.227458,11236.311345,17352.150959,-5996.257782,-6810.755349,-98555.613882,10907.941867,16297.819173,0.003250,-0.009125,1.011250,192.000000,0.000000,0.000000,0.000000,0.000000,0.000000,0.000000,0.000000,0.000000,0.000000,1772617172.613496,0.000000
66.000000,15313.582458,-35905.082334,-4990.853964,7246.301442,-20602.295769,-6255.381555,-17452.890271,-22101.851952,6791.286980,11102.133823,17229.573992,-6137.029068,-6959.148581,-98734.360782,10798.731243,16233.982591,0.003250,-0.009125,1.011250,192.000000,0.000000,0.000000,0.000000,0.000000,0.000000,0.000000,0.000000,0.000000,0.000000,1772617172.613538,0.000000
68.000000,15456.208939,-35754.543335,-4845.724087,7099.137556,-20454.528386,-6104.104949,-17301.926589,-21946.932011,6827.921489,11156.046230,17269.248339,-6081.552038,-6912.992229,-98180.909238,10840.283136,16250.277013,0.003250,-0.009125,1.011250,192.000000,0.000000,0.000000,127.500000,96.000000,15.500000,64.000000,0.000000,0.000000,0.000000,1772617172.613575,0.000000
70.000000,15335.576574,-35883.423493,-4975.051281,7249.385983,-20598.585379,-6248.251349,-17430.158547,-22076.415667,6861.985548,11197.419309,17309.794403,-6037.675564,-6876.067147,-98934.252433,10872.670814,16265.006812,0.003250,-0.009125,1.011250,192.000000,0.000000,0.000000,0.000000,0.000000,0.000000,0.000000,0.000000,0.000000,0.000000,1772617172.613586,0.000000
72.000000,15388.840781,-35823.230245,-4915.997972,7163.331767,-20533.832375,-6192.483746,-17369.294747,-22014.076652,6772.489163,11088.700424,17216.945257,-6150.060135,-6987.848221,-98298.591173,10774.345490,16203.383053,0.003250,-0.009125,1.011250,192.000000,0.000000,0.000000,0.000000,0.000000,0.000000,0.000000,0.000000,0.000000,0.000000,1772617172.613598,0.000000
74.000000,15432.694904,-35776.380989,-4872.859105,7163.868208,-20493.331014,-6151.423592,-17325.239459,-21969.060238,6885.410176,11233.562080,17341.198604,-5998.358846,-6839.365582,-98597.769272,10893.122660,16261.765809,0.003250,-0.009125,1.011250,192.000000,0.000000,0.000000,0.000000,0.000000,0.000000,0.000000,0.000000,0.000000,0.000000,1772617172.613609,0.000000
76.000000,15324.110129,-35891.224252,-4989.378749,7248.447209,-20611.325873,-6263.517590,-17442.519062,-22088.507961,6784.313236,11103.497279,17224.857774,-6126.546100,-6969.653901,-98779.086623,10787.264799,16202.667797,0.003250,-0.009125,1.011250,192.000000,0.000000,0.000000,0.000000,0.000000,0.000000,0.000000,0.000000,0.000000,0.000000,1772617172.613621,0.000000
78.000000,15457.348878,-35748.530716,-4844.003003,7109.888746,-20460.049267,-6118.611231,-17298.529124,-21941.746407,6821.886518,11155.152161,17273.025784,-6069.415041,-6917.373171,-98235.983936,10830.873052,16229.489890,0.002625,-0.007563,1.011625,192.000000,0.000000,8.000000,127.500000,104.000000,15.500000,80.000000,0.000000,0.000000,0.000000,1772617172.613632,0.000000
80.000000,15336.537699,-35880.361304,-4970.290359,7253.901035,-20592.237484,-6247.759610,-17428.549222,-22073.152312,6855.056507,11194.625341,17309.302665,-6030.612413,-6875.374243,-98973.725614,10872.067317,16257.921309,0.002625,-0.007563,1.011625,192.000000,0.000000,0.000000,0.000000,0.000000,0.000000,0.000000,0.000000,0.000000,0.000000,1772617172.613644,0.000000
82.000000,15401.961255,-35807.405210,-4905.269135,7168.629130,-20520.600143,-6178.469202,-17364.958509,-22002.230227,6769.337567,11090.287398,17216.386463,-6145.187455,-6984.294293,-98325.770894,10779.933426,16208.434547,0.002625,-0.007563,1.011625,192.000000,0.000000,0.000000,0.000000,0.000000,0.000000,0.000000,0.000000,0.000000,0.000000,1772617172.613655,0.000000
84.000000,15435.421817,-35770.524832,-4869.372233,7159.643729,-20483.317433,-6136.492626,-17331.475595,-21971.474227,6890.618132,11244.290917,17348.060590,-5991.698026,-6829.441408,-98626.245394,10909.327675,16287.000929,0.002625,-0.007563,1.011625,192.000000,0.000000,0.000000,0.000000,0.000000,0.000000,0.000000,0.000000,0.000000,0.000000,1772617172.613666,0.000000
86.000000,15326.345304,-35888.832615,-4983.008502,7240.110009,-20598.674786,-6259.091945,-17447.838777,-22092.978310,6782.011006,11107.386483,17223.494318,-6135.173873,-6967.709299,-98780.584190,10803.939200,16228.104082,0.002625,-0.007563,1.011625,192.000000,0.000000,0.000000,0.000000,0.000000,0.000000,0.000000,0.000000,0.000000,0.000000,1772617172.613676,0.000000
88.000000,15471.005794,-35737.287788,-4838.884454,7101.372731,-20448.426360,-6114.118530,-17298.976159,-21940.964096,6829.352001,11169.926664,17278.010223,-6067.783364,-6903.783310,-98235.872178,10852.688355,16252.556891,0.002625,-0.007563,1.011625,192.000000,0.000000,0.000000,0.000000,0.000000,0.000000,0.000000,0.000000,0.000000,0.000000,1772617172.613694,0.000000
90.000000,15347.221833,-35868.380769,-4972.391423,7243.507474,-20592.438649,-6245.926767,-17434.472434,-22077.890882,6864.265426,11212.216164,17307.447470,-6027.661982,-6869.629844,-98985.616742,10880.762146,16267.621966,0.006000,-0.006000,1.016000,192.000000,0.000000,24.000000,127.500000,104.000000,15.500000,96.000000,0.000000,0.000000,0.000000,1772617172.613705,0.000000
92.000000,15402.765918,-35810.355641,-4913.919260,7158.839066,-20531.306628,-6190.695607,-17372.245177,-22015.730681,6769.426974,11096.836459,17203.355396,-6149.233121,-6985.925971,-98331.627051,10778.301749,16203.852439,0.006000,-0.006000,1.016000,192.000000,0.000000,0.000000,0.000000,0.000000,0.000000,0.000000,0.000000,0.000000,0.000000,1772617172.613716,0.000000
94.000000,15453.057343,-35755.951495,-4861.772640,7162.236531,-20479.942319,-6135.129170,-17321.730235,-21965.953346,6889.992284,11252.270490,17341.824453,-5986.802994,-6829.843739,-98624.971345,10904.589105,16277.210865,0.006000,-0.006000,1.016000,192.000000,0.000000,0.000000,0.000000,0.000000,0.000000,0.000000,0.000000,0.000000,0.000000,1772617172.613727,0.000000
96.000000,15336.917679,-35876.159176,-4984.863697,7251.352936,-20604.285074,-6256.432087,-17445.916527,-22092.799496,6790.415262,11125.267878,17230.736283,-6120.846405,-6954.499418,-98832.172016,10798.194802,16219.722178,0.006000,-0.006000,1.016000,192.000000,0.000000,0.000000,0.000000,0.000000,0.000000,0.000000,0.000000,0.000000,0.000000,1772617172.613738,0.000000
98.000000,15476.325509,-35725.173143,-4841.231387,7117.913022,-20454.684848,-6106.831861,-17295.891618,-21940.762930,6825.485149,11171.446582,17272.489342,-6065.794059,-6911.226441,-98281.559143,10834.695200,16238.922326,0.006000,-0.006000,1.016000,192.000000,0.000000,0.000000,0.000000,0.000000,0.000000,0.000000,0.000000,0.000000,0.000000,1772617172.613749,0.000000
100.000000,15348.942917,-35859.574182,-4975.364205,7262.595864,-20592.393946,-6243.736296,-17431.052617,-22078.673193,6866.724118,11215.233650,17306.307531,-6020.330610,-6873.004958,-99032.689516,10869.765087,16255.932004,0.012000,-0.010000,1.014000,192.000000,0.000000,48.000000,127.500000,88.000000,15.500000,88.000000,0.000000,0.000000,0.000000,1772617172.613760,0.000000
102.000000,15405.604590,-35798.106885,-4913.963963,7174.775860,-20530.189041,-6182.648979,-17371.149942,-22016.155364,6768.756422,11097.976398,17201.030815,-6141.633527,-6993.860840,-98369.692072,10771.685633,16189.636730,0.012000,-0.010000,1.014000,192.000000,0.000000,0.000000,0.000000,0.000000,0.000000,0.000000,0.000000,0.000000,0.000000,1772617172.613771,0.000000
104.000000,15451.693887,-35750.475317,-4865.125402,7167.086860,-20477.818904,-6129.854158,-17326.602915,-21968.501445,6895.624923,11243.575662,17342.785578,-5984.858392,-6828.994373,-98653.134543,10899.425852,16262.682231,0.012000,-0.010000,1.014000,192.000000,0.000000,0.000000,0.000000,0.000000,0.000000,0.000000,0.000000,0.000000,0.000000,1772617172.613782,0.000000
106.000000,15338.504653,-35868.648990,-4984.059034,7252.559930,-20592.952739,-6250.687689,-17447.995239,-22088.642071,6797.187841,11119.992867,17233.150272,-6116.554870,-6938.227348,-98844.286662,10799.535906,16209.842707,0.012000,-0.010000,1.014000,192.000000,0.000000,0.000000,0.000000,0.000000,0.000000,0.000000,0.000000,0.000000,0.000000,1772617172.613792,0.000000
108.000000,15471.788105,-35727.721241,-4837.453942,7107.474757,-20440.357380,-6099.075806,-17298.059737,-21935.957305,6831.877748,11165.992757,17277.585540,-6062.575407,-6909.505356,-98285.917733,10839.187901,16231.456844,0.012000,-0.010000,1.014000,192.000000,0.000000,0.000000,0.000000,0.000000,0.000000,0.000000,0.000000,0.000000,0.000000,1772617172.613804,0.000000
110.000000,15342.796188,-35867.151423,-4967.384633,7255.398602,-20577.284166,-6233.007459,-17429.957381,-22077.130923,6866.902932,11204.124833,17310.889639,-6023.728075,-6863.036080,-99024.307612,10884.092556,16255.484969,0.008000,-0.012000,1.018000,192.000000,0.000000,32.000000,127.500000,80.000000,15.500000,104.000000,0.000000,0.000000,0.000000,1772617172.613814,0.000000
112.000000,15392.461764,-35813.417830,-4909.314800,7164.672871,-20518.655541,-6180.056176,-17371.149942,-22021.765652,6776.579532,11084.900628,17208.473946,-6144.248682,-6975.286540,-98386.522935,10786.683653,16196.364605,0.008000,-0.012000,1.018000,192.000000,0.000000,0.000000,0.000000,0.000000,0.000000,0.000000,0.000000,0.000000,0.000000,1772617172.613826,0.000000
114.000000,15431.644372,-35772.849413,-4863.896056,7154.949862,-20480.076430,-6135.062115,-17326.625267,-21978.045640,6893.434452,11227.191833,17337.912898,-5995.251953,-6833.710591,-98677.967331,10904.834974,16260.804684,0.008000,-0.012000,1.018000,192.000000,0.000000,0.000000,0.000000,0.000000,0.000000,0.000000,0.000000,0.000000,0.000000,1772617172.613837,0.000000
116.000000,15315.124728,-35894.085275,-4984.886048,7246.100276,-20605.760289,-6257.817895,-17449.626917,-22104.265941,6789.588247,11096.858811,17217.213478,-6131.575242,-6967.038747,-98865.565522,10795.065557,16194.554114,0.008000,-0.012000,1.018000,192.000000,0.000000,0.000000,0.000000,0.000000,0.000000,0.000000,0.000000,0.000000,0.000000,1772617172.613848,0.000000
118.000000,15459.159369,-35740.014701,-4837.543349,7108.547641,-20454.438979,-6113.850309,-17298.059737,-21950.217718,6831.721286,11155.889768,17261.022897,-6070.353814,-6912.835766,-98310.437597,10837.422113,16219.923344,0.008000,-0.012000,1.018000,192.000000,0.000000,0.000000,0.000000,0.000000,0.000000,0.000000,0.000000,0.000000,0.000000,1772617172.613860,0.000000
120.000000,15333.788435,-35874.907479,-4966.714080,7255.420954,-20595.947873,-6245.032697,-17424.391797,-22085.289310,6857.224626,11193.485402,17295.198714,-6031.394724,-6876.380071,-99060.495086,10862.791343,16240.330486,0.002000,-0.012000,1.016000,192.000000,0.000000,8.000000,127.500000,80.000000,15.500000,96.000000,0.000000,0.000000,0.000000,1772617172.613872,0.000000
122.000000,15377.575502,-35830.405155,-4917.093207,7170.305511,-20545.432931,-6194.674217,-17366.992517,-22029.454652,6759.279282,11071.690747,17197.365129,-6149.478990,-7002.086282,-98427.627793,10762.387307,16185.613416,0.002000,-0.012000,1.016000,192.000000,0.000000,0.000000,0.000000,0.000000,0.000000,0.000000,0.000000,0.000000,0.000000,1772617172.613883,0.000000
124.000000,15428.090445,-35770.211908,-4869.461640,7157.117982,-20497.555494,-6149.233121,-17321.819642,-21973.999974,6868.668719,11210.159804,17328.458110,-5995.944857,-6858.923359,-98702.800119,10882.170306,16249.293536,0.002000,-0.012000,1.016000,192.000000,0.000000,0.000000,0.000000,0.000000,0.000000,0.000000,0.000000,0.000000,0.000000,1772617172.613894,0.000000
126.000000,15325.361827,-35878.550813,-4985.333083,7241.629927,-20613.516344,-6271.586570,-17448.106998,-22088.485609,6788.180088,11093.684863,17230.535117,-6118.834748,-6981.008587,-98888.833688,10782.190953,16193.503582,0.002000,-0.012000,1.016000,192.000000,0.000000,0.000000,0.000000,0.000000,0.000000,0.000000,0.000000,0.000000,0.000000,1772617172.613905,0.000000
128.000000,15468.524750,-35722.803858,-4836.246948,7099.495184,-20455.109531,-6112.263335,-17297.344482,-21929.341189,6831.251899,11158.259053,17284.089897,-6058.641500,-6920.144787,-98310.661115,10834.784607,16216.257658,0.002000,-0.012000,1.016000,192.000000,0.000000,0.000000,0.000000,0.000000,0.000000,0.000000,0.000000,0.000000,0.000000,1772617172.613916,0.000000
130.000000,15344.986659,-35854.299170,-4961.573179,7249.028355,-20582.179199,-6231.241671,-17424.145928,-22063.719876,6864.801868,11208.103443,17324.479499,-6011.166395,-6871.015653,-99064.540752,10880.270407,16251.439303,0.008000,-0.008000,1.014000,192.000000,0.000000,32.000000,127.500000,96.000000,15.500000,88.000000,0.000000,0.000000,0.000000,1772617172.613926,0.000000
132.000000,15373.283967,-35825.912455,-4918.031981,7161.275406,-20536.514585,-6191.679083,-17378.861294,-22030.236963,6763.347299,11086.912285,17214.799489,-6139.443057,-6991.491555,-98451.298291,10782.459173,16198.040986,0.008000,-0.008000,1.014000,192.000000,0.000000,0.000000,0.000000,0.000000,0.000000,0.000000,0.000000,0.000000,0.000000,1772617172.613937,0.000000
134.000000,15408.175040,-35786.886309,-4871.808573,7146.031516,-20491.855799,-6144.762772,-17331.475595,-21992.730736,6863.438411,11219.748702,17322.892526,-6009.244145,-6854.318899,-98690.417253,10896.810698,16252.735705,0.008000,-0.008000,1.014000,192.000000,0.000000,0.000000,0.000000,0.000000,0.000000,0.000000,0.000000,0.000000,0.000000,1772617172.613970,0.000000
136.000000,15293.510591,-35904.434133,-4981.645045,7230.968145,-20608.420147,-6261.952968,-17439.680390,-22102.991891,6755.412430,11094.802451,17211.200858,-6139.308946,-6981.097994,-98870.952293,10789.567028,16193.235361,0.008000,-0.008000,1.014000,192.000000,0.000000,0.000000,0.000000,0.000000,0.000000,0.000000,0.000000,0.000000,0.000000,1772617172.613981,0.000000
138.000000,15438.886337,-35749.849468,-4835.934023,7100.612772,-20460.563357,-6112.710370,-17293.432926,-21945.970886,6795.779681,11160.382469,17267.706068,-6071.225532,-6925.710371,-98338.086705,10827.900270,16219.722178,0.008000,-0.008000,1.014000,192.000000,0.000000,0.000000,0.000000,0.000000,0.000000,0.000000,0.000000,0.000000,0.000000,1772617172.613991,0.000000
140.000000,15326.211193,-35864.871545,-4959.986205,7253.543407,-20585.554312,-6228.961793,-17418.289771,-22067.273804,6841.868978,11219.458129,17306.419290,-6015.122654,-6884.784327,-99088.032435,10869.608625,16250.522882,0.008000,-0.008000,1.014000,192.000000,0.000000,0.000000,127.500000,96.000000,15.500000,88.000000,0.000000,0.000000,0.000000,1772617172.614003,0.000000
142.000000,15370.802924,-35812.412001,-4911.907603,7174.105307,-20531.083111,-6177.373967,-17365.941985,-22009.047509,6738.358049,11113.823785,17201.097870,-6126.948431,-7005.841375,-98462.474163,10766.455324,16195.336425,0.008000,-0.008000,1.014000,192.000000,0.000000,0.000000,0.000000,0.000000,0.000000,0.000000,0.000000,0.000000,0.000000,1772617172.614014,0.000000
144.000000,15414.455880,-35767.574402,-4869.886323,7170.350214,-20490.291177,-6136.224405,-17325.261810,-21973.508236,6854.095382,11257.701964,17333.129625,-5975.984749,-6854.363603,-98732.907919,10894.597875,16268.583091,0.008000,-0.008000,1.014000,192.000000,0.000000,0.000000,0.000000,0.000000,0.000000,0.000000,0.000000,0.000000,0.000000,1772617172.614025,0.000000
146.000000,15287.721489,-35901.908386,-4996.553659,7248.044878,-20622.591153,-6264.478715,-17450.297469,-22109.719766,6746.069401,11121.356323,17213.637199,-6121.807530,-6994.486689,-98906.916250,10785.968397,16197.951579,0.008000,-0.008000,1.014000,192.000000,0.000000,0.000000,0.000000,0.000000,0.000000,0.000000,0.000000,0.000000,0.000000,1772617172.614036,0.000000
148.000000,15423.374226,-35752.866954,-4852.608425,7101.685655,-20472.879168,-6115.884318,-17303.088880,-21961.862977,6764.934273,11156.560320,17251.433999,-6080.456803,-6952.711279,-98334.555129,10822.960534,16221.443262,0.008000,-0.008000,1.014000,192.000000,0.000000,0.000000,0.000000,0.000000,0.000000,0.000000,0.000000,0.000000,0.000000,1772617172.614047,0.000000
150.000000,15312.397815,-35873.029932,-4977.018234,7245.966166,-20601.468754,-6241.523473,-17432.326666,-22087.055097,6815.404512,11208.572830,17293.321168,-6029.517177,-6898.217726,-99078.734109,10870.994433,16249.539405,0.008000,-0.008000,1.014000,192.000000,0.000000,0.000000,127.500000,112.000000,15.500000,64.000000,0.000000,0.000000,0.000000,1772617172.614058,0.000000
152.000000,15383.431659,-35796.251690,-4919.417789,7167.668005,-20535.262887,-6173.998853,-17373.563930,-22013.517858,6719.850805,11096.747052,17194.884085,-6142.929929,-7017.978372,-98439.474218,10769.785734,16191.357814,0.008000,-0.008000,1.014000,192.000000,0.000000,0.000000,0.000000,0.000000,0.000000,0.000000,0.000000,0.000000,0.000000,1772617172.614089,0.000000
154.000000,15433.186642,-35745.580285,-4866.064175,7162.214179,-20479.137657,-6130.234138,-17325.038293,-21957.102055,6859.303338,11269.458982,17345.154863,-5969.726261,-6838.270347,-98705.907012,10904.007960,16270.460638,0.008000,-0.008000,1.014000,192.000000,0.000000,0.000000,0.000000,0.000000,0.000000,0.000000,0.000000,0.000000,0.000000,1772617172.614101,0.000000
156.000000,15321.986714,-35865.720912,-4979.767499,7248.469561,-20603.770984,-6254.487485,-17448.889309,-22079.388449,6759.860427,11136.108474,17238.872318,-6104.082597,-6977.566418,-98899.406063,10805.056787,16216.525878,0.008000,-0.008000,1.014000,192.000000,0.000000,0.000000,0.000000,0.000000,0.000000,0.000000,0.000000,0.000000,0.000000,1772617172.614113,0.000000
158.000000,15463.294442,-35719.272282,-4829.764942,7105.083120,-20455.087180,-6111.346914,-17302.105403,-21934.705607,6805.994428,11195.452356,17289.230798,-6050.416058,-6921.754112,-98326.396743,10837.913851,16233.066169,0.008000,-0.008000,1.014000,192.000000,0.000000,0.000000,0.000000,0.000000,0.000000,0.000000,0.000000,0.000000,0.000000,1772617172.614124,0.000000
160.000000,15338.504653,-35858.769519,-4952.677185,7239.484160,-20587.565969,-6244.116276,-17430.046788,-22076.683888,6850.876731,11223.727313,17328.122834,-6018.006029,-6865.405365,-99069.480487,10873.162552,16247.438341,0.006000,-0.010000,1.011000,192.000000,0.000000,16.000000,127.500000,80.000000,15.500000,64.000000,0.000000,0.000000,0.000000,1772617172.614134,0.000000
162.000000,15380.213008,-35813.104905,-4900.463510,7158.324976,-20530.032579,-6187.678121,-17370.278224,-22023.889068,6755.345375,11102.223230,17223.941353,-6144.136923,-6983.623741,-98437.686078,10770.277473,16181.143067,0.006000,-0.010000,1.011000,192.000000,0.000000,0.000000,0.000000,0.000000,0.000000,0.000000,0.000000,0.000000,0.000000,1772617172.614145,0.000000
164.000000,15423.821261,-35770.971867,-4856.832904,7157.833237,-20480.478761,-6135.598556,-17316.589334,-21971.295413,6867.953464,11246.615499,17347.322982,-5989.306389,-6840.460818,-98718.893375,10892.653274,16251.104027,0.006000,-0.010000,1.011000,192.000000,0.000000,0.000000,0.000000,0.000000,0.000000,0.000000,0.000000,0.000000,0.000000,1772617172.614156,0.000000
166.000000,15289.487277,-35913.866569,-4990.809261,7245.921462,-20614.186897,-6261.036546,-17446.117693,-22101.248455,6761.715622,11103.430224,17224.991885,-6123.640373,-6981.142697,-98930.854968,10788.248275,16189.815544,0.006000,-0.010000,1.011000,192.000000,0.000000,0.000000,0.000000,0.000000,0.000000,0.000000,0.000000,0.000000,0.000000,1772617172.614166,0.000000
168.000000,15427.576354,-35760.041864,-4845.277053,7103.250277,-20463.647898,-6110.832824,-17296.740985,-21940.338247,6793.700968,11155.174512,17264.733286,-6067.112811,-6937.065057,-98363.478287,10824.391046,16211.966123,0.006000,-0.010000,1.011000,192.000000,0.000000,0.000000,0.000000,0.000000,0.000000,0.000000,0.000000,0.000000,0.000000,1772617172.614177,0.000000
170.000000,15318.723359,-35880.182490,-4966.647025,7240.892320,-20591.745745,-6235.935537,-17426.828137,-22065.195091,6834.761123,11207.611705,17314.309456,-6016.642572,-6884.359644,-99121.448293,10870.346233,16240.844576,0.006000,-0.008000,1.009500,192.000000,0.000000,24.000000,127.500000,104.000000,15.500000,64.000000,0.000000,0.000000,0.000000,1772617172.614188,0.000000
172.000000,15381.017671,-35815.518894,-4907.928992,7160.001357,-20532.759492,-6188.505136,-17375.352070,-22000.196219,6748.729259,11088.454555,17220.052149,-6132.938699,-7000.029922,-98504.227222,10773.719641,16182.551227,0.006000,-0.008000,1.009500,192.000000,0.000000,0.000000,0.000000,0.000000,0.000000,0.000000,0.000000,0.000000,0.000000,1772617172.614199,0.000000
174.000000,15445.882433,-35753.582210,-4847.623986,7150.591272,-20465.547796,-6128.736571,-17324.188927,-21938.036017,6885.253714,11236.870138,17362.186892,-5970.150944,-6832.637707,-98763.261588,10910.132338,16257.720144,0.006000,-0.008000,1.009500,192.000000,0.000000,0.000000,0.000000,0.000000,0.000000,0.000000,0.000000,0.000000,0.000000,1772617172.614210,0.000000
176.000000,15343.354981,-35869.833633,-4966.177638,7241.227596,-20574.378440,-6242.663412,-17447.615260,-22062.334068,6806.150890,11118.383541,17260.799379,-6092.146765,-6942.541235,-98967.444774,10815.562107,16205.037082,0.006000,-0.008000,1.009500,192.000000,0.000000,0.000000,0.000000,0.000000,0.000000,0.000000,0.000000,0.000000,0.000000,1772617172.614221,0.000000
178.000000,15473.777410,-35727.050689,-4824.244061,7099.159908,-20426.923982,-6095.968914,-17300.831354,-21922.702720,6847.591024,11175.134620,17296.897447,-6041.587119,-6886.594818,-98416.451921,10860.600872,16228.104082,0.006000,-0.008000,1.009500,192.000000,0.000000,0.000000,0.000000,0.000000,0.000000,0.000000,0.000000,0.000000,0.000000,1772617173.094131,0.000000
180.000000,15337.297659,-35872.582897,-4959.181542,7235.840826,-20570.198663,-6235.197930,-17435.858242,-22070.917138,6876.089499,11207.499946,17318.690398,-6013.870956,-6849.848551,-99175.070128,10897.190678,16251.439303,0.007000,-0.009000,1.009750,192.000000,0.000000,32.000000,127.500000,88.000000,15.500000,72.000000,0.000000,0.000000,0.000000,1772617173.094181,0.000000
182.000000,15373.909816,-35829.287568,-4910.834719,7152.960557,-20529.384378,-6196.708226,-17383.085773,-22022.838536,6771.773907,11075.959930,17209.435071,-6148.070830,-6976.828811,-98535.743181,10788.672958,16183.221779,0.007000,-0.009000,1.009750,192.000000,0.000000,0.000000,0.000000,0.000000,0.000000,0.000000,0.000000,0.000000,0.000000,1772617173.094218,0.000000
184.000000,15421.943715,-35779.465530,-4860.006852,7147.104400,-20484.211503,-6148.607272,-17335.521261,-21977.576253,6883.018539,11221.000400,17339.008133,-6000.348151,-6828.703800,-98791.916524,10900.968123,16251.662821,0.007000,-0.009000,1.009750,192.000000,0.000000,0.000000,0.000000,0.000000,0.000000,0.000000,0.000000,0.000000,0.000000,1772617173.094254,0.000000
186.000000,15306.340493,-35903.160084,-4976.191220,7242.233424,-20603.212190,-6258.913131,-17455.639536,-22103.863609,6784.916733,11094.109546,17231.093911,-6131.239966,-6952.957148,-98996.233820,10793.836211,16199.493849,0.007000,-0.009000,1.009750,192.000000,0.000000,0.000000,0.000000,0.000000,0.000000,0.000000,0.000000,0.000000,0.000000,1772617173.094295,0.000000
188.000000,15433.052532,-35766.725036,-4831.664840,7101.439786,-20458.350534,-6119.572356,-17305.838145,-21962.287660,6819.651344,11142.635184,17276.982042,-6083.474288,-6915.495624,-98438.669555,10833.108226,16223.767844,0.007000,-0.009000,1.009750,192.000000,0.000000,0.000000,0.000000,0.000000,0.000000,0.000000,0.000000,0.000000,0.000000,1772617173.094336,0.000000
190.000000,15304.708815,-35904.165912,-4962.780173,7237.159578,-20594.271492,-6245.770305,-17429.890326,-22102.567208,6851.212007,11176.229856,17308.788575,-6048.896140,-6873.004958,-99193.778538,10878.549323,16248.690039,0.007500,-0.009500,1.011875,192.000000,0.000000,32.000000,127.500000,88.000000,15.500000,88.000000,0.000000,0.000000,0.000000,1772617173.094362,0.000000
192.000000,15346.283060,-35853.338045,-4920.691838,7154.480476,-20542.102521,-6199.010455,-17377.207265,-22053.616888,6745.443552,11056.223340,17189.474963,-6175.742290,-7002.868593,-98569.270798,10771.775040,16185.345195,0.007500,-0.009500,1.011875,192.000000,0.000000,0.000000,0.000000,0.000000,0.000000,0.000000,0.000000,0.000000,0.000000,1772617173.094373,0.000000
194.000000,15385.711537,-35809.036888,-4881.218658,7139.974194,-20501.422346,-6161.817153,-17333.107273,-22008.801640,6859.973891,11198.849821,17309.459127,-6022.789302,-6858.968062,-98832.842568,10892.608570,16265.878530,0.007500,-0.009500,1.011875,192.000000,0.000000,0.000000,0.000000,0.000000,0.000000,0.000000,0.000000,0.000000,0.000000,1772617173.094383,0.000000
196.000000,15275.584492,-35929.803363,-5002.476871,7224.620250,-20624.826327,-6285.981093,-17459.394629,-22131.110386,6757.647605,11062.370069,17194.012367,-6159.604330,-6995.961904,-99035.192911,10789.678787,16205.864096,0.007500,-0.009500,1.011875,192.000000,0.000000,0.000000,0.000000,0.000000,0.000000,0.000000,0.000000,0.000000,0.000000,1772617173.094393,0.000000
198.000000,15437.209956,-35759.058387,-4841.723125,7086.128841,-20454.014296,-6117.247774,-17305.726386,-21957.660849,6807.871974,11121.848061,17253.088028,-6096.617114,-6930.270127,-98468.889114,10840.864282,16231.412140,0.007500,-0.009500,1.011875,192.000000,0.000000,0.000000,0.000000,0.000000,0.000000,0.000000,0.000000,0.000000,0.000000,1772617173.094404,0.000000
200.000000,15335.867147,-35864.938601,-4963.540132,7231.236366,-20572.746762,-6232.605127,-17436.551146,-22073.085257,6863.572522,11187.875114,17314.309456,-6032.691125,-6859.236283,-99237.453847,10893.010902,16263.308080,0.006750,-0.009750,1.014937,192.000000,0.000000,24.000000,127.500000,88.000000,15.500000,104.000000,0.000000,0.000000,0.000000,1772617173.094414,0.000000
202.000000,15401.603627,-35801.906681,-4900.888193,7149.428981,-20509.133698,-6173.685929,-17379.733012,-22005.001844,6790.124689,11095.227134,17229.082254,-6133.542196,-6966.569360,-98613.504900,10796.049034,16207.763995,0.006750,-0.009750,1.014937,192.000000,0.000000,0.000000,0.000000,0.000000,0.000000,0.000000,0.000000,0.000000,0.000000,1772617173.094424,0.000000
204.000000,15439.042799,-35766.657980,-4850.999099,7138.677792,-20466.643031,-6135.129170,-17332.861404,-21961.728866,6905.794967,11217.111196,17368.288919,-5984.947799,-6814.890422,-98891.001808,10923.431626,16276.048574,0.006750,-0.009750,1.014937,192.000000,0.000000,0.000000,0.000000,0.000000,0.000000,0.000000,0.000000,0.000000,0.000000,1772617173.094434,0.000000
206.000000,15331.597964,-35884.876357,-4972.637292,7231.348125,-20589.644681,-6257.929654,-17455.125446,-22090.296100,6815.292754,11095.048320,17253.825635,-6118.745341,-6942.876511,-99090.625237,10809.527136,16209.127451,0.006750,-0.009750,1.014937,192.000000,0.000000,0.000000,0.000000,0.000000,0.000000,0.000000,0.000000,0.000000,0.000000,1772617173.094445,0.000000
208.000000,15470.849332,-35734.940855,-4822.321811,7094.153117,-20440.178566,-6106.250716,-17298.439717,-21939.332418,6847.099286,11140.422361,17287.532066,-6072.343120,-6892.495679,-98509.278716,10837.623279,16225.511280,0.006750,-0.009750,1.014937,192.000000,0.000000,0.000000,0.000000,0.000000,0.000000,0.000000,0.000000,0.000000,0.000000,1772617173.094455,0.000000
210.000000,15344.293755,-35870.973572,-4949.078554,7243.909805,-20579.496989,-6244.183331,-17426.068178,-22076.035687,6888.494717,11194.625341,17331.587354,-6023.549262,-6843.187731,-99273.261341,10885.523067,16251.260489,0.007375,-0.006875,1.015469,192.000000,0.000000,32.000000,127.500000,112.000000,15.500000,96.000000,0.000000,0.000000,0.000000,1772617173.094465,0.000000
212.000000,15380.458877,-35830.248693,-4906.699646,7157.743830,-20537.855689,-6196.171784,-17376.290843,-22028.091196,6779.753480,11061.855979,17215.961780,-6156.162161,-6980.181572,-98650.698203,10776.178333,16188.519143,0.007375,-0.006875,1.015469,192.000000,0.000000,0.000000,0.000000,0.000000,0.000000,0.000000,0.000000,0.000000,0.000000,1772617173.094476,0.000000
214.000000,15418.121567,-35782.728885,-4859.381003,7141.114133,-20487.161933,-6148.361403,-17325.887659,-21976.793942,6885.298417,11199.788594,17341.779750,-6009.624125,-6837.532739,-98909.307886,10894.687282,16265.744420,0.007375,-0.006875,1.015469,192.000000,0.000000,0.000000,0.000000,0.000000,0.000000,0.000000,0.000000,0.000000,0.000000,1772617173.094486,0.000000
216.000000,15309.961475,-35896.700430,-4981.980322,7234.007982,-20602.921617,-6272.033605,-17448.777550,-22096.778106,6785.274361,11078.172753,17236.704199,-6136.805551,-6961.249645,-99131.216005,10806.576706,16211.429681,0.007375,-0.006875,1.015469,192.000000,0.000000,0.000000,0.000000,0.000000,0.000000,0.000000,0.000000,0.000000,0.000000,1772617173.094496,0.000000
218.000000,15448.207015,-35746.452003,-4844.360631,7082.530210,-20460.339839,-6134.056286,-17310.442604,-21954.442198,6823.294678,11135.236756,17273.495170,-6080.970893,-6916.479101,-98576.602170,10845.356982,16225.555983,0.007375,-0.006875,1.015469,192.000000,0.000000,0.000000,0.000000,0.000000,0.000000,0.000000,0.000000,0.000000,0.000000,1772617173.094507,0.000000
220.000000,15329.921583,-35853.203935,-4970.133897,7209.041084,-20595.411431,-6266.848000,-17442.720228,-22093.224179,6863.952501,11187.629245,17313.616552,-6055.512256,-6861.002071,-99308.353580,10887.825297,16241.112797,0.007375,-0.006875,1.015469,192.000000,0.000000,0.000000,0.000000,0.000000,0.000000,0.000000,0.000000,0.000000,0.000000,1772617173.094517,0.000000
