Sample_index,EXG Channel 0,EXG Channel 1,EXG Channel 2,EXG Channel 3,EXG Channel 4,EXG Channel 5,EXG Channel 6,EXG Channel 7,EXG Channel 8,EXG Channel 9,EXG Channel 10,EXG Channel 11,EXG Channel 12,EXG Channel 13,EXG Channel 14,EXG Channel 15,Accel Channel 0,Accel Channel 1,Accel Channel 2,Not Used,Digital Channel 0 (D11),Digital Channel 1 (D12),Digital Channel 2 (D13),Digital Channel 3 (D17),Not Used,Digital Channel 4 (D18),Analog Channel 0,Analog Channel 1,Analog Channel 2,Timestamp,Marker Channel
88.000000,-11842.065971,-27142.840879,4492.901801,-7028.997782,5589.925419,8593.128156,-15196.884000,-5507.291020,5956.203455,4044.235235,16047.010249,4465.386804,10839.590232,2725.124684,-24093.437087,-6445.572549,0.004125,-0.015344,1.006938,192.000000,0.000000,0.000000,0.000000,0.000000,0.000000,0.000000,0.000000,0.000000,0.000000,1772719318.263674,101.000000
90.000000,-11866.205855,-27168.634792,4481.256542,-7042.900567,5558.901198,8575.559685,-15223.460224,-5525.060657,5972.654339,4082.054386,16082.281301,4495.449900,10869.988605,2750.583321,-24076.986203,-6844.953519,0.004125,-0.015344,1.006938,192.000000,0.000000,0.000000,0.000000,0.000000,0.000000,0.000000,0.000000,0.000000,0.000000,1772719318.263748,0.000000
92.000000,-11866.585835,-27170.378228,4481.860039,-7044.241672,5548.552340,8577.504286,-15231.104521,-5527.251128,5939.707868,4020.900014,16034.917955,4446.209007,10813.841023,2709.858443,-24097.929787,-6234.683840,0.004125,-0.015344,1.006938,192.000000,0.000000,0.000000,0.000000,0.000000,0.000000,0.000000,0.000000,0.000000,0.000000,1772719318.263794,0.000000
94.000000,-11841.283660,-27144.740778,4474.215743,-7029.578928,5593.233477,8611.255421,-15200.013244,-5503.357113,5966.909941,4068.866857,16077.833304,4487.157403,10854.722363,2751.097411,-24082.797656,-6774.053785,0.002000,-0.014000,1.006000,192.000000,0.000000,8.000000,127.500000,72.000000,15.500000,56.000000,0.000000,0.000000,0.000000,1772719318.263836,0.000000
96.000000,-11887.171791,-27188.170217,4472.069975,-7052.690631,5539.365773,8577.504286,-15250.796408,-5540.773933,5946.525150,4038.580243,16051.704115,4467.554923,10829.822520,2731.539635,-24085.658680,-6462.314005,0.002000,-0.014000,1.006000,192.000000,0.000000,0.000000,0.000000,0.000000,0.000000,0.000000,0.000000,0.000000,0.000000,1772719318.263879,0.000000
98.000000,-11847.408038,-27145.366626,4476.853249,-7028.841320,5591.177117,8626.253441,-15210.071529,-5506.843985,5947.352165,4023.962203,16046.831435,4466.794964,10828.146139,2739.139228,-24091.783058,-6415.867080,0.002000,-0.014000,1.006000,192.000000,0.000000,0.000000,0.000000,0.000000,0.000000,0.000000,0.000000,0.000000,0.000000,1772719318.263918,0.000000
100.000000,-11866.898759,-27165.080865,4471.689996,-7044.487541,5573.452183,8609.020246,-15237.944154,-5526.290003,5965.859409,4061.848409,16075.799295,4495.896935,10863.640709,2769.403490,-24073.186406,-6818.265536,0.002000,-0.014000,1.006000,192.000000,0.000000,0.000000,0.000000,0.000000,0.000000,0.000000,0.000000,0.000000,0.000000,1772719318.263944,0.000000
102.000000,-11873.112544,-27172.076961,4476.942656,-7046.499198,5562.812753,8593.932819,-15244.850844,-5531.944994,5936.980955,4004.158557,16021.842184,4450.455838,10816.590287,2724.387076,-24095.873427,-6214.723732,0.002000,-0.014000,1.006000,192.000000,0.000000,0.000000,0.000000,0.000000,0.000000,0.000000,0.000000,0.000000,0.000000,1772719318.263958,0.000000
104.000000,-11841.462474,-27139.376359,4476.137993,-7029.042486,5597.904992,8609.132005,-15203.723634,-5499.490261,5966.351147,4059.434421,16064.176388,4493.125319,10861.696108,2758.473487,-24085.904549,-6772.578570,0.002000,-0.012000,1.004000,192.000000,0.000000,8.000000,127.500000,80.000000,15.500000,48.000000,0.000000,0.000000,0.000000,1772719318.263970,0.000000
106.000000,-11890.591608,-27190.204226,4468.471345,-7064.470001,5523.183110,8542.792027,-15254.797370,-5540.282195,5949.095601,4028.454903,16042.696362,4473.791060,10843.434732,2735.361783,-24096.342814,-6486.632703,0.002000,-0.012000,1.004000,192.000000,0.000000,0.000000,0.000000,0.000000,0.000000,0.000000,0.000000,0.000000,0.000000,1772719318.263981,0.000000
108.000000,-11850.514931,-27149.099368,4475.914475,-7043.973451,5569.540628,8570.195266,-15206.338788,-5505.569936,5944.155865,4013.389827,16037.778978,4465.811487,10830.090741,2718.642678,-24110.491468,-6462.001081,0.002000,-0.012000,1.004000,192.000000,0.000000,0.000000,0.000000,0.000000,0.000000,0.000000,0.000000,0.000000,0.000000,1772719318.263993,0.000000
110.000000,-11870.832666,-27169.707676,4474.662778,-7055.194027,5541.422134,8548.424667,-15227.975276,-5521.707895,5969.547447,4059.300311,16074.257025,4501.149595,10862.836047,2749.286920,-24093.347680,-6875.284836,0.002000,-0.012000,1.004000,192.000000,0.000000,0.000000,0.000000,0.000000,0.000000,0.000000,0.000000,0.000000,0.000000,1772719318.264013,0.000000
112.000000,-11876.599416,-27175.854406,4475.512144,-7054.344661,5522.646668,8541.272109,-15234.591393,-5524.703029,5939.149074,4008.628906,16024.144414,4463.419850,10813.148119,2706.639791,-24118.091061,-6268.882009,0.002000,-0.012000,1.004000,192.000000,0.000000,0.000000,0.000000,0.000000,0.000000,0.000000,0.000000,0.000000,0.000000,1772719318.264025,0.000000
114.000000,-11847.855073,-27147.445339,4471.891161,-7035.412733,5568.601855,8580.007682,-15200.415576,-5501.792491,5960.383232,4056.729860,16061.449475,4496.120452,10849.872035,2744.056612,-24104.724718,-6808.028437,0.006000,-0.016000,1.004000,192.000000,0.000000,24.000000,127.500000,64.000000,15.500000,48.000000,0.000000,0.000000,0.000000,1772719318.264037,0.000000
116.000000,-11895.218419,-27189.578377,4468.158420,-7059.284396,5516.924622,8550.771600,-15257.770152,-5543.724363,5942.859464,4039.764886,16038.382475,4474.863943,10828.995505,2730.578510,-24098.779154,-6495.483994,0.006000,-0.016000,1.004000,192.000000,0.000000,0.000000,0.000000,0.000000,0.000000,0.000000,0.000000,0.000000,0.000000,1772719318.264049,0.000000
118.000000,-11855.879349,-27150.149900,4474.036929,-7034.451608,5573.496887,8598.447871,-15215.301837,-5507.402779,5941.965394,4040.010755,16033.666257,4472.271141,10825.016895,2732.433704,-24104.970587,-6437.905900,0.006000,-0.016000,1.004000,192.000000,0.000000,0.000000,0.000000,0.000000,0.000000,0.000000,0.000000,0.000000,0.000000,1772719318.264060,0.000000
120.000000,-11874.386594,-27171.451112,4472.807583,-7046.052163,5552.307433,8586.936723,-15240.000515,-5522.646668,5964.786525,4088.938724,16072.133609,4506.536365,10858.745677,2766.833039,-24082.127104,-6833.308260,0.006000,-0.016000,1.004000,192.000000,0.000000,0.000000,0.000000,0.000000,0.000000,0.000000,0.000000,0.000000,0.000000,1772719318.264072,0.000000
122.000000,-11879.169867,-27176.212034,4479.155478,-7050.276643,5549.267596,8590.378891,-15246.259003,-5528.346363,5937.092714,4033.461694,16023.607972,4463.106926,10813.952781,2729.080943,-24096.164000,-6218.054142,0.006000,-0.016000,1.004000,192.000000,0.000000,0.000000,0.000000,0.000000,0.000000,0.000000,0.000000,0.000000,0.000000,1772719318.264084,0.000000
124.000000,-11856.460495,-27156.251926,4475.400385,-7035.904471,5591.221820,8620.911374,-15210.138584,-5507.223965,5962.931331,4077.181706,16062.187083,4496.209859,10865.987643,2773.069176,-24083.691726,-6763.369651,0.012000,-0.014000,1.004000,192.000000,0.000000,48.000000,127.500000,72.000000,15.500000,48.000000,0.000000,0.000000,0.000000,1772719318.264095,0.000000
126.000000,-11903.399158,-27204.062307,4469.208952,-7064.872332,5533.241395,8562.081583,-15265.123876,-5550.094610,5949.229711,4049.532598,16036.080246,4473.880467,10844.753485,2747.387021,-24089.257311,-6466.382023,0.012000,-0.014000,1.004000,192.000000,0.000000,0.000000,0.000000,0.000000,0.000000,0.000000,0.000000,0.000000,0.000000,1772719318.264152,0.000000
128.000000,-11852.884215,-27156.050760,4481.211839,-7043.124085,5579.151878,8595.810365,-15217.380550,-5508.118034,5959.913845,4048.169142,16036.326115,4471.220609,10842.853587,2741.866141,-24101.371956,-6426.171234,0.012000,-0.014000,1.004000,192.000000,0.000000,0.000000,0.000000,0.000000,0.000000,0.000000,0.000000,0.000000,0.000000,1772719318.264169,0.000000
130.000000,-11874.520704,-27184.862159,4480.071900,-7057.585664,5551.122791,8568.943568,-15236.513643,-5521.752598,5973.704871,4082.680235,16078.459153,4505.441130,10876.247093,2768.509420,-24084.965776,-6842.003088,0.012000,-0.014000,1.004000,192.000000,0.000000,0.000000,0.000000,0.000000,0.000000,0.000000,0.000000,0.000000,0.000000,1772719318.264181,0.000000
132.000000,-11879.214570,-27184.683345,4477.121470,-7067.465135,5530.089799,8550.436324,-15244.359105,-5534.515445,5944.938176,4021.078828,16031.118158,4455.619091,10823.854604,2721.324887,-24111.676110,-6245.591491,0.012000,-0.014000,1.004000,192.000000,0.000000,0.000000,0.000000,0.000000,0.000000,0.000000,0.000000,0.000000,0.000000,1772719318.264191,0.000000
134.000000,-11845.776361,-27142.147975,4475.176868,-7043.258195,5566.232570,8581.549952,-15201.756680,-5504.921735,5951.509589,4075.170049,16064.131685,4491.247772,10853.560073,2751.611501,-24105.752898,-6805.793262,0.010000,-0.012000,1.012000,192.000000,0.000000,40.000000,127.500000,80.000000,15.500000,80.000000,0.000000,0.000000,0.000000,1772719318.264202,0.000000
136.000000,-11881.337986,-27169.461807,4471.287664,-7072.293111,5505.458177,8528.442207,-15256.339640,-5538.874035,5934.455208,4063.591845,16043.299859,4482.754109,10832.214157,2740.927367,-24109.910322,-6513.767721,0.010000,-0.012000,1.012000,192.000000,0.000000,0.000000,0.000000,0.000000,0.000000,0.000000,0.000000,0.000000,0.000000,1772719318.264212,0.000000
138.000000,-11830.778340,-27126.278237,4480.809507,-7048.600262,5565.718480,8569.278845,-15211.055006,-5500.652552,5938.590281,4048.146790,16040.930574,4478.194353,10824.100473,2729.058591,-24119.968607,-6473.668691,0.010000,-0.012000,1.012000,192.000000,0.000000,0.000000,0.000000,0.000000,0.000000,0.000000,0.000000,0.000000,0.000000,1772719318.264223,0.000000
140.000000,-11856.147570,-27152.988571,4472.964045,-7061.228998,5545.244282,8555.644280,-15232.244460,-5521.260860,5968.206342,4085.161279,16080.962548,4507.877470,10864.423020,2757.490010,-24091.783058,-6877.609417,0.010000,-0.012000,1.012000,192.000000,0.000000,0.000000,0.000000,0.000000,0.000000,0.000000,0.000000,0.000000,0.000000,1772719318.264233,0.000000
142.000000,-11865.803524,-27158.867080,4466.504391,-7063.531228,5522.512558,8548.826998,-15244.649678,-5535.096590,5920.552423,4031.785313,16021.305742,4461.274083,10803.425110,2713.568832,-24113.352491,-6261.729450,0.010000,-0.012000,1.012000,192.000000,0.000000,0.000000,0.000000,0.000000,0.000000,0.000000,0.000000,0.000000,0.000000,1772719318.264244,0.000000
144.000000,-11829.727808,-27123.618379,4469.991263,-7038.072591,5566.165515,8597.844374,-15207.076395,-5506.016970,5951.509589,4074.208924,16064.288147,4496.634543,10847.770971,2750.717431,-24096.879255,-6789.141213,0.006000,-0.016000,1.012000,192.000000,0.000000,24.000000,127.500000,64.000000,15.500000,80.000000,0.000000,0.000000,0.000000,1772719318.264254,0.000000
146.000000,-11875.928864,-27168.768903,4464.984472,-7063.017137,5510.152043,8565.255531,-15261.927576,-5551.011032,5933.851711,4053.868837,16038.404827,4474.014577,10829.129616,2740.122705,-24093.794715,-6469.868895,0.006000,-0.016000,1.012000,192.000000,0.000000,0.000000,0.000000,0.000000,0.000000,0.000000,0.000000,0.000000,0.000000,1772719318.264265,0.000000
148.000000,-11831.538300,-27125.250056,4470.572409,-7038.385515,5562.253959,8605.667484,-15217.760529,-5514.085950,5936.980955,4042.849427,16032.503966,4471.086499,10823.139348,2741.843789,-24101.461363,-6415.442397,0.006000,-0.016000,1.012000,192.000000,0.000000,0.000000,0.000000,0.000000,0.000000,0.000000,0.000000,0.000000,0.000000,1772719318.264276,0.000000
150.000000,-11848.838550,-27145.836013,4464.470382,-7049.427277,5541.668003,8586.333226,-15238.659410,-5528.771046,5964.697118,4090.749215,16069.786676,4507.475139,10861.763163,2771.281036,-24082.618842,-6822.490015,0.006000,-0.016000,1.012000,192.000000,0.000000,0.000000,0.000000,0.000000,0.000000,0.000000,0.000000,0.000000,0.000000,1772719318.264286,0.000000
152.000000,-11852.973622,-27147.937077,4469.208952,-7053.629405,5532.704953,8572.609254,-15242.481559,-5532.503788,5932.890586,4029.907767,16022.065702,4461.855228,10812.522270,2730.623213,-24103.294206,-6219.954040,0.006000,-0.016000,1.012000,192.000000,0.000000,0.000000,0.000000,0.000000,0.000000,0.000000,0.000000,0.000000,0.000000,1772719318.264296,0.000000
154.000000,-11816.674389,-27110.050870,4473.791060,-7031.769399,5577.251980,8608.059121,-15201.063776,-5499.154985,5957.768078,4082.479070,16070.211359,4504.122377,10854.431791,2769.157621,-24093.101811,-6766.431840,0.004000,-0.016000,1.004000,192.000000,0.000000,16.000000,127.500000,64.000000,15.500000,48.000000,0.000000,0.000000,0.000000,1772719318.264307,0.000000
156.000000,-11860.595567,-27156.095464,4471.220609,-7058.658547,5511.739017,8552.738554,-15254.596204,-5539.499884,5946.122819,4066.341110,16054.922766,4488.900839,10834.918718,2750.024527,-24096.879255,-6466.359671,0.004000,-0.016000,1.004000,192.000000,0.000000,0.000000,0.000000,0.000000,0.000000,0.000000,0.000000,0.000000,0.000000,1772719318.264317,0.000000
158.000000,-11819.848337,-27113.202466,4477.613208,-7039.771323,5562.008090,8579.091260,-15209.959770,-5503.290058,5945.362859,4051.678366,16051.882929,4478.596685,10825.843909,2743.050783,-24113.285436,-6428.428761,0.004000,-0.016000,1.004000,192.000000,0.000000,0.000000,0.000000,0.000000,0.000000,0.000000,0.000000,0.000000,0.000000,1772719318.264327,0.000000
160.000000,-11840.076666,-27136.828260,4475.042757,-7057.205684,5544.529026,8555.018432,-15231.350390,-5523.205462,5971.961435,4090.905677,16090.730261,4510.984362,10867.686375,2773.471507,-24092.051279,-6848.440391,0.004000,-0.016000,1.004000,192.000000,0.000000,0.000000,0.000000,0.000000,0.000000,0.000000,0.000000,0.000000,0.000000,1772719318.264338,0.000000
162.000000,-11844.189387,-27138.526993,4480.161307,-7054.948158,5531.117979,8542.367344,-15234.636096,-5527.072314,5940.244310,4032.992307,16039.321248,4462.458725,10821.574726,2735.585300,-24112.056090,-6253.481657,0.004000,-0.016000,1.004000,192.000000,0.000000,0.000000,0.000000,0.000000,0.000000,0.000000,0.000000,0.000000,0.000000,1772719318.264348,0.000000
164.000000,-11809.968866,-27101.803076,4482.217667,-7033.915166,5568.132468,8571.849295,-15198.806250,-5492.695331,5970.307406,4089.586924,16085.343490,4513.331296,10869.496866,2774.119708,-24097.058069,-6799.847698,0.005000,-0.017000,1.004000,192.000000,0.000000,24.000000,127.500000,56.000000,15.500000,48.000000,0.000000,0.000000,0.000000,1772719318.264358,0.000000
166.000000,-11855.164093,-27146.081882,4476.227400,-7065.408774,5504.251183,8527.078751,-15253.411562,-5532.414381,5954.907054,4063.591845,16063.707002,4493.997037,10848.642689,2755.321891,-24096.454572,-6503.463567,0.005000,-0.017000,1.004000,192.000000,0.000000,0.000000,0.000000,0.000000,0.000000,0.000000,0.000000,0.000000,0.000000,1772719318.264368,0.000000
168.000000,-11816.316762,-27108.620359,4483.514069,-7041.872387,5556.084878,8569.390603,-15209.311570,-5503.602982,5954.325909,4049.063212,16051.815874,4479.535458,10839.076142,2743.766039,-24102.646005,-6446.913653,0.005000,-0.017000,1.004000,192.000000,0.000000,0.000000,0.000000,0.000000,0.000000,0.000000,0.000000,0.000000,0.000000,1772719318.264379,0.000000
170.000000,-11848.503274,-27139.979856,4474.595723,-7052.847094,5539.477532,8558.706469,-15234.747855,-5532.481436,5975.381252,4086.792956,16084.047089,4505.239964,10879.935131,2769.738766,-24080.249558,-6851.010841,0.005000,-0.017000,1.004000,192.000000,0.000000,0.000000,0.000000,0.000000,0.000000,0.000000,0.000000,0.000000,0.000000,1772719318.264389,0.000000
172.000000,-11858.092172,-27147.735911,4475.668606,-7052.735335,5534.023706,8562.774487,-15241.922765,-5538.851683,5937.115066,4031.248871,16030.693475,4457.071955,10824.301639,2730.109123,-24099.695575,-6232.068686,0.005000,-0.017000,1.004000,192.000000,0.000000,0.000000,0.000000,0.000000,0.000000,0.000000,0.000000,0.000000,0.000000,1772719318.264399,0.000000
174.000000,-11806.906677,-27097.377431,4483.804641,-7023.231032,5585.432718,8609.288467,-15199.521506,-5493.209421,5965.211208,4085.004817,16078.235636,4503.451825,10876.537666,2773.560914,-24086.798619,-6765.850695,0.005500,-0.016500,1.005000,192.000000,0.000000,24.000000,127.500000,64.000000,15.500000,56.000000,0.000000,0.000000,0.000000,1772719318.264410,0.000000
176.000000,-11853.241843,-27146.260696,4480.451880,-7054.881102,5526.267651,8559.175856,-15250.237614,-5531.632070,5962.081964,4070.744404,16068.579682,4493.751168,10865.160628,2754.763097,-24083.401153,-6463.655110,0.005500,-0.016500,1.005000,192.000000,0.000000,0.000000,0.000000,0.000000,0.000000,0.000000,0.000000,0.000000,0.000000,1772719318.264421,0.000000
178.000000,-11813.500442,-27104.753507,4487.559734,-7032.730524,5571.485230,8595.564496,-15203.142488,-5496.852755,5956.985767,4055.746383,16059.817798,4484.765766,10850.140256,2743.676632,-24100.097907,-6417.498758,0.005500,-0.016500,1.005000,192.000000,0.000000,0.000000,0.000000,0.000000,0.000000,0.000000,0.000000,0.000000,0.000000,1772719318.264431,0.000000
180.000000,-11830.241898,-27123.417213,4487.693845,-7043.548768,5552.307433,8574.732670,-15219.101634,-5509.146215,5983.584342,4099.444044,16102.308464,4523.702505,10894.463765,2778.120670,-24081.568310,-6833.062390,0.005500,-0.016500,1.005000,192.000000,0.000000,0.000000,0.000000,0.000000,0.000000,0.000000,0.000000,0.000000,0.000000,1772719318.264441,0.000000
182.000000,-11835.852186,-27131.128565,4487.559734,-7047.259158,5537.912910,8563.534446,-15228.981105,-5520.076218,5951.666051,4040.189569,16057.224996,4480.988321,10844.753485,2734.847693,-24103.025985,-6231.867520,0.005500,-0.016500,1.005000,192.000000,0.000000,0.000000,0.000000,0.000000,0.000000,0.000000,0.000000,0.000000,0.000000,1772719318.264451,0.000000
184.000000,-11805.185593,-27094.516408,4490.331351,-7026.248518,5583.041082,8597.889077,-15193.508887,-5492.337703,5972.766098,4087.687026,16094.574761,4515.924098,10883.511410,2772.868010,-24086.284529,-6771.550390,0.005500,-0.016500,1.005000,192.000000,0.000000,0.000000,127.500000,56.000000,15.500000,56.000000,0.000000,0.000000,0.000000,1772719318.264462,0.000000
186.000000,-11849.196178,-27137.543516,4486.576258,-7050.902492,5516.276421,8555.174894,-15246.683687,-5529.553357,5963.557179,4074.253628,16077.319214,4499.428511,10867.127581,2752.818495,-24086.195122,-6473.623988,0.005500,-0.016500,1.005000,192.000000,0.000000,0.000000,0.000000,0.000000,0.000000,0.000000,0.000000,0.000000,0.000000,1772719318.264472,0.000000
188.000000,-11812.695779,-27099.702013,4484.966932,-7031.054143,5555.414326,8581.102917,-15203.857744,-5496.115148,5956.918711,4063.725956,16067.730316,4496.075749,10853.180093,2742.223768,-24104.344738,-6428.942851,0.005500,-0.016500,1.005000,192.000000,0.000000,0.000000,0.000000,0.000000,0.000000,0.000000,0.000000,0.000000,0.000000,1772719318.264482,0.000000
190.000000,-11831.784169,-27119.751527,4481.904743,-7047.303861,5539.879863,8565.546103,-15223.639038,-5513.504805,5971.961435,4104.584945,16101.392043,4526.496473,10889.054643,2778.478298,-24084.339927,-6852.217835,0.005500,-0.016500,1.005000,192.000000,0.000000,0.000000,0.000000,0.000000,0.000000,0.000000,0.000000,0.000000,0.000000,1772719318.264493,0.000000
192.000000,-11834.891061,-27124.825373,4487.649141,-7053.428239,5531.654421,8551.017469,-15230.657486,-5517.639878,5939.730220,4041.955357,16050.273603,4482.999978,10837.310354,2728.499797,-24099.360299,-6250.754744,0.005500,-0.016500,1.005000,192.000000,0.000000,0.000000,0.000000,0.000000,0.000000,0.000000,0.000000,0.000000,0.000000,1772719318.264503,0.000000
194.000000,-11800.424671,-27089.129637,4489.571391,-7035.613899,5570.322939,8585.573266,-15194.268846,-5485.498069,5964.674767,4095.331323,16093.680691,4523.389581,10881.186829,2763.368519,-24082.752953,-6790.974056,0.005500,-0.016500,1.005000,192.000000,0.000000,0.000000,127.500000,72.000000,15.500000,64.000000,0.000000,0.000000,0.000000,1772719318.264513,0.000000
196.000000,-11858.583910,-27147.624153,4477.859077,-7060.714908,5500.876069,8542.903786,-15248.807102,-5532.749657,5947.642737,4069.448003,16074.100563,4501.909554,10855.839951,2748.996347,-24088.676165,-6489.314912,0.005500,-0.016500,1.005000,192.000000,0.000000,0.000000,0.000000,0.000000,0.000000,0.000000,0.000000,0.000000,0.000000,1772719318.264526,0.000000
198.000000,-11825.391570,-27112.509562,4478.641388,-7035.457436,5549.312299,8582.220505,-15201.779032,-5501.479566,5933.404676,4050.896055,16060.711868,4488.319694,10839.456122,2731.070248,-24107.831610,-6431.625060,0.005500,-0.016500,1.005000,192.000000,0.000000,0.000000,0.000000,0.000000,0.000000,0.000000,0.000000,0.000000,0.000000,1772719318.264536,0.000000
200.000000,-11839.562576,-27126.211181,4477.233228,-7042.095905,5536.840026,8571.826943,-15219.414558,-5512.163700,5953.789467,4099.153471,16094.507706,4524.462464,10877.968178,2766.989501,-24089.927863,-6834.448199,0.005500,-0.016500,1.005000,192.000000,0.000000,0.000000,0.000000,0.000000,0.000000,0.000000,0.000000,0.000000,0.000000,1772719318.264546,0.000000
202.000000,-11840.031962,-27125.764147,4479.535458,-7039.816027,5528.100494,8572.206923,-15227.394131,-5513.616564,5935.841016,4053.354747,16053.112275,4489.481984,10833.957593,2741.486161,-24109.038604,-6222.345677,0.005500,-0.016500,1.005000,192.000000,0.000000,0.000000,0.000000,0.000000,0.000000,0.000000,0.000000,0.000000,0.000000,1772719318.264556,0.000000
204.000000,-11808.538354,-27096.013975,4480.809507,-7020.057085,5570.166477,8606.516851,-15191.474878,-5487.196802,5967.669900,4104.294372,16098.128688,4528.508130,10878.370509,2781.048749,-24096.432221,-6762.073250,0.004750,-0.011250,1.002500,192.000000,0.000000,16.000000,127.500000,104.000000,15.500000,32.000000,0.000000,0.000000,0.000000,1772719318.264567,0.000000
206.000000,-11856.438143,-27143.243211,4483.938752,-7050.567216,5514.756502,8558.997042,-15242.168634,-5530.246261,5954.012985,4079.841564,16079.241464,4505.508185,10857.426924,2759.814591,-24095.515799,-6472.349938,0.004750,-0.011250,1.002500,192.000000,0.000000,0.000000,0.000000,0.000000,0.000000,0.000000,0.000000,0.000000,0.000000,1772719318.264577,0.000000
208.000000,-11819.803634,-27107.659234,4487.649141,-7032.507006,5565.763183,8595.609199,-15202.069605,-5504.519404,5948.045069,4064.217694,16067.104467,4493.684112,10852.084857,2747.945815,-24102.266026,-6427.042952,0.004750,-0.011250,1.002500,192.000000,0.000000,0.000000,0.000000,0.000000,0.000000,0.000000,0.000000,0.000000,0.000000,1772719318.743768,0.000000
210.000000,-11842.043619,-27130.949751,4480.653045,-7046.007460,5554.319090,8583.114574,-15230.098692,-5529.352192,5969.793316,4104.048503,16099.201572,4521.087351,10890.418099,2774.320874,-24074.549863,-6840.527873,0.004750,-0.011250,1.002500,192.000000,0.000000,0.000000,0.000000,0.000000,0.000000,0.000000,0.000000,0.000000,0.000000,1772719318.743828,0.000000
212.000000,-11846.111637,-27136.940019,4482.754109,-7046.610957,5550.251073,8581.326435,-15240.134625,-5535.208349,5944.088810,4042.290633,16048.664278,4469.991263,10840.596061,2731.897263,-24087.916206,-6227.106598,0.004750,-0.011250,1.002500,192.000000,0.000000,0.000000,0.000000,0.000000,0.000000,0.000000,0.000000,0.000000,0.000000,1772719318.743871,0.000000
214.000000,-11815.690913,-27100.685489,4477.747318,-7024.840358,5589.768957,8611.277772,-15201.063776,-5505.704046,5967.714604,4087.687026,16088.852714,4513.174833,10881.119774,2766.810687,-24080.227206,-6768.376442,0.006375,-0.010625,1.001250,192.000000,0.000000,32.000000,127.500000,88.000000,15.500000,32.000000,0.000000,0.000000,0.000000,1772719318.743910,0.000000
216.000000,-11858.114524,-27142.550307,4473.791060,-7052.645928,5528.391067,8555.085487,-15251.489312,-5539.119904,5955.354089,4074.790069,16066.970356,4504.927040,10865.272387,2749.286920,-24081.657717,-6482.385872,0.006375,-0.010625,1.001250,192.000000,0.000000,0.000000,0.000000,0.000000,0.000000,0.000000,0.000000,0.000000,0.000000,1772719318.743976,0.000000
218.000000,-11819.781282,-27106.943978,4482.217667,-7033.088152,5578.369567,8587.741385,-15204.505945,-5503.580630,5950.749630,4060.641415,16059.437818,4496.522784,10850.296718,2734.221844,-24098.980319,-6437.458865,0.006375,-0.010625,1.001250,192.000000,0.000000,0.000000,0.000000,0.000000,0.000000,0.000000,0.000000,0.000000,0.000000,1772719318.744018,0.000000
220.000000,-11838.892023,-27128.222838,4482.910571,-7048.823780,5562.432773,8571.961054,-15228.489367,-5526.155892,5971.223828,4101.165128,16095.692348,4522.070828,10888.965236,2767.905923,-24077.634403,-6852.217835,0.006375,-0.010625,1.001250,192.000000,0.000000,0.000000,0.000000,0.000000,0.000000,0.000000,0.000000,0.000000,0.000000,1772719318.744029,0.000000
222.000000,-11851.364297,-27141.812699,4484.050510,-7052.556521,5539.008145,8564.540275,-15238.413541,-5538.337593,5941.138380,4042.804723,16042.405789,4474.573371,10840.238433,2721.660164,-24102.511895,-6242.149322,0.006375,-0.010625,1.001250,192.000000,0.000000,0.000000,0.000000,0.000000,0.000000,0.000000,0.000000,0.000000,0.000000,1772719318.744041,0.000000
224.000000,-11827.336172,-27118.321016,4478.015539,-7029.154245,5566.411384,8598.760795,-15198.962712,-5516.477587,5958.170409,4080.646226,16077.855656,4509.687961,10874.905989,2754.316062,-24099.628520,-6782.927428,0.004188,-0.013312,1.001625,192.000000,0.000000,8.000000,127.500000,64.000000,15.500000,40.000000,0.000000,0.000000,0.000000,1772719318.744052,0.000000
226.000000,-11888.043509,-27173.775694,4464.291568,-7056.110448,5489.029645,8549.743420,-15253.858597,-5565.696128,5931.281260,4047.185665,16050.005382,4479.267237,10844.194692,2731.204358,-24107.764555,-6492.935895,0.004188,-0.013312,1.001625,192.000000,0.000000,0.000000,0.000000,0.000000,0.000000,0.000000,0.000000,0.000000,0.000000,1772719318.744071,0.000000
228.000000,-11842.423599,-27127.686397,4466.392632,-7026.360277,5540.013974,8587.115537,-15210.652675,-5524.792436,5921.133568,4034.713392,16041.712885,4473.075804,10824.323991,2722.286012,-24123.030796,-6436.251871,0.004188,-0.013312,1.001625,192.000000,0.000000,0.000000,0.000000,0.000000,0.000000,0.000000,0.000000,0.000000,0.000000,1772719318.744082,0.000000
230.000000,-11852.101904,-27135.554211,4465.364452,-7031.948213,5536.303584,8578.554818,-15228.690532,-5528.994564,5949.319118,4089.162241,16084.628234,4520.327392,10867.328747,2766.050728,-24097.594511,-6843.299489,0.004188,-0.013312,1.001625,192.000000,0.000000,0.000000,0.000000,0.000000,0.000000,0.000000,0.000000,0.000000,0.000000,1772719318.744093,0.000000
232.000000,-11843.272965,-27128.401652,4476.920304,-7033.199910,5534.426038,8576.632568,-15230.836300,-5523.205462,5937.048010,4039.876645,16051.592356,4488.811432,10831.007162,2725.974050,-24110.714985,-6231.353430,0.004188,-0.013312,1.001625,192.000000,0.000000,0.000000,0.000000,0.000000,0.000000,0.000000,0.000000,0.000000,0.000000,1772719318.744105,0.000000
234.000000,-11817.769625,-27102.384222,4483.961103,-7022.538128,5581.610570,8605.645133,-15192.391299,-5501.121938,5971.782621,4087.441157,16102.174354,4526.384714,10879.465744,2765.827211,-24088.229130,-6775.193724,0.004188,-0.013312,1.001625,192.000000,0.000000,0.000000,0.000000,0.000000,0.000000,0.000000,0.000000,0.000000,0.000000,1772719318.744116,0.000000
236.000000,-11873.470172,-27155.939002,4475.266275,-7054.769344,5521.730247,8554.146714,-15249.544710,-5551.994509,5947.218054,4050.761944,16067.283281,4498.713255,10850.229663,2739.183931,-24087.849151,-6489.963113,0.008000,-0.014000,1.004000,192.000000,0.000000,32.000000,127.500000,72.000000,15.500000,48.000000,0.000000,0.000000,0.000000,1772719318.744127,0.000000
238.000000,-11837.707381,-27117.695167,4475.288627,-7031.724695,5572.848686,8588.546048,-15211.010302,-5522.199633,5939.327888,4041.351860,16053.179330,4488.096176,10842.965346,2739.496856,-24097.080421,-6434.374325,0.008000,-0.014000,1.004000,192.000000,0.000000,0.000000,0.000000,0.000000,0.000000,0.000000,0.000000,0.000000,0.000000,1772719318.744138,0.000000
240.000000,-11847.676259,-27126.591161,4469.790097,-7038.206701,5553.000337,8569.055327,-15227.908221,-5529.240433,5965.077098,4093.610238,16091.981958,4527.144674,10879.242227,2771.705719,-24078.953156,-6856.285853,0.008000,-0.014000,1.004000,192.000000,0.000000,0.000000,0.000000,0.000000,0.000000,0.000000,0.000000,0.000000,0.000000,1772719318.744149,0.000000
242.000000,-11843.518835,-27124.244228,4478.551981,-7037.625556,5545.356041,8560.382850,-15232.982067,-5523.183110,5938.053839,4040.077810,16054.945118,4487.224458,10831.722418,2727.382210,-24100.164962,-6253.146381,0.008000,-0.014000,1.004000,192.000000,0.000000,0.000000,0.000000,0.000000,0.000000,0.000000,0.000000,0.000000,0.000000,1772719318.744160,0.000000
244.000000,-11801.072872,-27080.233643,4486.263333,-7007.361294,5599.022579,8606.181575,-15190.893732,-5489.119052,5973.257836,4097.834718,16109.349264,4533.559624,10887.825297,2770.722243,-24086.396287,-6792.203402,0.008000,-0.014000,1.004000,192.000000,0.000000,0.000000,0.000000,0.000000,0.000000,0.000000,0.000000,0.000000,0.000000,1772719318.744171,0.000000
246.000000,-11846.893948,-27126.859382,4485.257505,-7031.679992,5539.499884,8570.284673,-15245.275527,-5533.263747,5968.139287,4088.044654,16096.340549,4522.182586,10873.609587,2765.290769,-24084.675203,-6492.175936,0.004000,-0.016000,1.008000,192.000000,0.000000,16.000000,127.500000,64.000000,15.500000,64.000000,0.000000,0.000000,0.000000,1772719318.744182,0.000000
248.000000,-11799.731767,-27079.876015,4495.718121,-7003.740311,5585.320960,8616.999819,-15196.369910,-5494.774043,5967.669900,4076.488802,16089.299749,4520.036819,10867.619320,2762.049766,-24100.679052,-6427.467636,0.004000,-0.016000,1.008000,192.000000,0.000000,0.000000,0.000000,0.000000,0.000000,0.000000,0.000000,0.000000,0.000000,1772719318.744196,0.000000
250.000000,-11826.084474,-27108.240379,4487.850307,-7020.727637,5558.878846,8597.531450,-15216.285314,-5514.644744,5988.009988,4117.459550,16124.257877,4548.959976,10903.471518,2793.878650,-24084.786962,-6841.488998,0.004000,-0.016000,1.008000,192.000000,0.000000,0.000000,0.000000,0.000000,0.000000,0.000000,0.000000,0.000000,0.000000,1772719318.744207,0.000000
252.000000,-11845.552843,-27128.848687,4484.385787,-7035.882120,5535.856549,8575.291464,-15232.602088,-5532.772009,5947.732144,4050.136095,16069.160827,4493.907630,10846.094590,2744.302481,-24109.038604,-6240.227072,0.004000,-0.016000,1.008000,192.000000,0.000000,0.000000,0.000000,0.000000,0.000000,0.000000,0.000000,0.000000,0.000000,1772719318.744218,0.000000
254.000000,-11813.455738,-27093.756448,4486.442147,-7016.994896,5582.415233,8602.895868,-15192.704224,-5503.446520,5968.072232,4092.202078,16107.024682,4530.318621,10887.557076,2773.560914,-24094.979357,-6781.474564,0.004000,-0.016000,1.008000,192.000000,0.000000,0.000000,0.000000,0.000000,0.000000,0.000000,0.000000,0.000000,0.000000,1772719318.744230,0.000000
0.000000,-11862.741335,-27145.277219,4478.037891,-7049.829608,5524.725381,8550.972766,-15251.154035,-5551.770991,5953.677708,4069.358596,16082.705984,4508.793892,10867.284044,2748.281091,-24096.700441,-6489.918410,0.002000,-0.020000,1.008000,192.000000,0.000000,8.000000,127.500000,48.000000,15.500000,64.000000,0.000000,0.000000,0.000000,1772719318.744241,0.000000
2.000000,-11824.810424,-27109.357966,4489.146708,-7033.535186,5581.789384,8596.011531,-15208.417500,-5520.143273,5949.006194,4055.411107,16069.697269,4493.035912,10861.383183,2736.211149,-24103.473020,-6427.937022,0.002000,-0.020000,1.008000,192.000000,0.000000,0.000000,0.000000,0.000000,0.000000,0.000000,0.000000,0.000000,0.000000,1772719318.744251,0.000000
4.000000,-11855.208797,-27138.482289,4488.409101,-7051.818913,5568.400689,8581.192324,-15231.193928,-5542.047982,5963.691290,4096.515965,16102.107299,4520.305040,10895.871925,2775.036129,-24072.426447,-6849.423867,0.002000,-0.020000,1.008000,192.000000,0.000000,0.000000,0.000000,0.000000,0.000000,0.000000,0.000000,0.000000,0.000000,1772719318.744263,0.000000
6.000000,-11863.925977,-27144.114929,4487.626790,-7051.327175,5555.883712,8569.323548,-15238.994686,-5547.904140,5925.849787,4034.422819,16047.501987,4473.075804,10843.144160,2727.270451,-24086.083363,-6249.570101,0.002000,-0.020000,1.008000,192.000000,0.000000,0.000000,0.000000,0.000000,0.000000,0.000000,0.000000,0.000000,0.000000,1772719318.744274,0.000000
8.000000,-11818.328419,-27099.903178,4489.794909,-7023.655715,5605.303419,8604.460490,-15194.782936,-5512.521328,5954.795296,4087.977599,16095.133554,4518.002810,10889.993416,2774.387929,-24067.978450,-6790.951704,0.002000,-0.020000,1.008000,192.000000,0.000000,0.000000,0.000000,0.000000,0.000000,0.000000,0.000000,0.000000,0.000000,1772719318.744285,0.000000
10.000000,-11861.132009,-27140.583353,4483.089385,-7046.163922,5546.428924,8559.779353,-15243.554442,-5546.250110,5948.737973,4078.142831,16080.113182,4508.100987,10878.236398,2762.921484,-24071.487674,-6505.095244,0.004000,-0.018000,1.010000,192.000000,0.000000,16.000000,127.500000,56.000000,15.500000,72.000000,0.000000,0.000000,0.000000,1772719318.744296,0.000000
12.000000,-11819.893041,-27095.835161,4485.190449,-7019.632401,5593.009960,8600.213659,-15198.538029,-5511.403741,5949.363822,4077.248761,16074.592301,4505.262316,10869.362756,2755.299539,-24091.805409,-6439.895205,0.004000,-0.018000,1.010000,192.000000,0.000000,0.000000,0.000000,0.000000,0.000000,0.000000,0.000000,0.000000,0.000000,1772719318.744306,0.000000
14.000000,-11839.070837,-27115.012957,4477.903781,-7026.270870,5571.731099,8590.691816,-15218.051102,-5531.699125,5970.285054,4116.006686,16106.957627,4542.656784,10903.516221,2786.010836,-24083.021174,-6856.732888,0.004000,-0.018000,1.010000,192.000000,0.000000,0.000000,0.000000,0.000000,0.000000,0.000000,0.000000,0.000000,0.000000,1772719318.744318,0.000000
16.000000,-11847.720962,-27126.077071,4478.864906,-7025.533262,5559.705861,8584.232162,-15225.337771,-5540.371602,5943.909996,4058.070965,16063.505836,4497.595668,10856.085820,2747.968167,-24102.042508,-6240.025907,0.004000,-0.018000,1.010000,192.000000,0.000000,0.000000,0.000000,0.000000,0.000000,0.000000,0.000000,0.000000,0.000000,1772719318.744329,0.000000
18.000000,-11817.836680,-27096.058678,4479.133127,-7007.003666,5601.078940,8620.576098,-15189.150296,-5511.895479,5963.914807,4103.534413,16102.084947,4531.704430,10896.564829,2786.726092,-24091.716002,-6773.450288,0.004000,-0.018000,1.010000,192.000000,0.000000,0.000000,0.000000,0.000000,0.000000,0.000000,0.000000,0.000000,0.000000,1772719318.744340,0.000000
20.000000,-11867.211684,-27151.222783,4470.974740,-7037.200873,5536.348288,8574.263284,-15245.163768,-5556.442506,5944.580548,4080.892096,16073.765287,4512.459578,10875.911817,2760.798068,-24095.493447,-6480.910657,0.004000,-0.014000,1.008000,192.000000,0.000000,16.000000,127.500000,72.000000,15.500000,64.000000,0.000000,0.000000,0.000000,1772719318.744350,0.000000
22.000000,-11824.251631,-27105.736984,4480.876563,-7012.099864,5584.382186,8612.797691,-15196.794593,-5514.823558,5942.010098,4066.586979,16064.265795,4506.156386,10868.938073,2752.974958,-24106.848133,-6410.234441,0.004000,-0.014000,1.008000,192.000000,0.000000,0.000000,0.000000,0.000000,0.000000,0.000000,0.000000,0.000000,0.000000,1772719318.744361,0.000000
24.000000,-11843.161207,-27131.910876,4480.876563,-7029.981259,5563.930340,8591.384720,-15218.721654,-5530.492131,5967.647549,4105.858994,16106.979979,4538.141732,10908.187736,2780.199382,-24085.323404,-6832.771818,0.004000,-0.014000,1.008000,192.000000,0.000000,0.000000,0.000000,0.000000,0.000000,0.000000,0.000000,0.000000,0.000000,1772719318.744373,0.000000
26.000000,-11860.349698,-27143.444376,4486.017464,-7041.559463,5553.089744,8577.280769,-15231.596259,-5544.886654,5938.992612,4041.977709,16058.968432,4485.123394,10862.232549,2732.612518,-24098.779154,-6229.095904,0.004000,-0.014000,1.008000,192.000000,0.000000,0.000000,0.000000,0.000000,0.000000,0.000000,0.000000,0.000000,0.000000,1772719318.744384,0.000000
28.000000,-11848.011535,-27133.274333,4488.342045,-7031.031791,5606.309248,8605.533374,-15200.326169,-5525.038305,5947.866255,4084.177802,16088.159810,4521.109703,10897.369492,2767.995330,-24077.433238,-6773.047957,0.004000,-0.014000,1.008000,192.000000,0.000000,0.000000,0.000000,0.000000,0.000000,0.000000,0.000000,0.000000,0.000000,1772719318.744395,0.000000
30.000000,-11896.917152,-27186.940871,4484.296380,-7060.536094,5551.301605,8562.193342,-15252.495140,-5568.378337,5934.030525,4056.595749,16063.528188,4492.007731,10882.863210,2750.739783,-24070.191273,-6491.013645,0.004000,-0.014000,1.014000,192.000000,0.000000,16.000000,127.500000,72.000000,15.500000,88.000000,0.000000,0.000000,0.000000,1772719318.744406,0.000000
32.000000,-11864.484771,-27156.162519,4487.760900,-7039.681916,5600.430739,8596.927952,-15206.025863,-5534.984831,5921.468845,4038.937871,16052.888757,4479.691920,10869.698032,2742.022603,-24073.186406,-6430.999211,0.004000,-0.014000,1.014000,192.000000,0.000000,0.000000,0.000000,0.000000,0.000000,0.000000,0.000000,0.000000,0.000000,1772719318.744416,0.000000
34.000000,-11883.081422,-27173.909804,4482.597647,-7044.264024,5585.142146,8582.376967,-15220.845070,-5545.601910,5940.557234,4078.992197,16089.389156,4514.873566,10907.450128,2771.370443,-24050.454682,-6855.548245,0.004000,-0.014000,1.014000,192.000000,0.000000,0.000000,0.000000,0.000000,0.000000,0.000000,0.000000,0.000000,0.000000,1772719318.744428,0.000000
36.000000,-11877.962873,-27167.070170,4486.151574,-7039.905434,5572.803983,8585.036824,-15228.332904,-5543.925529,5918.496063,4035.473351,16044.775074,4483.134089,10863.596006,2736.613481,-24073.409924,-6243.803351,0.004000,-0.014000,1.014000,192.000000,0.000000,0.000000,0.000000,0.000000,0.000000,0.000000,0.000000,0.000000,0.000000,1772719318.744438,0.000000
38.000000,-11835.114579,-27125.406519,4488.252638,-7011.429311,5617.887451,8624.510005,-15188.233875,-5504.094720,5962.618406,4089.005779,16097.502839,4530.966822,10915.630867,2784.043882,-24070.191273,-6776.177201,0.004000,-0.014000,1.014000,192.000000,0.000000,0.000000,0.000000,0.000000,0.000000,0.000000,0.000000,0.000000,0.000000,1772719318.744449,0.000000
40.000000,-11884.556637,-27172.501644,4481.457708,-7035.792713,5550.362831,8578.264246,-15239.374666,-5541.735058,5943.977051,4071.660825,16081.901322,4517.041685,10894.843745,2769.224676,-24078.953156,-6487.794994,0.002000,-0.018000,1.010000,192.000000,0.000000,8.000000,127.500000,56.000000,15.500000,72.000000,0.000000,0.000000,0.000000,1772719318.744460,0.000000
42.000000,-11847.452742,-27128.513411,4483.603476,-7010.647000,5588.494907,8614.094092,-15195.475840,-5509.682656,5927.436760,4067.928084,16068.244406,4510.783197,10880.248055,2764.307292,-24098.689747,-6423.287859,0.002000,-0.018000,1.010000,192.000000,0.000000,0.000000,0.000000,0.000000,0.000000,0.000000,0.000000,0.000000,0.000000,1772719318.744471,0.000000
44.000000,-11881.494448,-27162.353952,4470.438298,-7029.333059,5558.677680,8588.747214,-15223.706093,-5537.488227,5943.954700,4115.582003,16094.395947,4542.969709,10909.350027,2792.448138,-24084.541092,-6842.964213,0.002000,-0.018000,1.010000,192.000000,0.000000,0.000000,0.000000,0.000000,0.000000,0.000000,0.000000,0.000000,0.000000,1772719318.744482,0.000000
46.000000,-11896.671283,-27184.102200,4466.996129,-7040.687745,5539.544587,8570.172914,-15239.329963,-5556.755430,5902.782786,4045.241063,16032.995705,4482.262371,10854.968233,2739.653318,-24108.099831,-6234.572081,0.002000,-0.018000,1.010000,192.000000,0.000000,0.000000,0.000000,0.000000,0.000000,0.000000,0.000000,0.000000,0.000000,1772719318.744493,0.000000
48.000000,-11863.523646,-27154.732007,4468.203124,-7023.007515,5581.945846,8608.036769,-15199.834430,-5529.910985,5928.040257,4079.752157,16072.893569,4507.653953,10895.201373,2766.564818,-24098.041546,-6773.182067,0.002000,-0.018000,1.010000,192.000000,0.000000,0.000000,0.000000,0.000000,0.000000,0.000000,0.000000,0.000000,0.000000,1772719318.744504,0.000000
50.000000,-11926.399103,-27206.319834,4455.574388,-7053.987033,5515.851738,8560.271091,-15254.998536,-5576.961407,5905.487347,4059.970863,16045.020943,4489.034949,10869.698032,2742.424934,-24098.086250,-6489.069043,0.006000,-0.018000,1.008000,192.000000,0.000000,40.000000,127.500000,56.000000,15.500000,56.000000,0.000000,0.000000,0.000000,1772719318.744516,0.000000
52.000000,-11883.751975,-27162.242193,4465.051528,-7034.205739,5571.351119,8598.738444,-15210.160936,-5544.126695,5891.048120,4055.388755,16027.564231,4482.709406,10854.856474,2740.189760,-24108.032776,-6422.863176,0.006000,-0.018000,1.008000,192.000000,0.000000,0.000000,0.000000,0.000000,0.000000,0.000000,0.000000,0.000000,0.000000,1772719318.744526,0.000000
54.000000,-11896.783042,-27184.549234,4472.651121,-7053.763515,5564.958521,8585.103880,-15230.501024,-5562.075145,5929.202548,4096.739482,16071.843037,4511.297287,10905.304361,2775.505516,-24074.125180,-6845.624071,0.006000,-0.018000,1.008000,192.000000,0.000000,0.000000,0.000000,0.000000,0.000000,0.000000,0.000000,0.000000,0.000000,1772719318.744538,0.000000
56.000000,-11908.137728,-27195.076906,4477.277932,-7059.619672,5560.130544,8578.554818,-15244.023829,-5572.558114,5900.704074,4032.120589,16021.953943,4457.094307,10863.081916,2732.299594,-24081.054220,-6243.222206,0.006000,-0.018000,1.008000,192.000000,0.000000,0.000000,0.000000,0.000000,0.000000,0.000000,0.000000,0.000000,0.000000,1772719318.744550,0.000000
58.000000,-11872.754916,-27153.614420,4481.144784,-7033.401076,5616.456940,8618.855014,-15203.723634,-5536.750619,5927.235595,4086.994122,16064.332850,4500.411987,10915.183832,2777.248952,-24062.882252,-6774.992558,0.006000,-0.018000,1.008000,192.000000,0.000000,0.000000,0.000000,0.000000,0.000000,0.000000,0.000000,0.000000,0.000000,1772719318.744562,0.000000
60.000000,-11906.215478,-27183.565758,4481.971798,-7054.434068,5561.985739,8578.040728,-15252.070457,-5561.315186,5918.205490,4088.446985,16057.761438,4498.981476,10894.486117,2774.946722,-24058.881290,-6490.074872,0.004000,-0.020000,1.007000,192.000000,0.000000,8.000000,127.500000,40.000000,15.500000,56.000000,0.000000,0.000000,0.000000,1772719318.744572,0.000000
62.000000,-11855.074686,-27139.532821,4495.382845,-7023.007515,5615.160539,8618.698551,-15200.504983,-5516.634049,5926.766208,4075.326511,16062.723525,4503.295362,10893.659102,2762.362690,-24072.426447,-6421.343258,0.004000,-0.020000,1.007000,192.000000,0.000000,0.000000,0.000000,0.000000,0.000000,0.000000,0.000000,0.000000,0.000000,1772719318.744583,0.000000
64.000000,-11885.763632,-27168.545385,4483.759938,-7031.635288,5589.210163,8602.560592,-15220.398035,-5539.477532,5954.795296,4123.248651,16101.973188,4540.689831,10938.295536,2792.805766,-24051.929897,-6840.661984,0.004000,-0.020000,1.007000,192.000000,0.000000,0.000000,0.000000,0.000000,0.000000,0.000000,0.000000,0.000000,0.000000,1772719318.744594,0.000000
66.000000,-11903.667379,-27178.670726,4476.585028,-7032.395248,5560.577579,8586.780260,-15228.824643,-5548.708802,5900.569964,4063.368328,16036.773150,4494.153499,10873.006090,2740.435629,-24090.821933,-6225.497273,0.004000,-0.020000,1.007000,192.000000,0.000000,0.000000,0.000000,0.000000,0.000000,0.000000,0.000000,0.000000,0.000000,1772719318.744605,0.000000
68.000000,-11879.952178,-27159.828205,4468.806621,-7016.614916,5593.434643,8621.961906,-15197.688663,-5526.312354,5923.771074,4110.686971,16074.033508,4534.029011,10908.925344,2778.344188,-24090.084325,-6757.938177,0.004000,-0.020000,1.007000,192.000000,0.000000,0.000000,0.000000,0.000000,0.000000,0.000000,0.000000,0.000000,0.000000,1772719318.744617,0.000000
70.000000,-11936.144464,-27226.235238,4460.782344,-7050.991899,5527.988735,8573.302159,-15256.540806,-5578.123698,5902.358103,4063.614197,16043.210452,4495.226383,10883.422003,2749.488085,-24094.912302,-6475.255665,0.005000,-0.019000,1.006500,192.000000,0.000000,24.000000,127.500000,56.000000,15.500000,56.000000,0.000000,0.000000,0.000000,1772719318.744628,0.000000
72.000000,-11906.081367,-27190.852426,4465.230342,-7028.707210,5574.010977,8608.461453,-15212.552573,-5546.853608,5892.076301,4039.116685,16029.061798,4482.262371,10872.246131,2736.859350,-24105.238808,-6405.339409,0.005000,-0.019000,1.006500,192.000000,0.000000,0.000000,0.000000,0.000000,0.000000,0.000000,0.000000,0.000000,0.000000,1772719319.224079,0.000000
74.000000,-11921.906402,-27202.631796,4467.510220,-7039.994841,5561.292834,8592.055272,-15233.451454,-5562.879808,5899.318266,4088.044654,16061.047144,4514.024200,10904.499698,2776.131365,-24080.674241,-6828.949669,0.005000,-0.019000,1.006500,192.000000,0.000000,0.000000,0.000000,0.000000,0.000000,0.000000,0.000000,0.000000,0.000000,1772719319.224140,0.000000
76.000000,-11930.154196,-27215.484049,4472.740528,-7050.813085,5552.530951,8582.354615,-15245.879024,-5569.026538,5879.916952,4043.385868,16018.109443,4470.930036,10862.299605,2739.653318,-24092.408907,-6225.854901,0.005000,-0.019000,1.006500,192.000000,0.000000,0.000000,0.000000,0.000000,0.000000,0.000000,0.000000,0.000000,0.000000,1772719319.224178,0.000000
78.000000,-11894.480812,-27180.838845,4477.300284,-7033.244614,5606.666876,8616.284563,-15204.707110,-5533.219043,5906.671990,4086.860011,16060.980089,4508.369208,10908.455957,2779.931161,-24072.851130,-6773.159715,0.005000,-0.019000,1.006500,192.000000,0.000000,0.000000,0.000000,0.000000,0.000000,0.000000,0.000000,0.000000,0.000000,1772719319.224240,0.000000
80.000000,-11935.295097,-27220.580247,4471.980568,-7057.608015,5550.653404,8565.613158,-15256.943137,-5569.875904,5900.413501,4069.939741,16045.266812,4494.421720,10889.658140,2748.214036,-24069.163092,-6498.702645,0.005500,-0.018500,1.008250,192.000000,0.000000,24.000000,127.500000,56.000000,15.500000,72.000000,0.000000,0.000000,0.000000,1772719319.224277,0.000000
82.000000,-11902.393329,-27181.285880,4473.589894,-7033.043448,5602.531803,8605.041636,-15214.385416,-5539.946918,5887.158917,4061.267264,16035.588507,4486.308037,10873.229608,2746.850580,-24079.288433,-6428.674630,0.005500,-0.018500,1.008250,192.000000,0.000000,0.000000,0.000000,0.000000,0.000000,0.000000,0.000000,0.000000,0.000000,1772719319.224315,0.000000
84.000000,-11919.090083,-27199.234331,4470.706519,-7042.475884,5585.432718,8588.993083,-15235.172538,-5556.598968,5915.031542,4107.781244,16076.089868,4520.953241,10910.244097,2779.171202,-24060.535319,-6848.932129,0.005500,-0.018500,1.008250,192.000000,0.000000,0.000000,0.000000,0.000000,0.000000,0.000000,0.000000,0.000000,0.000000,1772719319.224351,0.000000
86.000000,-11933.216385,-27206.409241,4472.382900,-7046.543902,5566.254922,8581.527600,-15243.196814,-5562.768050,5877.212391,4057.892151,16020.903411,4478.373167,10858.745677,2737.395792,-24085.479866,-6238.841264,0.005500,-0.018500,1.008250,192.000000,0.000000,0.000000,0.000000,0.000000,0.000000,0.000000,0.000000,0.000000,0.000000,1772719319.224388,0.000000
88.000000,-11885.629521,-27162.979801,4485.548077,-7020.839396,5622.715428,8622.699514,-15199.722671,-5521.685543,5913.221051,4117.124273,16067.707964,4526.407066,10909.774710,2785.072063,-24074.885139,-6771.081003,0.005500,-0.018500,1.008250,192.000000,0.000000,0.000000,0.000000,0.000000,0.000000,0.000000,0.000000,0.000000,0.000000,1772719319.224444,0.000000
90.000000,-11928.008429,-27209.024395,4486.911534,-7047.795599,5567.908951,8581.125269,-15250.394076,-5559.817619,5920.060685,4096.203041,16061.784752,4511.520804,10906.243134,2767.727109,-24072.560557,-6482.072947,0.004750,-0.019250,1.005125,192.000000,0.000000,16.000000,127.500000,48.000000,15.500000,40.000000,0.000000,0.000000,0.000000,1772719319.224480,0.000000
92.000000,-11908.607114,-27188.639604,4482.642351,-7026.896718,5610.779597,8618.273868,-15211.502041,-5536.817674,5912.662257,4075.952360,16053.224034,4496.232211,10895.827221,2755.813629,-24087.759744,-6405.406464,0.004750,-0.019250,1.005125,192.000000,0.000000,0.000000,0.000000,0.000000,0.000000,0.000000,0.000000,0.000000,0.000000,1772719319.224517,0.000000
94.000000,-11937.083237,-27214.880552,4465.565618,-7040.374820,5581.208239,8595.653903,-15236.133663,-5559.459991,5916.819682,4113.927974,16078.190932,4523.121360,10921.419969,2783.373330,-24076.516816,-6824.792245,0.004750,-0.019250,1.005125,192.000000,0.000000,0.000000,0.000000,0.000000,0.000000,0.000000,0.000000,0.000000,0.000000,1772719319.224555,0.000000
96.000000,-11955.903406,-27233.074872,4456.736679,-7045.336908,5554.743773,8577.303121,-15248.918861,-5573.541590,5876.541838,4049.711412,16019.048216,4481.547115,10862.411363,2738.692193,-24105.507029,-6212.712075,0.004750,-0.019250,1.005125,192.000000,0.000000,0.000000,0.000000,0.000000,0.000000,0.000000,0.000000,0.000000,0.000000,1772719319.224607,0.000000
98.000000,-11930.712990,-27206.632758,4454.702670,-7025.756779,5593.054663,8609.467281,-15211.680855,-5547.591215,5893.931495,4087.262343,16053.268737,4511.923136,10897.637713,2769.381138,-24098.376822,-6746.874064,0.004750,-0.019250,1.005125,192.000000,0.000000,0.000000,0.000000,0.000000,0.000000,0.000000,0.000000,0.000000,0.000000,1772719319.224651,0.000000
100.000000,-11969.515618,-27246.172994,4459.217722,-7055.752820,5540.013974,8562.103935,-15260.742934,-5584.561000,5881.012187,4069.626816,16037.846033,4491.851269,10879.286930,2753.153772,-24092.945348,-6473.087546,0.005375,-0.017625,1.006563,192.000000,0.000000,24.000000,127.500000,64.000000,15.500000,64.000000,0.000000,0.000000,0.000000,1772719319.224672,0.000000
102.000000,-11933.909289,-27216.467526,4468.538400,-7040.866559,5597.726178,8591.943513,-15216.799404,-5552.732116,5872.026786,4053.175933,16032.146338,4481.927095,10875.196561,2734.937100,-24095.091116,-6411.262621,0.005375,-0.017625,1.006563,192.000000,0.000000,0.000000,0.000000,0.000000,0.000000,0.000000,0.000000,0.000000,0.000000,1772719319.224684,0.000000
104.000000,-11949.734324,-27230.213848,4467.867847,-7051.885969,5592.071187,8580.253551,-15234.166710,-5564.556189,5902.425158,4094.437253,16068.959662,4513.755979,10923.141053,2761.200400,-24066.659697,-6844.707649,0.005375,-0.017625,1.006563,192.000000,0.000000,0.000000,0.000000,0.000000,0.000000,0.000000,0.000000,0.000000,0.000000,1772719319.224699,0.000000
106.000000,-11960.373755,-27232.829002,4470.907685,-7052.824742,5585.835050,8575.425574,-15243.666201,-5571.686396,5866.036518,4048.258549,16011.918010,4475.735661,10873.162552,2741.061478,-24075.376877,-6235.868482,0.005375,-0.017625,1.006563,192.000000,0.000000,0.000000,0.000000,0.000000,0.000000,0.000000,0.000000,0.000000,0.000000,1772719319.224711,0.000000
108.000000,-11920.140615,-27197.647357,4473.366377,-7027.075532,5636.551158,8616.217508,-15203.231895,-5538.337593,5905.666161,4109.345866,16057.247348,4520.908537,10925.040951,2794.795071,-24059.440083,-6773.942026,0.005375,-0.017625,1.006563,192.000000,0.000000,0.000000,0.000000,0.000000,0.000000,0.000000,0.000000,0.000000,0.000000,1772719319.224721,0.000000
110.000000,-11970.968481,-27249.011665,4468.806621,-7049.427277,5576.894352,8571.446964,-15255.043239,-5573.563942,5895.652580,4083.373139,16040.997629,4503.854156,10904.700864,2776.913676,-24060.177691,-6493.159413,0.005687,-0.018813,1.008281,192.000000,0.000000,24.000000,127.500000,48.000000,15.500000,72.000000,0.000000,0.000000,0.000000,1772719319.224732,0.000000
112.000000,-11919.984152,-27197.893226,4486.397444,-7022.292259,5630.426780,8613.200022,-15203.991855,-5531.162683,5893.640923,4076.421747,16038.561289,4501.596630,10894.128489,2771.705719,-24075.108656,-6419.242194,0.005687,-0.018813,1.008281,192.000000,0.000000,0.000000,0.000000,0.000000,0.000000,0.000000,0.000000,0.000000,0.000000,1772719319.224743,0.000000
114.000000,-11958.764429,-27234.930066,4474.439260,-7042.274719,5598.419082,8592.390548,-15228.757588,-5558.252997,5919.479539,4113.123311,16075.732240,4525.289479,10932.573489,2791.866993,-24063.262232,-6841.220777,0.005687,-0.018813,1.008281,192.000000,0.000000,0.000000,0.000000,0.000000,0.000000,0.000000,0.000000,0.000000,0.000000,1772719319.224754,0.000000
116.000000,-11974.254188,-27245.457738,4463.710423,-7049.963719,5572.982797,8587.942551,-15241.676896,-5577.855477,5862.482591,4043.631738,16008.431138,4465.230342,10862.903102,2742.559045,-24099.784982,-6227.643040,0.005687,-0.018813,1.008281,192.000000,0.000000,0.000000,0.000000,0.000000,0.000000,0.000000,0.000000,0.000000,0.000000,1772719319.224765,0.000000
118.000000,-11936.300926,-27207.325662,4461.497600,-7033.222262,5620.346143,8630.030886,-15205.511773,-5550.228721,5892.523336,4095.711302,16040.036504,4503.608287,10902.666855,2780.780528,-24091.291319,-6759.480448,0.005687,-0.018813,1.008281,192.000000,0.000000,0.000000,0.000000,0.000000,0.000000,0.000000,0.000000,0.000000,0.000000,1772719319.224776,0.000000
120.000000,-11989.900409,-27262.757988,4455.976719,-7060.044355,5557.113058,8585.126231,-15261.704059,-5590.238344,5875.603065,4069.604465,16018.310609,4482.262371,10883.466707,2768.174144,-24087.849151,-6476.775584,0.005687,-0.018813,1.008281,192.000000,0.000000,0.000000,0.000000,0.000000,0.000000,0.000000,0.000000,0.000000,0.000000,1772719319.224790,0.000000
122.000000,-11947.745019,-27228.448061,4463.397499,-7034.049277,5600.944829,8625.627592,-15217.939343,-5548.462933,5874.418423,4047.900921,16012.521507,4476.830897,10873.743698,2763.882609,-24101.371956,-6394.409406,0.006000,-0.016000,1.008000,192.000000,0.000000,24.000000,127.500000,64.000000,15.500000,64.000000,0.000000,0.000000,0.000000,1772719319.224801,0.000000
124.000000,-11957.579786,-27241.300314,4461.430545,-7042.431181,5583.130489,8610.875441,-15237.899451,-5556.777782,5905.174423,4092.224430,16060.667164,4513.152482,10910.959352,2794.437444,-24080.942462,-6814.353980,0.006000,-0.016000,1.008000,192.000000,0.000000,0.000000,0.000000,0.000000,0.000000,0.000000,0.000000,0.000000,0.000000,1772719319.224813,0.000000
126.000000,-11966.006394,-27246.910601,4464.693900,-7049.673146,5569.741794,8595.251572,-15244.739085,-5563.863285,5872.317359,4035.629813,16014.153184,4469.477173,10861.070259,2749.018699,-24098.734450,-6211.549784,0.006000,-0.016000,1.008000,192.000000,0.000000,0.000000,0.000000,0.000000,0.000000,0.000000,0.000000,0.000000,0.000000,1772719319.224825,0.000000
128.000000,-11933.909289,-27212.958302,4468.873676,-7035.680954,5621.463731,8623.459473,-15207.366968,-5534.828369,5894.803213,4081.450889,16055.503911,4507.989229,10904.812623,2776.980731,-24079.243729,-6757.535846,0.006000,-0.016000,1.008000,192.000000,0.000000,0.000000,0.000000,0.000000,0.000000,0.000000,0.000000,0.000000,0.000000,1772719319.224838,0.000000
130.000000,-11970.700260,-27251.716227,4471.511182,-7062.994786,5573.429832,8571.961054,-15262.620480,-5574.614474,5879.156992,4066.654034,16040.304725,4492.521822,10887.534724,2763.279112,-24066.659697,-6488.912581,0.006000,-0.016000,1.008000,192.000000,0.000000,0.000000,0.000000,0.000000,0.000000,0.000000,0.000000,0.000000,0.000000,1772719319.224850,0.000000
132.000000,-11918.553641,-27203.838790,4480.138955,-7036.865596,5631.790236,8612.931801,-15218.766358,-5539.879863,5890.176402,4067.168125,16036.504929,4491.515993,10889.546381,2762.854429,-24063.999839,-6420.404484,0.006000,-0.018000,1.008000,192.000000,0.000000,24.000000,127.500000,56.000000,15.500000,64.000000,0.000000,0.000000,0.000000,1772719319.224860,0.000000
134.000000,-11943.006449,-27220.960226,4471.488830,-7044.241672,5606.778634,8601.286543,-15238.413541,-5554.296738,5911.164690,4116.856053,16072.580644,4526.205900,10925.063303,2809.413112,-24042.810386,-6846.428734,0.006000,-0.018000,1.008000,192.000000,0.000000,0.000000,0.000000,0.000000,0.000000,0.000000,0.000000,0.000000,0.000000,1772719319.224871,0.000000
136.000000,-11949.533158,-27224.692967,4476.026234,-7043.638175,5595.043969,8589.864801,-15241.386323,-5560.488172,5879.313455,4069.246837,16025.239649,4487.135051,10873.766050,2771.839830,-24068.671354,-6234.929709,0.006000,-0.018000,1.008000,192.000000,0.000000,0.000000,0.000000,0.000000,0.000000,0.000000,0.000000,0.000000,0.000000,1772719319.224882,0.000000
138.000000,-11918.128958,-27196.105086,4473.276970,-7020.839396,5635.299460,8623.794749,-15202.159012,-5534.515445,5912.975182,4116.654887,16065.025755,4526.071790,10917.866041,2813.011743,-24064.268060,-6768.644663,0.006000,-0.018000,1.008000,192.000000,0.000000,0.000000,0.000000,0.000000,0.000000,0.000000,0.000000,0.000000,0.000000,1772719319.224893,0.000000
140.000000,-11977.092859,-27249.816328,4459.664757,-7050.701326,5568.288930,8581.393490,-15255.423219,-5580.224762,5889.930533,4089.564573,16034.470920,4506.335200,10891.222762,2785.295580,-24078.640232,-6484.911619,0.006000,-0.018000,1.008000,192.000000,0.000000,0.000000,0.000000,0.000000,0.000000,0.000000,0.000000,0.000000,0.000000,1772719319.224911,0.000000
142.000000,-11938.849025,-27209.203209,4462.123449,-7029.422465,5611.092521,8621.291354,-15211.747910,-5545.736020,5879.179344,4071.012625,16023.093882,4499.182641,10878.102288,2771.906885,-24097.415697,-6404.378284,0.006000,-0.014000,1.008000,192.000000,0.000000,24.000000,127.500000,72.000000,15.500000,64.000000,0.000000,0.000000,0.000000,1772719319.224924,0.000000
144.000000,-11954.137618,-27221.071985,4453.830952,-7042.028849,5584.426890,8598.716092,-15233.026771,-5560.443468,5902.246344,4117.526605,16062.142380,4529.044572,10909.014751,2800.584173,-24086.016308,-6823.674658,0.006000,-0.014000,1.008000,192.000000,0.000000,0.000000,0.000000,0.000000,0.000000,0.000000,0.000000,0.000000,0.000000,1772719319.224936,0.000000
146.000000,-11969.023880,-27241.233258,4449.852341,-7052.087134,5556.621320,8577.034900,-15243.330925,-5571.954617,5868.808135,4052.415973,16010.286332,4482.016502,10852.911872,2756.752402,-24108.032776,-6212.309743,0.006000,-0.014000,1.008000,192.000000,0.000000,0.000000,0.000000,0.000000,0.000000,0.000000,0.000000,0.000000,0.000000,1772719319.224946,0.000000
148.000000,-11941.084199,-27217.227485,4447.125429,-7037.178521,5597.614419,8602.560592,-15207.255209,-5546.004241,5893.126833,4086.904715,16050.295955,4515.119435,10898.710596,2785.228525,-24098.287415,-6751.567930,0.006000,-0.014000,1.008000,192.000000,0.000000,0.000000,0.000000,0.000000,0.000000,0.000000,0.000000,0.000000,0.000000,1772719319.224958,0.000000
150.000000,-12000.293970,-27276.705477,4439.704649,-7066.280492,5530.872110,8549.877530,-15261.502893,-5591.892373,5863.399012,4057.869799,16021.752777,4485.615133,10868.871018,2763.972016,-24104.858828,-6480.664787,0.006000,-0.014000,1.008000,192.000000,0.000000,0.000000,0.000000,0.000000,0.000000,0.000000,0.000000,0.000000,0.000000,1772719319.224969,0.000000
152.000000,-11956.998641,-27235.690026,4447.907740,-7044.129913,5582.571695,8593.195211,-15219.481614,-5555.637843,5856.201751,4039.004927,16008.028806,4471.354720,10858.656270,2760.574551,-24114.425375,-6414.078941,0.006000,-0.010000,1.012000,192.000000,0.000000,24.000000,127.500000,88.000000,15.500000,80.000000,0.000000,0.000000,0.000000,1772719319.224982,0.000000
154.000000,-11961.625452,-27241.322665,4451.305205,-7054.277605,5587.287913,8585.841487,-15240.559309,-5558.901198,5890.936362,4086.904715,16053.492254,4511.230232,10907.718349,2786.010836,-24087.759744,-6842.181902,0.006000,-0.010000,1.012000,192.000000,0.000000,0.000000,0.000000,0.000000,0.000000,0.000000,0.000000,0.000000,0.000000,1772719319.224993,0.000000
156.000000,-11951.075429,-27235.824136,4466.459688,-7057.831533,5584.605704,8585.349749,-15245.476692,-5553.648538,5884.119080,4033.193473,16022.065702,4475.668606,10874.324843,2745.330661,-24090.061973,-6230.660526,0.006000,-0.010000,1.012000,192.000000,0.000000,0.000000,0.000000,0.000000,0.000000,0.000000,0.000000,0.000000,0.000000,1772719319.225004,0.000000
158.000000,-11928.634277,-27209.672595,4470.281836,-7045.515722,5625.419989,8612.261249,-15206.472898,-5527.944032,5912.818719,4079.752157,16072.535941,4513.599517,10920.280030,2782.501612,-24066.704400,-6766.945930,0.006000,-0.010000,1.012000,192.000000,0.000000,0.000000,0.000000,0.000000,0.000000,0.000000,0.000000,0.000000,0.000000,1772719319.225015,0.000000
160.000000,-11982.613740,-27263.540299,4461.251731,-7078.506896,5563.729175,8555.733687,-15262.531073,-5581.923495,5883.113251,4049.800819,16044.909185,4489.437281,10890.239285,2760.306330,-24069.565424,-6499.261439,0.006000,-0.010000,1.012000,192.000000,0.000000,0.000000,0.000000,0.000000,0.000000,0.000000,0.000000,0.000000,0.000000,1772719319.225026,0.000000
162.000000,-11947.096818,-27227.688101,4465.811487,-7054.456419,5610.444320,8593.821060,-15219.772186,-5552.329785,5872.183248,4034.959261,16022.892716,4473.098156,10872.648462,2744.973033,-24090.687822,-6424.986592,0.004000,-0.008000,1.010000,192.000000,0.000000,16.000000,127.500000,96.000000,15.500000,72.000000,0.000000,0.000000,0.000000,1772719319.225037,0.000000
164.000000,-11953.847045,-27236.159412,4464.604493,-7052.444762,5600.497794,8586.199115,-15239.173500,-5562.075145,5905.934382,4080.936799,16063.394077,4516.326429,10920.078864,2785.474394,-24071.442970,-6844.372373,0.004000,-0.008000,1.010000,192.000000,0.000000,0.000000,0.000000,0.000000,0.000000,0.000000,0.000000,0.000000,0.000000,1772719319.225048,0.000000
166.000000,-11944.593423,-27229.431537,4467.554923,-7043.951099,5591.199469,8588.099013,-15247.264832,-5561.494000,5896.993684,4039.541368,16021.998646,4480.653045,10888.540553,2760.440440,-24098.063898,-6220.870462,0.004000,-0.008000,1.010000,192.000000,0.000000,0.000000,0.000000,0.000000,0.000000,0.000000,0.000000,0.000000,0.000000,1772719319.225060,0.000000
168.000000,-11907.891859,-27185.845636,4473.098156,-7014.558555,5634.427742,8633.607165,-15199.499154,-5524.591270,5924.575737,4107.513023,16074.949929,4533.201996,10935.948603,2815.001048,-24088.474999,-6742.157846,0.004000,-0.008000,1.010000,192.000000,0.000000,0.000000,0.000000,0.000000,0.000000,0.000000,0.000000,0.000000,0.000000,1772719319.225071,0.000000
170.000000,-11960.641975,-27235.466508,4468.717214,-7045.113390,5563.773878,8580.633531,-15253.053934,-5570.389994,5904.392112,4085.675369,16062.790580,4518.271031,10913.060416,2793.476319,-24094.129991,-6469.377156,0.004000,-0.008000,1.010000,192.000000,0.000000,0.000000,0.000000,0.000000,0.000000,0.000000,0.000000,0.000000,0.000000,1772719319.225082,0.000000
172.000000,-11925.080350,-27201.871836,4472.740528,-7026.404980,5608.343257,8611.680104,-15208.864535,-5542.338555,5893.484461,4065.491744,16050.340658,4497.372150,10899.045873,2774.589094,-24108.166886,-6404.020656,0.004000,-0.012000,1.014000,192.000000,0.000000,16.000000,127.500000,80.000000,15.500000,88.000000,0.000000,0.000000,0.000000,1772719319.225093,0.000000
174.000000,-11958.384449,-27234.080700,4458.390708,-7048.153227,5579.934189,8588.769566,-15235.865442,-5568.423041,5907.946039,4097.834718,16079.621444,4524.462464,10926.292649,2801.232374,-24083.423505,-6836.884539,0.004000,-0.012000,1.014000,192.000000,0.000000,0.000000,0.000000,0.000000,0.000000,0.000000,0.000000,0.000000,0.000000,1772719319.225106,0.000000
176.000000,-11966.319319,-27241.926162,4456.334347,-7056.915111,5567.774840,8576.587865,-15248.896509,-5576.469669,5867.355271,4030.086581,16024.502042,4474.953350,10868.468686,2740.994423,-24104.545904,-6229.118255,0.004000,-0.012000,1.014000,192.000000,0.000000,0.000000,0.000000,0.000000,0.000000,0.000000,0.000000,0.000000,0.000000,1772719319.225119,0.000000
178.000000,-11932.568184,-27209.180857,4458.077783,-7040.285413,5612.433626,8608.707322,-15211.345579,-5543.590253,5895.227897,4073.247799,16066.590377,4514.828863,10911.652256,2775.483164,-24083.356450,-6763.012023,0.004000,-0.012000,1.014000,192.000000,0.000000,0.000000,0.000000,0.000000,0.000000,0.000000,0.000000,0.000000,0.000000,1772719319.225130,0.000000
180.000000,-11978.769240,-27251.179785,4456.557865,-7069.722661,5556.643672,8560.315795,-15264.878007,-5579.353044,5875.983045,4055.232293,16041.690533,4494.958162,10894.620227,2761.334510,-24080.070744,-6494.321703,0.004000,-0.012000,1.014000,192.000000,0.000000,0.000000,0.000000,0.000000,0.000000,0.000000,0.000000,0.000000,0.000000,1772719319.225141,0.000000
182.000000,-11932.724647,-27207.884456,4465.163286,-7048.443800,5605.191661,8599.163127,-15219.392207,-5541.489189,5878.486440,4046.269244,16037.019019,4491.761862,10893.368529,2754.897208,-24078.170845,-6419.152787,0.004000,-0.012000,1.006000,192.000000,0.000000,16.000000,127.500000,80.000000,15.500000,56.000000,0.000000,0.000000,0.000000,1772719319.225151,0.000000
184.000000,-11950.293118,-27231.577305,4460.536475,-7061.452515,5585.723291,8585.550914,-15238.994686,-5555.079049,5906.470824,4085.474203,16081.297825,4525.647107,10934.652201,2784.043882,-24052.265173,-6850.787324,0.004000,-0.012000,1.006000,192.000000,0.000000,0.000000,0.000000,0.000000,0.000000,0.000000,0.000000,0.000000,0.000000,1772719319.225163,0.000000
186.000000,-11956.797475,-27234.192459,4457.720155,-7061.050184,5572.088727,8577.705452,-15247.913033,-5561.114020,5878.307626,4027.806703,16032.213394,4479.423699,10882.550285,2749.219865,-24070.459493,-6237.097828,0.004000,-0.012000,1.006000,192.000000,0.000000,0.000000,0.000000,0.000000,0.000000,0.000000,0.000000,0.000000,0.000000,1772719319.225173,0.000000
188.000000,-11913.949181,-27187.097333,4463.397499,-7032.998745,5624.660030,8619.771435,-15206.361140,-5528.324011,5897.887754,4082.791994,16065.428086,4520.103874,10918.871870,2798.639572,-24067.106732,-6766.141268,0.004000,-0.012000,1.006000,192.000000,0.000000,0.000000,0.000000,0.000000,0.000000,0.000000,0.000000,0.000000,0.000000,1772719319.225183,0.000000
190.000000,-11959.122057,-27240.875630,4461.989339,-7056.199855,5572.379300,8581.237028,-15256.674916,-5572.379300,5897.887754,4071.750232,16050.363010,4508.056284,10909.148861,2785.407339,-24068.470188,-6482.162354,0.004000,-0.012000,1.006000,192.000000,0.000000,0.000000,0.000000,0.000000,0.000000,0.000000,0.000000,0.000000,0.000000,1772719319.225193,0.000000
192.000000,-11915.603210,-27200.821304,4470.058318,-7030.852977,5615.562870,8622.230127,-15212.239648,-5536.772971,5900.346446,4053.622967,16036.840205,4497.103929,10901.772785,2775.751385,-24094.264101,-6398.075092,0.004000,-0.012000,1.006000,192.000000,0.000000,0.000000,127.500000,64.000000,15.500000,32.000000,0.000000,0.000000,0.000000,1772719319.705933,0.000000
194.000000,-11936.524443,-27219.820287,4467.621978,-7044.778114,5590.707730,8602.292371,-15229.048160,-5549.133485,5931.169502,4103.601468,16082.750688,4537.828808,10943.302327,2812.654115,-24086.284529,-6831.967155,0.004000,-0.012000,1.006000,192.000000,0.000000,0.000000,0.000000,0.000000,0.000000,0.000000,0.000000,0.000000,0.000000,1772719319.706017,0.000000
196.000000,-11948.281461,-27223.977712,4472.069975,-7049.114352,5563.818582,8587.026130,-15236.491291,-5558.141238,5886.935399,4046.336299,16036.236708,4490.308999,10892.362701,2774.075004,-24111.564352,-6230.951098,0.004000,-0.012000,1.006000,192.000000,0.000000,0.000000,0.000000,0.000000,0.000000,0.000000,0.000000,0.000000,0.000000,1772719319.706068,0.000000
198.000000,-11915.402045,-27191.992365,4472.740528,-7033.825759,5607.717408,8616.619839,-15202.941323,-5533.241395,5916.283240,4094.794881,16078.772077,4526.116493,10936.842672,2794.929182,-24100.433183,-6772.936198,0.004000,-0.012000,1.006000,192.000000,0.000000,0.000000,0.000000,0.000000,0.000000,0.000000,0.000000,0.000000,0.000000,1772719319.706110,0.000000
200.000000,-11966.654595,-27249.458700,4462.481077,-7057.965643,5554.542608,8570.597597,-15259.044201,-5579.017768,5899.988818,4064.776488,16058.320231,4505.016447,10918.469539,2776.064310,-24094.353508,-6501.675427,0.004000,-0.012000,1.006000,192.000000,0.000000,0.000000,0.000000,0.000000,0.000000,0.000000,0.000000,0.000000,0.000000,1772719319.706160,0.000000
202.000000,-11930.869452,-27213.986482,4461.251731,-7034.630422,5590.595971,8605.198098,-15220.912125,-5549.513465,5899.474728,4045.397525,16044.685667,4493.281781,10903.963256,2767.145964,-24099.449706,-6426.193586,0.001000,-0.015000,1.002000,192.000000,127.500000,120.000000,127.500000,56.000000,15.500000,24.000000,0.000000,0.000000,0.000000,1772719319.706202,0.000000
204.000000,-11972.756621,-27250.241011,4447.393650,-7050.746030,5557.895369,8587.093185,-15248.002439,-5574.480364,5890.332865,4075.639436,16066.948005,4517.891052,10919.855347,2788.491880,-24082.752953,-6859.191580,0.001000,-0.015000,1.002000,192.000000,0.000000,0.000000,0.000000,0.000000,0.000000,0.000000,0.000000,0.000000,0.000000,1772719319.706252,0.000000
206.000000,-11974.209484,-27248.676389,4449.092382,-7050.991899,5542.740887,8584.790955,-15254.618556,-5577.944884,5854.301853,4018.195452,16014.019074,4471.354720,10865.227683,2747.521132,-24097.460401,-6243.266910,0.001000,-0.015000,1.002000,192.000000,0.000000,0.000000,0.000000,0.000000,0.000000,0.000000,0.000000,0.000000,0.000000,1772719319.706294,0.000000
208.000000,-11940.257185,-27215.707566,4445.963138,-7031.031791,5594.127547,8619.369104,-15220.867422,-5551.167494,5881.705091,4060.596712,16057.202644,4511.565508,10904.633809,2779.662940,-24080.383668,-6765.403660,0.001000,-0.015000,1.002000,192.000000,0.000000,0.000000,0.000000,0.000000,0.000000,0.000000,0.000000,0.000000,0.000000,1772719319.706335,0.000000
210.000000,-11984.692453,-27258.131177,4442.833894,-7054.881102,5543.076163,8579.918275,-15270.354184,-5587.645541,5870.864495,4037.753229,16038.449530,4495.405197,10887.825297,2760.976882,-24075.242767,-6489.761947,0.001000,-0.015000,1.002000,192.000000,0.000000,0.000000,0.000000,0.000000,0.000000,0.000000,0.000000,0.000000,0.000000,1772719319.706378,0.000000
212.000000,-11943.453484,-27213.695909,4451.931054,-7033.937518,5598.307323,8621.894851,-15225.002494,-5552.754468,5864.717765,4030.913595,16034.582679,4492.320656,10884.405480,2755.433649,-24077.455589,-6407.082845,0.001000,-0.015000,1.002000,192.000000,0.000000,0.000000,127.500000,64.000000,15.500000,32.000000,0.000000,0.000000,0.000000,1772719319.706420,0.000000
214.000000,-11946.403914,-27216.176953,4457.183714,-7046.968585,5594.932210,8612.037732,-15239.374666,-5561.136372,5898.021865,4084.580134,16077.609787,4528.865758,10929.891280,2799.377179,-24054.388589,-6839.589100,0.001000,-0.015000,1.002000,192.000000,0.000000,0.000000,0.000000,0.000000,0.000000,0.000000,0.000000,0.000000,0.000000,1772719319.706462,0.000000
216.000000,-11953.355307,-27223.374215,4459.620054,-7051.729506,5585.566829,8600.168955,-15252.383381,-5571.686396,5885.549591,4038.893168,16036.102597,4486.173926,10888.182925,2758.764059,-24075.309822,-6229.654697,0.001000,-0.015000,1.002000,192.000000,0.000000,0.000000,0.000000,0.000000,0.000000,0.000000,0.000000,0.000000,0.000000,1772719319.706538,0.000000
218.000000,-11911.356379,-27181.375287,4459.620054,-7027.746085,5636.193530,8634.523587,-15213.133718,-5538.002317,5911.812891,4087.798785,16078.705022,4524.350706,10935.009829,2796.739673,-24070.481845,-6766.387137,0.001000,-0.015000,1.002000,192.000000,0.000000,0.000000,0.000000,0.000000,0.000000,0.000000,0.000000,0.000000,0.000000,1772719319.706561,0.000000
220.000000,-11950.069600,-27221.228447,4456.893141,-7052.444762,5571.373471,8588.858973,-15262.016983,-5572.446355,5908.013094,4078.746328,16067.216226,4517.198147,10921.665838,2783.865068,-24079.288433,-6503.731788,0.001000,-0.015000,1.002000,192.000000,0.000000,0.000000,0.000000,0.000000,0.000000,0.000000,0.000000,0.000000,0.000000,1772719319.706572,0.000000
222.000000,-11903.935600,-27178.246043,4461.184676,-7027.679029,5605.616344,8617.826833,-15213.401939,-5532.637898,5907.007266,4064.575322,16060.778923,4510.738493,10906.109024,2773.493859,-24103.182447,-6430.932156,0.001000,-0.015000,1.002000,192.000000,0.000000,0.000000,127.500000,80.000000,15.500000,56.000000,0.000000,0.000000,0.000000,1772719319.706583,0.000000
224.000000,-11925.080350,-27199.323738,4454.009766,-7036.217396,5579.353044,8596.972656,-15230.590431,-5547.613567,5928.710810,4106.976581,16097.011101,4547.730630,10936.015658,2799.265420,-24091.403078,-6866.947635,0.001000,-0.015000,1.002000,192.000000,0.000000,0.000000,0.000000,0.000000,0.000000,0.000000,0.000000,0.000000,0.000000,1772719319.706594,0.000000
226.000000,-11937.060885,-27208.756174,4453.786248,-7036.887948,5556.867189,8582.846353,-15240.805178,-5557.537741,5895.831394,4051.074869,16045.847958,4502.825976,10881.633864,2762.653263,-24111.810221,-6251.827628,0.001000,-0.015000,1.002000,192.000000,0.000000,0.000000,0.000000,0.000000,0.000000,0.000000,0.000000,0.000000,0.000000,1772719319.706605,0.000000
228.000000,-11908.271838,-27180.414162,4449.248844,-7022.404018,5595.066320,8621.045485,-15209.892715,-5535.655384,5919.904222,4092.358541,16082.862447,4534.431342,10918.983629,2795.398569,-24098.734450,-6776.534829,0.001000,-0.015000,1.002000,192.000000,0.000000,0.000000,0.000000,0.000000,0.000000,0.000000,0.000000,0.000000,0.000000,1772719319.706622,0.000000
230.000000,-11959.300871,-27231.018511,4440.643423,-7051.528341,5536.169474,8584.701548,-15266.844960,-5583.823393,5905.286182,4071.750232,16060.242481,4512.414874,10897.034216,2777.830097,-24093.481790,-6493.405282,0.001000,-0.015000,1.002000,192.000000,0.000000,0.000000,0.000000,0.000000,0.000000,0.000000,0.000000,0.000000,0.000000,1772719319.706632,0.000000
232.000000,-11934.155158,-27203.168238,4439.302318,-7032.954041,5584.471593,8623.928860,-15227.014151,-5562.142201,5889.215277,4052.684194,16036.214356,4497.148633,10881.253884,2764.597865,-24097.370994,-6405.987609,0.001500,-0.013500,1.005000,192.000000,0.000000,8.000000,127.500000,80.000000,15.500000,64.000000,0.000000,0.000000,0.000000,1772719319.706644,0.000000
234.000000,-11963.972385,-27234.058348,4428.729943,-7050.611919,5567.037233,8603.409958,-15254.909129,-5589.903067,5897.261905,4083.239029,16059.080191,4518.963935,10912.926306,2784.267400,-24070.548900,-6834.068219,0.001500,-0.013500,1.005000,192.000000,0.000000,0.000000,0.000000,0.000000,0.000000,0.000000,0.000000,0.000000,0.000000,1772719319.706655,0.000000
236.000000,-11971.482572,-27238.483994,4435.010783,-7062.748916,5571.038195,8598.492575,-15270.063611,-5603.537631,5866.751774,4018.038990,16001.546800,4464.157458,10866.479381,2737.552254,-24078.126142,-6220.423427,0.001500,-0.013500,1.005000,192.000000,0.000000,0.000000,0.000000,0.000000,0.000000,0.000000,0.000000,0.000000,0.000000,1772719319.706665,0.000000
238.000000,-11927.471987,-27193.780505,4452.445144,-7041.045373,5636.349992,8639.686840,-15224.734274,-5564.377375,5903.051007,4069.023319,16051.704115,4502.714217,10922.314039,2779.484127,-24052.868671,-6750.025660,0.001500,-0.013500,1.005000,192.000000,0.000000,0.000000,0.000000,0.000000,0.000000,0.000000,0.000000,0.000000,0.000000,1772719319.706676,0.000000
240.000000,-11960.820789,-27231.353787,4461.497600,-7063.710041,5580.336521,8594.893944,-15268.968376,-5590.819489,5903.810966,4063.122459,16053.045220,4499.964952,10918.067207,2773.069176,-24044.419711,-6489.493726,0.001500,-0.013500,1.005000,192.000000,0.000000,0.000000,0.000000,0.000000,0.000000,0.000000,0.000000,0.000000,0.000000,1772719319.706686,0.000000
242.000000,-11909.545888,-27183.498702,4474.171039,-7039.413695,5627.655164,8621.581927,-15217.961695,-5544.707840,5906.962562,4051.968938,16057.850845,4496.254563,10912.255754,2759.993405,-24065.609165,-6418.370476,0.003750,-0.010750,1.003500,192.000000,0.000000,24.000000,127.500000,96.000000,15.500000,40.000000,0.000000,0.000000,0.000000,1772719319.706698,0.000000
244.000000,-11920.162966,-27194.473409,4472.964045,-7050.500161,5612.433626,8605.622781,-15235.664277,-5555.459029,5936.869197,4098.482919,16103.180182,4533.246700,10954.321737,2790.861164,-24060.110636,-6858.968062,0.003750,-0.010750,1.003500,192.000000,0.000000,0.000000,0.000000,0.000000,0.000000,0.000000,0.000000,0.000000,0.000000,1772719319.706712,0.000000
246.000000,-11926.466158,-27198.496723,4473.142859,-7050.298995,5605.325771,8599.207830,-15244.627326,-5560.801096,5912.528147,4050.381964,16057.068534,4489.794909,10907.695998,2755.187780,-24088.072668,-6250.508875,0.003750,-0.010750,1.003500,192.000000,0.000000,0.000000,0.000000,0.000000,0.000000,0.000000,0.000000,0.000000,0.000000,1772719319.706725,0.000000
248.000000,-11892.022120,-27161.951621,4464.738603,-7025.265041,5684.160374,8631.193177,-15205.958808,-5528.927508,5940.534883,4098.773491,16095.759403,4536.375944,10948.264414,2793.766891,-24085.233997,-6783.620332,0.003750,-0.010750,1.003500,192.000000,0.000000,0.000000,0.000000,0.000000,0.000000,0.000000,0.000000,0.000000,0.000000,1772719319.706740,0.000000
250.000000,-11927.561394,-27198.295557,4463.106926,-7044.241672,5648.799914,8584.075699,-15249.678820,-5561.024614,5926.565042,4087.351750,16077.430973,4526.630584,10927.253774,2782.032225,-24091.023098,-6519.065084,0.003750,-0.010750,1.003500,192.000000,0.000000,0.000000,0.000000,0.000000,0.000000,0.000000,0.000000,0.000000,0.000000,1772719319.706753,0.000000
252.000000,-11891.038643,-27158.218879,4466.012653,-7022.828701,5680.204115,8613.512947,-15203.678930,-5524.993601,5922.564080,4073.292503,16070.993670,4520.819130,10913.798024,2765.894266,-24106.490506,-6435.558967,0.004875,-0.012375,1.004750,192.000000,0.000000,24.000000,127.500000,72.000000,15.500000,56.000000,0.000000,0.000000,0.000000,1772719319.706767,0.000000
254.000000,-11915.334989,-27185.108028,4460.268254,-7040.039544,5643.703716,8598.984313,-15228.690532,-5544.529026,5944.826418,4118.063047,16109.751595,4551.329261,10948.599690,2796.382045,-24087.647985,-6868.534609,0.004875,-0.012375,1.004750,192.000000,0.000000,0.000000,0.000000,0.000000,0.000000,0.000000,0.000000,0.000000,0.000000,1772719319.706780,0.000000
0.000000,-11934.177510,-27203.235293,4461.162324,-7052.869445,5618.043914,8592.636417,-15244.739085,-5567.953654,5904.123891,4054.673499,16051.882929,4495.807528,10896.050739,2749.309271,-24103.249503,-6250.218302,0.004875,-0.012375,1.004750,192.000000,0.000000,0.000000,0.000000,0.000000,0.000000,0.000000,0.000000,0.000000,0.000000,1772719319.706794,0.000000
2.000000,-11917.883088,-27182.783447,4456.736679,-7041.872387,5649.671632,8627.683953,-15214.541878,-5555.123753,5917.065551,4086.547087,16075.285205,4522.428456,10933.780483,2776.086661,-24085.569273,-6772.265646,0.004875,-0.012375,1.004750,192.000000,0.000000,0.000000,0.000000,0.000000,0.000000,0.000000,0.000000,0.000000,0.000000,1772719319.706812,0.000000
4.000000,-11967.593368,-27234.013645,4454.948539,-7069.074460,5588.003169,8585.908542,-15266.576739,-5599.804890,5890.779899,4059.367366,16044.328039,4492.432415,10903.315056,2756.998272,-24081.188331,-6500.110805,0.004875,-0.012375,1.004750,192.000000,0.000000,0.000000,0.000000,0.000000,0.000000,0.000000,0.000000,0.000000,0.000000,1772719319.706826,0.000000
6.000000,-11923.023990,-27189.108990,4464.716251,-7041.872387,5639.233367,8628.622726,-15223.571983,-5562.499829,5890.355216,4047.632700,16038.650696,4486.129223,10896.296608,2754.718394,-24086.373936,-6409.720350,0.004875,-0.012375,1.004750,192.000000,0.000000,0.000000,0.000000,0.000000,0.000000,0.000000,0.000000,0.000000,0.000000,1772719319.706839,0.000000
8.000000,-11930.578879,-27194.629871,4471.332368,-7045.471018,5636.439399,8622.207775,-15241.542785,-5570.054718,5914.964487,4096.985352,16082.929502,4526.295307,10939.927213,2792.939877,-24059.574194,-6837.711553,0.002000,-0.014000,1.004000,192.000000,0.000000,8.000000,127.500000,72.000000,15.500000,48.000000,0.000000,0.000000,0.000000,1772719319.706849,0.000000
10.000000,-11932.009391,-27196.395659,4481.189487,-7044.085210,5631.633774,8613.580002,-15248.695344,-5576.402614,5894.087958,4051.499552,16039.835339,4491.225420,10903.069187,2765.380176,-24066.659697,-6224.178520,0.002000,-0.014000,1.004000,192.000000,0.000000,0.000000,0.000000,0.000000,0.000000,0.000000,0.000000,0.000000,0.000000,1772719319.706859,0.000000
12.000000,-11894.324350,-27152.765054,4483.044682,-7023.365143,5670.861086,8643.754857,-15205.601180,-5536.996488,5923.435798,4105.188442,16083.912979,4535.414819,10945.090466,2804.048694,-24061.004706,-6759.793372,0.002000,-0.014000,1.004000,192.000000,0.000000,0.000000,0.000000,0.000000,0.000000,0.000000,0.000000,0.000000,0.000000,1772719319.706869,0.000000
14.000000,-11928.991905,-27187.499665,4480.049548,-7045.068687,5600.274277,8592.949342,-15249.812931,-5561.896332,5920.373609,4094.996046,16079.420278,4535.571281,10932.305268,2793.901002,-24070.168921,-6504.558802,0.002000,-0.014000,1.004000,192.000000,0.000000,0.000000,0.000000,0.000000,0.000000,0.000000,0.000000,0.000000,0.000000,1772719319.706881,0.000000
16.000000,-11887.171791,-27146.059531,4482.329426,-7022.940460,5634.293632,8616.061046,-15203.902448,-5525.239471,5919.859519,4084.736596,16079.554388,4532.889072,10919.073036,2781.987522,-24095.471095,-6428.585223,0.002000,-0.014000,1.004000,192.000000,0.000000,0.000000,0.000000,0.000000,0.000000,0.000000,0.000000,0.000000,0.000000,1772719319.706896,0.000000
18.000000,-11907.891859,-27170.199415,4476.361510,-7040.620689,5610.489024,8583.963941,-15225.985971,-5548.194712,5937.271528,4127.003744,16115.630104,4562.661596,10950.924271,2803.936935,-24082.149456,-6875.553057,0.004000,-0.016000,1.002000,192.000000,0.000000,16.000000,127.500000,64.000000,15.500000,40.000000,0.000000,0.000000,0.000000,1772719319.706912,0.000000
20.000000,-11924.901536,-27185.800932,4471.421775,-7052.712983,5585.902105,8568.541237,-15242.146282,-5566.478439,5899.966466,4062.474258,16061.784752,4509.889127,10892.832088,2753.064365,-24106.311692,-6266.557427,0.004000,-0.016000,1.002000,192.000000,0.000000,0.000000,0.000000,0.000000,0.000000,0.000000,0.000000,0.000000,0.000000,1772719319.706925,0.000000
22.000000,-11898.034739,-27157.861252,4470.326539,-7037.871425,5623.117760,8598.917258,-15205.601180,-5540.930395,5919.524243,4103.221488,16093.881857,4544.132000,10930.718294,2778.612408,-24094.219398,-6793.790375,0.004000,-0.016000,1.002000,192.000000,0.000000,0.000000,0.000000,0.000000,0.000000,0.000000,0.000000,0.000000,0.000000,1772719319.706936,0.000000
24.000000,-11947.409743,-27209.560837,4464.850362,-7062.324233,5562.455125,8563.065060,-15259.357126,-5580.023596,5902.626324,4076.667616,16066.970356,4519.925060,10907.897163,2758.451135,-24092.498313,-6525.815311,0.004000,-0.016000,1.002000,192.000000,0.000000,0.000000,0.000000,0.000000,0.000000,0.000000,0.000000,0.000000,0.000000,1772719319.706950,0.000000
26.000000,-11904.650856,-27166.332563,4469.611283,-7036.150341,5616.680457,8614.585831,-15220.040407,-5547.054773,5901.598144,4065.268226,16062.611766,4514.135958,10899.425852,2753.556103,-24098.667395,-6427.422932,0.004000,-0.016000,1.002000,192.000000,0.000000,0.000000,0.000000,0.000000,0.000000,0.000000,0.000000,0.000000,0.000000,1772719319.706961,0.000000
28.000000,-11917.279591,-27181.509397,4472.740528,-7043.928748,5609.863175,8612.618877,-15239.419370,-5560.376413,5931.124798,4115.559651,16104.230714,4548.557645,10946.610385,2800.114787,-24071.398267,-6846.294623,0.002000,-0.020000,1.006000,192.000000,0.000000,8.000000,127.500000,48.000000,15.500000,56.000000,0.000000,0.000000,0.000000,1772719319.706972,0.000000
30.000000,-11934.669248,-27198.317909,4473.992225,-7054.992861,5596.049797,8608.036769,-15255.937309,-5577.430794,5898.558307,4052.192456,16050.184196,4498.735607,10896.117794,2752.371460,-24082.417677,-6225.743142,0.002000,-0.020000,1.006000,192.000000,0.000000,0.000000,0.000000,0.000000,0.000000,0.000000,0.000000,0.000000,0.000000,1772719319.706982,0.000000
32.000000,-11903.421510,-27169.417103,4475.087461,-7041.782980,5650.453943,8648.001688,-15217.604067,-5554.207331,5918.205490,4089.721035,16082.750688,4529.066924,10934.495739,2783.172164,-24068.984278,-6750.830323,0.002000,-0.020000,1.006000,192.000000,0.000000,0.000000,0.000000,0.000000,0.000000,0.000000,0.000000,0.000000,0.000000,1772719319.706993,0.000000
34.000000,-11948.639089,-27212.935950,4469.477173,-7069.476792,5592.339407,8605.399264,-15268.051954,-5595.446300,5904.839147,4069.515058,16061.918862,4504.189432,10917.374303,2766.386004,-24069.274851,-6484.151660,0.002000,-0.020000,1.006000,192.000000,0.000000,0.000000,0.000000,0.000000,0.000000,0.000000,0.000000,0.000000,0.000000,1772719319.707003,0.000000
36.000000,-11900.091100,-27161.035199,4471.399423,-7035.680954,5641.245024,8645.140665,-15224.533108,-5556.576616,5904.615629,4062.049575,16054.542786,4505.239964,10907.852460,2765.603693,-24083.445857,-6393.917667,0.002000,-0.020000,1.006000,192.000000,0.000000,0.000000,0.000000,0.000000,0.000000,0.000000,0.000000,0.000000,0.000000,1772719319.707014,0.000000
38.000000,-11911.669303,-27173.485121,4462.816353,-7043.615823,5622.201338,8627.460435,-15246.236652,-5569.875904,5930.096618,4117.414846,16089.344453,4548.736459,10948.599690,2811.737694,-24063.753970,-6828.256765,0.006000,-0.018000,1.010000,192.000000,0.000000,24.000000,127.500000,56.000000,15.500000,72.000000,0.000000,0.000000,0.000000,1772719319.707024,0.000000
40.000000,-11922.711065,-27185.286842,4462.324615,-7050.656623,5598.508489,8603.074682,-15259.871216,-5578.190753,5901.307571,4062.876590,16042.562251,4501.618982,10897.458899,2769.761118,-24090.777229,-6226.234880,0.006000,-0.018000,1.010000,192.000000,0.000000,0.000000,0.000000,0.000000,0.000000,0.000000,0.000000,0.000000,0.000000,1772719319.707035,0.000000
42.000000,-11888.267027,-27147.981781,4464.917417,-7031.970564,5637.512283,8622.610107,-15214.430119,-5542.986756,5921.647659,4109.167052,16086.416374,4540.421610,10933.467559,2800.651229,-24087.446819,-6766.409488,0.006000,-0.018000,1.010000,192.000000,0.000000,0.000000,0.000000,0.000000,0.000000,0.000000,0.000000,0.000000,0.000000,1772719319.707045,0.000000
44.000000,-11930.690638,-27191.791200,4461.251731,-7065.475829,5576.067338,8563.601501,-15265.101524,-5580.336521,5910.672952,4087.977599,16075.799295,4524.931851,10916.569640,2784.245048,-24094.465267,-6514.527680,0.006000,-0.018000,1.010000,192.000000,0.000000,0.000000,0.000000,0.000000,0.000000,0.000000,0.000000,0.000000,0.000000,1772719319.707056,0.000000
46.000000,-11894.816088,-27155.536670,4466.057356,-7048.264986,5617.261603,8594.871592,-15225.874212,-5549.602872,5905.308533,4067.458697,16061.628289,4513.487758,10904.030312,2764.419051,-24114.134802,-6434.195511,0.006000,-0.018000,1.010000,192.000000,0.000000,0.000000,0.000000,0.000000,0.000000,0.000000,0.000000,0.000000,0.000000,1772719319.707066,0.000000
48.000000,-11916.676094,-27176.882586,4462.525781,-7060.916073,5593.032312,8581.214676,-15244.537919,-5567.819544,5925.894490,4108.474148,16096.385252,4549.429363,10942.989402,2792.358731,-24092.565369,-6869.003996,0.010000,-0.012000,1.008000,192.000000,0.000000,40.000000,127.500000,80.000000,15.500000,64.000000,0.000000,0.000000,0.000000,1772719319.707077,0.000000
50.000000,-11940.994792,-27198.228502,4461.274083,-7072.561332,5563.460954,8562.349804,-15259.088905,-5589.500736,5886.644827,4046.470409,16038.293068,4499.227345,10882.371471,2739.027469,-24117.174639,-6253.079325,0.010000,-0.012000,1.008000,192.000000,0.000000,0.000000,0.000000,0.000000,0.000000,0.000000,0.000000,0.000000,0.000000,1772719319.707087,0.000000
52.000000,-11910.015274,-27169.327696,4467.666682,-7051.595396,5609.349085,8601.219487,-15222.990837,-5563.907989,5898.603010,4084.222506,16071.194836,4526.228252,10913.730969,2778.053615,-24107.921017,-6776.154849,0.010000,-0.012000,1.008000,192.000000,0.000000,0.000000,0.000000,0.000000,0.000000,0.000000,0.000000,0.000000,0.000000,1772719319.707098,0.000000
54.000000,-11961.826618,-27218.389776,4460.916455,-7071.488449,5558.230645,8568.273016,-15279.428992,-5607.113911,5889.416443,4064.597674,16052.329964,4505.977572,10902.219820,2753.801972,-24095.091116,-6502.100110,0.010000,-0.012000,1.008000,192.000000,0.000000,0.000000,0.000000,0.000000,0.000000,0.000000,0.000000,0.000000,0.000000,1772719319.707108,0.000000
56.000000,-11924.722722,-27182.247005,4459.329481,-7047.817951,5611.696018,8614.004685,-15240.827530,-5579.196582,5882.375644,4046.850389,16033.912126,4491.314827,10888.629960,2743.542521,-24099.941444,-6403.730083,0.010000,-0.012000,1.008000,192.000000,0.000000,0.000000,0.000000,0.000000,0.000000,0.000000,0.000000,0.000000,0.000000,1772719319.707120,0.000000
58.000000,-11937.217347,-27195.434534,4455.082650,-7054.724640,5604.498756,8607.768548,-15259.625347,-5590.707730,5906.828452,4092.045616,16068.065592,4529.424552,10928.416065,2777.472470,-24077.567348,-6830.894271,0.010000,-0.014000,1.010000,192.000000,0.000000,40.000000,127.500000,72.000000,15.500000,72.000000,0.000000,0.000000,0.000000,1772719320.186694,0.000000
60.000000,-11940.771275,-27200.038993,4462.369318,-7056.043393,5595.178079,8597.822022,-15268.029603,-5593.993437,5886.242495,4044.503456,16025.306705,4495.472252,10886.551247,2745.643585,-24089.234959,-6214.522566,0.010000,-0.014000,1.010000,192.000000,0.000000,0.000000,0.000000,0.000000,0.000000,0.000000,0.000000,0.000000,0.000000,1772719320.186741,0.000000
62.000000,-11901.342797,-27160.476406,4471.555885,-7031.858806,5649.179894,8629.516796,-15219.123986,-5554.006166,5909.756530,4087.485860,16072.781810,4536.174778,10929.600707,2778.947685,-24074.639270,-6744.974166,0.010000,-0.014000,1.010000,192.000000,0.000000,0.000000,0.000000,0.000000,0.000000,0.000000,0.000000,0.000000,0.000000,1772719320.186778,0.000000
64.000000,-11940.503054,-27199.904883,4467.063185,-7059.105582,5594.887506,8573.302159,-15264.788600,-5588.740777,5903.922725,4067.905732,16067.752667,4521.981421,10919.363608,2761.356862,-24074.818084,-6494.120538,0.010000,-0.014000,1.010000,192.000000,0.000000,0.000000,0.000000,0.000000,0.000000,0.000000,0.000000,0.000000,0.000000,1772719320.186818,0.000000
66.000000,-11898.548829,-27156.542499,4473.031100,-7034.608070,5643.636661,8599.029016,-15220.353332,-5553.335613,5901.553440,4058.205075,16060.533054,4513.018371,10907.114852,2753.690213,-24092.118334,-6417.454054,0.010000,-0.014000,1.010000,192.000000,0.000000,0.000000,0.000000,0.000000,0.000000,0.000000,0.000000,0.000000,0.000000,1772719320.186862,0.000000
68.000000,-11915.469100,-27174.535653,4469.097193,-7046.700364,5616.456940,8570.061156,-15240.715771,-5568.803021,5927.079132,4105.054331,16102.599037,4553.922064,10952.935928,2786.480223,-24075.309822,-6862.946673,0.008000,-0.013000,1.007000,192.000000,0.000000,24.000000,127.500000,80.000000,15.500000,48.000000,0.000000,0.000000,0.000000,1772719320.186900,0.000000
70.000000,-11915.022065,-27174.379191,4474.819240,-7045.560425,5589.612495,8549.721068,-15248.829454,-5569.115945,5899.631190,4053.086526,16054.453379,4510.492624,10900.118756,2743.497818,-24102.131915,-6258.957834,0.008000,-0.013000,1.007000,192.000000,0.000000,0.000000,0.000000,0.000000,0.000000,0.000000,0.000000,0.000000,0.000000,1772719320.186930,0.000000
72.000000,-11875.280663,-27135.621266,4478.753147,-7031.724695,5624.838844,8576.677272,-15211.591448,-5535.074238,5933.114103,4106.194270,16105.147136,4552.580959,10943.481141,2783.909772,-24096.231055,-6788.135384,0.008000,-0.013000,1.007000,192.000000,0.000000,0.000000,0.000000,0.000000,0.000000,0.000000,0.000000,0.000000,0.000000,1772719320.186941,0.000000
74.000000,-11928.321353,-27192.260586,4479.177830,-7063.508876,5552.508599,8524.016562,-15263.134570,-5578.771899,5919.278374,4078.366349,16090.685557,4530.005697,10923.722198,2759.881647,-24097.259235,-6531.447951,0.008000,-0.013000,1.007000,192.000000,0.000000,0.000000,0.000000,0.000000,0.000000,0.000000,0.000000,0.000000,0.000000,1772719320.186951,0.000000
76.000000,-11911.155213,-27171.339353,4479.781327,-7044.308727,5593.456995,8559.600539,-15226.343599,-5560.488172,5896.300780,4050.180799,16061.583586,4506.558717,10899.761128,2735.182969,-24111.989035,-6443.337374,0.008000,-0.013000,1.007000,192.000000,0.000000,0.000000,0.000000,0.000000,0.000000,0.000000,0.000000,0.000000,0.000000,1772719320.186962,0.000000
78.000000,-11946.783894,-27204.263473,4465.655025,-7064.313539,5572.088727,8551.866836,-15256.272585,-5587.131451,5897.843051,4083.797822,16082.236598,4531.123284,10927.186719,2767.950626,-24086.642156,-6871.865019,0.009000,-0.012500,1.008500,192.000000,0.000000,40.000000,127.500000,80.000000,15.500000,72.000000,0.000000,0.000000,0.000000,1772719320.186972,0.000000
80.000000,-11947.253281,-27206.230427,4461.922283,-7067.509838,5564.556189,8552.269167,-15271.941158,-5592.317056,5869.344577,4027.024392,16029.933516,4484.162269,10878.191695,2731.338469,-24103.204799,-6246.217340,0.009000,-0.012500,1.008500,192.000000,0.000000,0.000000,0.000000,0.000000,0.000000,0.000000,0.000000,0.000000,0.000000,1772719320.186983,0.000000
82.000000,-11906.461347,-27169.707676,4460.134144,-7046.566253,5625.934079,8599.207830,-15233.451454,-5557.582445,5902.961600,4073.091337,16071.865388,4522.964898,10926.717332,2771.750423,-24081.098924,-6760.978015,0.009000,-0.012500,1.008500,192.000000,0.000000,0.000000,0.000000,0.000000,0.000000,0.000000,0.000000,0.000000,0.000000,1772719320.186993,0.000000
84.000000,-11947.879129,-27211.237217,4458.748336,-7069.968530,5570.255884,8563.489743,-15280.881856,-5592.875849,5895.205545,4051.588959,16056.196816,4506.536365,10914.490928,2753.511399,-24073.320517,-6488.622008,0.009000,-0.012500,1.008500,192.000000,0.000000,0.000000,0.000000,0.000000,0.000000,0.000000,0.000000,0.000000,0.000000,1772719320.187003,0.000000
86.000000,-11907.176603,-27167.897185,4461.587007,-7038.720791,5619.541480,8602.247668,-15232.423274,-5553.179151,5894.758510,4040.301328,16048.753685,4506.469310,10906.109024,2742.089658,-24086.664508,-6394.565868,0.009000,-0.012500,1.008500,192.000000,0.000000,0.000000,0.000000,0.000000,0.000000,0.000000,0.000000,0.000000,0.000000,1772719320.187014,0.000000
88.000000,-11926.063827,-27186.449133,4456.021423,-7042.833512,5600.721312,8599.207830,-15252.383381,-5569.518276,5909.823586,4085.742424,16078.570912,4541.293328,10933.981649,2776.578400,-24077.008555,-6838.315050,0.008500,-0.013250,1.012250,192.000000,0.000000,32.000000,127.500000,72.000000,15.500000,96.000000,0.000000,0.000000,0.000000,1772719320.187040,0.000000
90.000000,-11929.215423,-27190.383040,4467.197295,-7042.744105,5591.288875,8596.458566,-15259.334774,-5577.251980,5888.701187,4034.065191,16030.000571,4501.194298,10888.808774,2746.157676,-24095.806372,-6229.587642,0.008500,-0.013250,1.012250,192.000000,0.000000,0.000000,0.000000,0.000000,0.000000,0.000000,0.000000,0.000000,0.000000,1772719320.187052,0.000000
92.000000,-11887.417661,-27150.149900,4476.808545,-7025.510910,5645.380097,8628.779188,-15219.973352,-5542.450314,5922.094693,4086.524735,16077.185104,4541.986232,10937.155597,2792.962228,-24086.262177,-6765.247198,0.008500,-0.013250,1.012250,192.000000,0.000000,0.000000,0.000000,0.000000,0.000000,0.000000,0.000000,0.000000,0.000000,1772719320.187062,0.000000
94.000000,-11920.162966,-27180.011830,4484.698711,-7056.959815,5592.406463,8576.341996,-15268.990728,-5569.652387,5922.340563,4076.354692,16080.515513,4531.413857,10931.455902,2780.668769,-24083.892892,-6516.047599,0.008500,-0.013250,1.012250,192.000000,0.000000,0.000000,0.000000,0.000000,0.000000,0.000000,0.000000,0.000000,0.000000,1772719320.187073,0.000000
96.000000,-11874.073669,-27133.631961,4494.779348,-7031.322364,5635.992364,8605.488671,-15218.095805,-5524.211290,5929.716638,4071.124383,16090.484392,4529.826883,10934.004001,2782.143984,-24098.265064,-6432.072095,0.008500,-0.013250,1.012250,192.000000,0.000000,0.000000,0.000000,0.000000,0.000000,0.000000,0.000000,0.000000,0.000000,1772719320.187083,0.000000
98.000000,-11895.888972,-27154.441435,4488.453804,-7036.217396,5608.790291,8583.427499,-15233.116178,-5543.634956,5949.855560,4120.253518,16130.248145,4569.970616,10973.097202,2811.603583,-24082.060049,-6878.034100,0.006250,-0.016625,1.010125,192.000000,0.000000,16.000000,127.500000,48.000000,15.500000,64.000000,0.000000,0.000000,0.000000,1772719320.187093,0.000000
100.000000,-11909.724702,-27164.142092,4479.669568,-7043.101733,5583.219896,8564.003833,-15249.365896,-5570.300587,5914.070417,4067.324587,16066.344507,4520.305040,10916.390826,2767.592998,-24103.405965,-6264.188142,0.006250,-0.016625,1.010125,192.000000,0.000000,0.000000,0.000000,0.000000,0.000000,0.000000,0.000000,0.000000,0.000000,1772719320.187104,0.000000
102.000000,-11878.655777,-27136.850612,4478.619037,-7028.394285,5634.315984,8590.155374,-15213.938381,-5551.055735,5941.183083,4118.800654,16090.082060,4555.844314,10954.657013,2798.147833,-24092.453610,-6789.655303,0.006250,-0.016625,1.010125,192.000000,0.000000,0.000000,0.000000,0.000000,0.000000,0.000000,0.000000,0.000000,0.000000,1772719320.187114,0.000000
104.000000,-11919.581821,-27189.824246,4475.020406,-7063.084193,5573.943922,8540.020411,-15268.297823,-5590.081881,5920.865347,4058.450944,16068.870255,4519.120397,10935.032181,2753.466696,-24086.262177,-6528.743390,0.006250,-0.016625,1.010125,192.000000,0.000000,0.000000,0.000000,0.000000,0.000000,0.000000,0.000000,0.000000,0.000000,1772719320.187124,0.000000
106.000000,-11858.673317,-27132.156745,4487.582086,-7039.346640,5624.235347,8580.432365,-15222.655561,-5547.099477,5937.204473,4050.001985,16079.107354,4510.134996,10928.036085,2746.448248,-24091.291319,-6427.042952,0.006250,-0.016625,1.010125,192.000000,0.000000,0.000000,0.000000,0.000000,0.000000,0.000000,0.000000,0.000000,0.000000,1772719320.187134,0.000000
108.000000,-11880.779193,-27163.404484,4478.864906,-7050.656623,5599.491966,8568.429478,-15243.599146,-5566.701957,5961.053784,4080.378006,16122.581497,4540.868645,10962.725993,2766.095432,-24068.291374,-6858.453972,0.004125,-0.016313,1.008062,192.000000,0.000000,8.000000,127.500000,64.000000,15.500000,56.000000,0.000000,0.000000,0.000000,1772719320.187144,0.000000
110.000000,-11888.222323,-27172.211072,4477.970836,-7051.505989,5583.421061,8561.925121,-15253.992707,-5579.554210,5931.437723,4019.268336,16069.786676,4497.394502,10904.387939,2724.476483,-24090.576063,-6236.047296,0.004125,-0.016313,1.008062,192.000000,0.000000,0.000000,0.000000,0.000000,0.000000,0.000000,0.000000,0.000000,0.000000,1772719320.187154,0.000000
112.000000,-11856.169922,-27134.838955,4476.965007,-7029.310707,5633.958356,8599.878383,-15214.988913,-5549.960500,5952.269548,4069.425651,16110.332741,4533.090238,10941.178911,2770.275208,-24078.081438,-6754.518360,0.004125,-0.016313,1.008062,192.000000,0.000000,0.000000,0.000000,0.000000,0.000000,0.000000,0.000000,0.000000,0.000000,1772719320.187165,0.000000
114.000000,-11895.531344,-27178.827188,4477.032063,-7059.776134,5581.208239,8560.226388,-15268.610748,-5585.656236,5945.049935,4047.833866,16099.134517,4511.610211,10929.265431,2747.878760,-24080.249558,-6503.396511,0.004125,-0.016313,1.008062,192.000000,0.000000,0.000000,0.000000,0.000000,0.000000,0.000000,0.000000,0.000000,0.000000,1772719320.187175,0.000000
116.000000,-11844.994050,-27123.305455,4489.861964,-7034.406905,5639.322774,8605.868650,-15223.035541,-5542.360907,5949.028546,4040.547197,16094.887685,4505.664647,10930.651239,2739.854484,-24091.537188,-6411.843766,0.004125,-0.016313,1.008062,192.000000,0.000000,0.000000,0.000000,0.000000,0.000000,0.000000,0.000000,0.000000,0.000000,1772719320.187185,0.000000
118.000000,-11861.087306,-27139.242248,4482.374130,-7047.661489,5621.709600,8590.401243,-15244.627326,-5554.855532,5978.175220,4097.387683,16133.489148,4548.602348,10979.176876,2783.194516,-24074.527511,-6849.937958,0.004063,-0.016156,1.008031,192.000000,0.000000,16.000000,127.500000,64.000000,15.500000,64.000000,0.000000,0.000000,0.000000,1772719320.187196,0.000000
120.000000,-11870.229169,-27148.518222,4485.950409,-7057.295091,5599.581373,8570.284673,-15253.657431,-5563.192733,5951.554293,4039.876645,16083.130668,4508.548022,10924.862137,2737.753420,-24099.829686,-6249.346584,0.004063,-0.016156,1.008031,192.000000,0.000000,0.000000,0.000000,0.000000,0.000000,0.000000,0.000000,0.000000,0.000000,1772719320.187209,0.000000
122.000000,-11833.639363,-27108.754469,4497.483909,-7032.127027,5644.843655,8595.385682,-15204.170669,-5526.625279,5975.045976,4088.983427,16124.928430,4550.234026,10964.558836,2775.170240,-24083.647023,-6786.794279,0.004063,-0.016156,1.008031,192.000000,0.000000,0.000000,0.000000,0.000000,0.000000,0.000000,0.000000,0.000000,0.000000,1772719320.187222,0.000000
124.000000,-11886.791812,-27162.756284,4495.874583,-7064.224132,5578.503678,8527.056399,-15255.043239,-5569.965311,5956.941063,4063.144811,16105.772985,4529.871587,10946.722143,2755.232484,-24080.383668,-6539.718096,0.004063,-0.016156,1.008031,192.000000,0.000000,0.000000,0.000000,0.000000,0.000000,0.000000,0.000000,0.000000,0.000000,1772719320.187233,0.000000
126.000000,-11842.110675,-27117.091670,4500.411987,-7036.463265,5620.659068,8557.633586,-15211.122061,-5533.733134,5950.906092,4045.464581,16099.983883,4518.271031,10933.132283,2740.167408,-24095.605206,-6453.239197,0.004063,-0.016156,1.008031,192.000000,0.000000,0.000000,0.000000,0.000000,0.000000,0.000000,0.000000,0.000000,0.000000,1772719320.187243,0.000000
128.000000,-11850.447875,-27130.636827,4493.281781,-7038.676088,5604.521108,8545.653051,-15228.846995,-5541.533892,5977.549371,4091.285657,16140.641706,4558.101840,10974.438307,2772.242161,-24080.674241,-6889.277028,0.004031,-0.016078,1.006016,192.000000,0.000000,16.000000,127.500000,64.000000,15.500000,48.000000,0.000000,0.000000,0.000000,1772719320.187253,0.000000
130.000000,-11860.573216,-27137.744682,4493.706464,-7038.452570,5584.225724,8543.395524,-15238.927631,-5545.467799,5952.113086,4045.039898,16095.938217,4526.116493,10923.878661,2735.339431,-24100.276721,-6266.311558,0.004031,-0.016078,1.006016,192.000000,0.000000,0.000000,0.000000,0.000000,0.000000,0.000000,0.000000,0.000000,0.000000,1772719320.187263,0.000000
132.000000,-11829.526643,-27103.591216,4492.432415,-7015.877308,5630.873815,8593.239915,-15200.482631,-5519.249203,5969.323929,4095.867764,16126.425997,4564.159163,10958.009774,2771.392795,-24094.711136,-6781.653378,0.004031,-0.016078,1.006016,192.000000,0.000000,0.000000,0.000000,0.000000,0.000000,0.000000,0.000000,0.000000,0.000000,1772719320.187274,0.000000
134.000000,-11882.165001,-27157.883603,4484.117566,-7045.068687,5564.846762,8552.157408,-15259.468884,-5571.462878,5955.868179,4071.660825,16101.369691,4542.723840,10934.406332,2765.380176,-24096.029889,-6511.689009,0.004031,-0.016078,1.006016,192.000000,0.000000,0.000000,0.000000,0.000000,0.000000,0.000000,0.000000,0.000000,0.000000,1772719320.187284,0.000000
136.000000,-11850.693745,-27124.914780,4485.168098,-7025.600317,5607.784463,8595.184516,-15217.648771,-5546.339517,5945.385211,4044.235235,16082.035432,4518.271031,10914.423873,2747.521132,-24108.099831,-6411.128510,0.004031,-0.016078,1.006016,192.000000,0.000000,0.000000,0.000000,0.000000,0.000000,0.000000,0.000000,0.000000,0.000000,1772719320.187294,0.000000
138.000000,-11865.311785,-27139.666932,4479.960141,-7039.167826,5592.406463,8582.846353,-15237.295954,-5557.135410,5965.032395,4081.272075,16116.948857,4552.290386,10947.303289,2776.980731,-24083.222340,-6850.027364,0.004031,-0.016078,1.006016,192.000000,0.000000,0.000000,0.000000,0.000000,0.000000,0.000000,0.000000,0.000000,0.000000,1772719320.187304,0.000000
140.000000,-11875.995919,-27147.512394,4480.518935,-7045.158094,5581.923495,8575.380871,-15251.869291,-5562.410422,5937.807970,4028.097275,16067.082115,4519.075694,10893.882620,2734.914748,-24098.108601,-6233.633308,0.004031,-0.016078,1.006016,192.000000,0.000000,0.000000,127.500000,72.000000,15.500000,48.000000,0.000000,0.000000,0.000000,1772719320.187315,0.000000
142.000000,-11837.260346,-27109.737946,4489.392577,-7024.818006,5642.429667,8622.699514,-15210.965599,-5526.111189,5961.053784,4085.205982,16111.427976,4563.712128,10937.267356,2780.132327,-24081.501255,-6756.105334,0.004031,-0.016078,1.006016,192.000000,0.000000,0.000000,0.000000,0.000000,0.000000,0.000000,0.000000,0.000000,0.000000,1772719320.187324,0.000000
144.000000,-11888.714062,-27162.778635,4486.665665,-7056.244559,5587.086748,8575.179705,-15264.475675,-5575.776765,5952.917749,4072.912523,16099.335682,4543.573206,10923.990419,2775.818440,-24079.757819,-6502.793014,0.004031,-0.016078,1.006016,192.000000,0.000000,0.000000,0.000000,0.000000,0.000000,0.000000,0.000000,0.000000,0.000000,1772719320.187335,0.000000
146.000000,-11850.693745,-27127.239362,4495.584011,-7039.190178,5632.550196,8601.040673,-15219.928648,-5551.726288,5947.106295,4045.822209,16081.498990,4516.728761,10911.428739,2758.361728,-24093.481790,-6413.453092,0.004031,-0.016078,1.006016,192.000000,0.000000,0.000000,0.000000,0.000000,0.000000,0.000000,0.000000,0.000000,0.000000,1772719320.187345,0.000000
148.000000,-11873.894855,-27149.971086,4484.162269,-7054.702288,5607.113911,8571.670481,-15240.648716,-5574.078032,5968.876895,4077.673444,16111.495031,4543.662613,10949.292594,2776.019606,-24077.321479,-6864.980682,0.004031,-0.016078,1.006016,192.000000,0.000000,0.000000,0.000000,0.000000,0.000000,0.000000,0.000000,0.000000,0.000000,1772719320.187356,0.000000
150.000000,-11877.895818,-27151.893336,4483.938752,-7049.963719,5588.025521,8560.651071,-15249.254137,-5573.362776,5932.845883,4021.592918,16059.817798,4501.641333,10894.821393,2737.105219,-24109.128011,-6258.443744,-0.002000,-0.012000,1.006000,192.000000,127.500000,120.000000,127.500000,80.000000,15.500000,56.000000,0.000000,0.000000,0.000000,1772719320.187366,0.000000
152.000000,-11833.706419,-27106.474591,4485.637484,-7020.973506,5630.247966,8602.828813,-15205.712939,-5526.938203,5964.674767,4079.953322,16112.210287,4553.139753,10935.367457,2779.193554,-24101.841343,-6780.625198,-0.002000,-0.012000,1.006000,192.000000,0.000000,0.000000,0.000000,0.000000,0.000000,0.000000,0.000000,0.000000,0.000000,1772719320.187378,0.000000
154.000000,-11870.340928,-27145.076054,4483.290551,-7043.772285,5567.059585,8554.236120,-15259.155960,-5563.840933,5963.937159,4076.488802,16105.415357,4547.149485,10922.314039,2773.046824,-24100.008500,-6529.972736,-0.002000,-0.012000,1.006000,192.000000,0.000000,0.000000,0.000000,0.000000,0.000000,0.000000,0.000000,0.000000,0.000000,1772719320.187388,0.000000
156.000000,-11824.788073,-27096.975100,4491.560697,-7016.145529,5610.041989,8586.042653,-15216.844108,-5530.358020,5972.050842,4065.737613,16100.922656,4538.700526,10916.055550,2764.351996,-24110.871447,-6432.675592,-0.002000,-0.012000,1.006000,192.000000,0.000000,0.000000,0.000000,0.000000,0.000000,0.000000,0.000000,0.000000,0.000000,1772719320.187398,0.000000
158.000000,-11834.935765,-27107.815696,4494.488775,-7023.476901,5595.267486,8574.442097,-15229.763416,-5544.551378,5999.230564,4113.480939,16141.334610,4572.675177,10956.646318,2800.315952,-24084.831665,-6868.355795,-0.002000,-0.012000,1.006000,192.000000,0.000000,0.000000,0.000000,0.000000,0.000000,0.000000,0.000000,0.000000,0.000000,1772719320.187408,0.000000
160.000000,-11856.259329,-27131.285027,4491.359531,-7035.278623,5577.006111,8563.154467,-15242.526262,-5561.471648,5966.842886,4048.593825,16088.830362,4524.283650,10904.343236,2758.585245,-24099.337947,-6251.224131,0.004000,-0.008000,1.008000,192.000000,0.000000,16.000000,127.500000,96.000000,15.500000,64.000000,0.000000,0.000000,0.000000,1772719320.187418,0.000000
162.000000,-11832.566480,-27106.832219,4485.190449,-7017.441930,5628.437475,8604.102862,-15208.417500,-5533.710782,5976.364729,4082.367311,16118.804052,4550.725764,10929.667762,2777.830097,-24090.218436,-6769.829305,0.004000,-0.008000,1.008000,192.000000,0.000000,0.000000,0.000000,0.000000,0.000000,0.000000,0.000000,0.000000,0.000000,1772719320.187428,0.000000
164.000000,-11883.573161,-27155.089635,4475.489792,-7041.179483,5574.636826,8573.726842,-15264.833303,-5573.452183,5956.494028,4068.553933,16098.329854,4536.890034,10908.008922,2775.259647,-24084.585796,-6501.183689,0.004000,-0.008000,1.008000,192.000000,0.000000,0.000000,0.000000,0.000000,0.000000,0.000000,0.000000,0.000000,0.000000,1772719320.187439,0.000000
166.000000,-11845.597547,-27117.918684,4480.876563,-7020.481768,5629.376248,8625.225261,-15223.549631,-5544.730192,5945.407563,4051.276034,16081.655452,4523.054304,10897.660064,2762.765022,-24092.543017,-6385.379301,0.004000,-0.008000,1.008000,192.000000,0.000000,0.000000,0.000000,0.000000,0.000000,0.000000,0.000000,0.000000,0.000000,1772719320.187449,0.000000
168.000000,-11864.373012,-27138.012902,4482.396481,-7039.257233,5621.016696,8605.332208,-15241.811006,-5565.539666,5972.877857,4088.826965,16116.010084,4554.726726,10942.922347,2799.958324,-24069.878348,-6824.412265,0.004000,-0.008000,1.008000,192.000000,0.000000,0.000000,0.000000,0.000000,0.000000,0.000000,0.000000,0.000000,0.000000,1772719320.187459,0.000000
170.000000,-11878.007576,-27151.714522,4487.917362,-7054.568178,5602.777672,8576.163182,-15254.305631,-5581.811736,5940.825455,4025.929156,16063.237615,4499.093234,10893.323826,2744.928330,-24088.787924,-6229.565290,0.008000,-0.010000,1.010000,192.000000,0.000000,32.000000,127.500000,88.000000,15.500000,72.000000,0.000000,0.000000,0.000000,1772719320.187469,0.000000
172.000000,-11841.261308,-27111.682548,4493.907630,-7032.529358,5649.917501,8604.572249,-15209.020997,-5543.567901,5967.781659,4074.454793,16106.309427,4538.789933,10934.093408,2777.472470,-24078.394363,-6772.913846,0.008000,-0.010000,1.010000,192.000000,0.000000,0.000000,0.000000,0.000000,0.000000,0.000000,0.000000,0.000000,0.000000,1772719320.187479,0.000000
174.000000,-11883.819030,-27155.559022,4489.169060,-7051.126009,5586.282085,8555.957205,-15256.451399,-5571.574637,5960.651453,4065.424689,16098.687482,4535.168950,10914.088597,2770.856353,-24080.584834,-6528.475169,0.008000,-0.010000,1.010000,192.000000,0.000000,0.000000,0.000000,0.000000,0.000000,0.000000,0.000000,0.000000,0.000000,1772719320.187490,0.000000
176.000000,-11841.104846,-27113.425984,4488.744377,-7023.231032,5630.270318,8592.636417,-15212.731387,-5534.068410,5953.901226,4051.007813,16089.880894,4532.665555,10895.089614,2754.204304,-24103.741241,-6432.295612,0.008000,-0.010000,1.010000,192.000000,0.000000,0.000000,0.000000,0.000000,0.000000,0.000000,0.000000,0.000000,0.000000,1772719320.187500,0.000000
178.000000,-11855.275852,-27127.574638,4484.542249,-7034.786884,5617.529823,8583.516906,-15230.702189,-5551.100439,5981.148002,4102.238012,16128.415302,4571.557590,10942.475312,2795.845603,-24083.892892,-6875.553057,0.008000,-0.010000,1.010000,192.000000,0.000000,0.000000,0.000000,0.000000,0.000000,0.000000,0.000000,0.000000,0.000000,1772719320.666248,0.000000
180.000000,-11865.535303,-27137.789385,4486.710368,-7047.572082,5597.748530,8573.190400,-15249.768227,-5566.076108,5951.196665,4040.793066,16075.151095,4522.182586,10895.067262,2754.472524,-24103.830648,-6258.980186,0.006000,-0.014000,0.998000,192.000000,0.000000,24.000000,127.500000,72.000000,15.500000,24.000000,0.000000,0.000000,0.000000,1772719320.666312,0.000000
182.000000,-11827.313820,-27102.361870,4498.869717,-7026.941422,5645.916539,8608.796729,-15205.243552,-5532.369677,5981.483278,4087.396453,16115.764214,4554.793782,10943.905824,2787.486051,-24089.927863,-6781.407509,0.006000,-0.014000,0.998000,192.000000,0.000000,0.000000,0.000000,0.000000,0.000000,0.000000,0.000000,0.000000,0.000000,1772719320.666360,0.000000
184.000000,-11879.125163,-27156.050760,4492.901801,-7056.758649,5579.755375,8558.594711,-15259.982975,-5576.313207,5969.748613,4065.290578,16101.012063,4539.415781,10921.151748,2770.252856,-24082.350622,-6529.905680,0.006000,-0.014000,0.998000,192.000000,0.000000,0.000000,0.000000,0.000000,0.000000,0.000000,0.000000,0.000000,0.000000,1772719320.666421,0.000000
186.000000,-11851.140779,-27124.847725,4488.923191,-7033.155207,5620.949640,8593.061101,-15221.068587,-5551.838047,5956.382269,4043.072944,16081.431935,4526.094142,10900.834012,2758.361728,-24098.712098,-6431.490950,0.006000,-0.014000,0.998000,192.000000,0.000000,0.000000,0.000000,0.000000,0.000000,0.000000,0.000000,0.000000,0.000000,1772719320.666462,0.000000
188.000000,-11868.798658,-27140.628057,4481.703577,-7040.240710,5607.628001,8585.997949,-15240.022867,-5571.775803,5973.436650,4087.888192,16115.138366,4557.833619,10934.585146,2790.101205,-24076.226244,-6866.590007,0.006000,-0.014000,0.998000,192.000000,0.000000,0.000000,0.000000,0.000000,0.000000,0.000000,0.000000,0.000000,0.000000,1772719320.666487,0.000000
190.000000,-11882.746146,-27155.268449,4478.283760,-7047.348565,5585.678588,8573.682138,-15257.859559,-5588.919591,5943.351202,4031.762961,16063.550539,4513.465406,10883.600817,2747.968167,-24097.728622,-6244.317442,0.004000,-0.012000,1.008000,192.000000,0.000000,16.000000,127.500000,80.000000,15.500000,64.000000,0.000000,0.000000,0.000000,1772719320.666511,0.000000
192.000000,-11848.480922,-27122.344330,4481.636522,-7028.818968,5633.287803,8605.578078,-15217.179384,-5559.169419,5960.115011,4071.437308,16095.804107,4547.842389,10919.832995,2778.411243,-24089.681994,-6765.247198,0.004000,-0.012000,1.008000,192.000000,0.000000,0.000000,0.000000,0.000000,0.000000,0.000000,0.000000,0.000000,0.000000,1772719320.666534,0.000000
194.000000,-11889.116393,-27163.806816,4485.346912,-7054.210550,5574.212143,8552.403277,-15264.922710,-5590.931248,5952.895397,4052.572435,16080.560217,4533.917252,10909.148861,2765.201362,-24084.138761,-6517.969849,0.004000,-0.012000,1.008000,192.000000,0.000000,0.000000,0.000000,0.000000,0.000000,0.000000,0.000000,0.000000,0.000000,1772719320.666558,0.000000
196.000000,-11849.464399,-27123.819545,4494.354665,-7031.232957,5621.866062,8581.885228,-15219.883945,-5553.737945,5954.325909,4035.629813,16077.855656,4527.859930,10899.627018,2746.560007,-24099.337947,-6429.814569,0.004000,-0.012000,1.008000,192.000000,0.000000,0.000000,0.000000,0.000000,0.000000,0.000000,0.000000,0.000000,0.000000,1772719320.666607,0.000000
198.000000,-11870.452687,-27144.405501,4486.755071,-7038.474922,5606.800986,8563.556798,-15239.709942,-5571.529933,5973.056671,4082.009683,16114.132537,4558.638282,10935.568623,2778.232429,-24083.870540,-6883.443222,0.004000,-0.012000,1.008000,192.000000,0.000000,0.000000,0.000000,0.000000,0.000000,0.000000,0.000000,0.000000,0.000000,1772719320.666632,0.000000
200.000000,-11877.806411,-27152.720350,4488.632618,-7039.123123,5588.114928,8559.198208,-15250.841111,-5580.872963,5940.758400,4024.453941,16062.455304,4509.531499,10881.611512,2736.434667,-24103.741241,-6270.983073,0.004000,-0.012000,1.008000,192.000000,0.000000,0.000000,127.500000,72.000000,15.500000,64.000000,0.000000,0.000000,0.000000,1772719320.666656,0.000000
202.000000,-11841.194253,-27116.242303,4490.532516,-7017.218413,5636.573510,8599.833679,-15210.473861,-5546.272462,5968.139287,4066.117593,16103.001368,4548.602348,10919.318905,2776.868972,-24088.720869,-6789.275323,0.004000,-0.012000,1.008000,192.000000,0.000000,0.000000,0.000000,0.000000,0.000000,0.000000,0.000000,0.000000,0.000000,1772719320.666679,0.000000
204.000000,-11892.536210,-27166.019638,4482.038853,-7049.047297,5572.938093,8558.035917,-15267.694326,-5587.779652,5948.805028,4047.655052,16080.448458,4529.804531,10896.855402,2759.546370,-24087.715040,-6533.213739,0.004000,-0.012000,1.008000,192.000000,0.000000,0.000000,0.000000,0.000000,0.000000,0.000000,0.000000,0.000000,0.000000,1772719320.666703,0.000000
206.000000,-11850.626689,-27121.740833,4487.939714,-7022.783997,5620.323792,8601.957095,-15222.387340,-5552.083916,5939.439647,4036.456828,16064.958699,4522.115531,10884.003149,2750.091583,-24103.830648,-6429.076961,0.004000,-0.012000,1.008000,192.000000,0.000000,0.000000,0.000000,0.000000,0.000000,0.000000,0.000000,0.000000,0.000000,1772719320.666726,0.000000
208.000000,-11874.833629,-27146.417158,4482.195316,-7039.257233,5601.660085,8580.342958,-15243.442684,-5571.820506,5961.009081,4084.155450,16103.537810,4557.498343,10924.459806,2784.759138,-24084.228168,-6865.919455,0.004000,-0.012000,1.008000,192.000000,0.000000,0.000000,0.000000,0.000000,0.000000,0.000000,0.000000,0.000000,0.000000,1772719320.666750,0.000000
210.000000,-11886.456536,-27158.911784,4483.536420,-7045.515722,5578.369567,8564.473219,-15257.658393,-5582.906971,5930.834226,4020.497682,16055.369801,4505.150557,10873.475477,2737.820475,-24100.969625,-6245.993822,0.004000,-0.012000,1.008000,192.000000,0.000000,0.000000,127.500000,80.000000,15.500000,56.000000,0.000000,0.000000,0.000000,1772719320.666774,0.000000
212.000000,-11849.062067,-27119.885638,4489.303170,-7019.788864,5624.838844,8609.377874,-15213.267829,-5546.652442,5953.923578,4061.826058,16093.457174,4539.616947,10910.422911,2775.416109,-24091.224264,-6763.012023,0.004000,-0.012000,1.008000,192.000000,0.000000,0.000000,0.000000,0.000000,0.000000,0.000000,0.000000,0.000000,0.000000,1772719320.666797,0.000000
214.000000,-11885.003672,-27156.363685,4488.699673,-7042.162960,5574.078032,8577.996025,-15261.547597,-5579.777727,5952.761287,4056.081659,16086.863409,4532.419685,10904.365588,2767.011853,-24080.026040,-6503.374160,0.004000,-0.012000,1.008000,192.000000,0.000000,0.000000,0.000000,0.000000,0.000000,0.000000,0.000000,0.000000,0.000000,1772719320.666820,0.000000
216.000000,-11843.071800,-27117.069318,4495.315790,-7016.190233,5621.508434,8610.316647,-15216.262962,-5547.099477,5952.493066,4043.542331,16078.347394,4523.300174,10900.275219,2754.181952,-24089.346718,-6397.203374,0.004000,-0.012000,1.008000,192.000000,0.000000,0.000000,0.000000,0.000000,0.000000,0.000000,0.000000,0.000000,0.000000,1772719320.666848,0.000000
218.000000,-11856.393439,-27131.933228,4491.426586,-7028.059009,5605.616344,8588.009606,-15234.658448,-5563.975044,5982.176183,4089.676331,16119.116976,4556.961901,10943.816417,2795.175051,-24069.699534,-6850.206178,0.004000,-0.012000,1.008000,192.000000,0.000000,0.000000,0.000000,0.000000,0.000000,0.000000,0.000000,0.000000,0.000000,1772719320.666872,0.000000
220.000000,-11861.959024,-27139.912801,4500.479043,-7033.311669,5580.649445,8562.550969,-15241.475730,-5564.690300,5954.661185,4031.025354,16071.083077,4512.571336,10894.016730,2750.337452,-24096.409869,-6252.878160,0.003000,-0.016000,1.004000,192.000000,0.000000,8.000000,127.500000,48.000000,15.500000,32.000000,0.000000,0.000000,0.000000,1772719320.666896,0.000000
222.000000,-11824.542203,-27098.584425,4507.855118,-7008.076550,5623.497739,8598.425519,-15196.615779,-5523.339572,5985.014854,4077.427575,16118.714645,4563.376851,10935.501568,2780.758176,-24082.752953,-6776.646587,0.003000,-0.016000,1.004000,192.000000,0.000000,0.000000,0.000000,0.000000,0.000000,0.000000,0.000000,0.000000,0.000000,1772719320.666920,0.000000
224.000000,-11866.474076,-27139.152841,4509.799720,-7027.813140,5568.534800,8559.891112,-15246.236652,-5560.219951,5972.631988,4068.822154,16105.169488,4559.934683,10921.084693,2766.564818,-24079.623709,-6528.318707,0.003000,-0.016000,1.004000,192.000000,0.000000,0.000000,0.000000,0.000000,0.000000,0.000000,0.000000,0.000000,0.000000,1772719320.666943,0.000000
226.000000,-11827.000895,-27098.606777,4513.264240,-7001.214564,5612.366571,8600.638342,-15206.629361,-5532.704953,5967.245217,4055.634624,16099.849772,4548.714107,10910.601724,2763.837905,-24089.838456,-6424.316040,0.003000,-0.016000,1.004000,192.000000,0.000000,0.000000,0.000000,0.000000,0.000000,0.000000,0.000000,0.000000,0.000000,1772719320.666967,0.000000
228.000000,-11846.201044,-27117.918684,4505.463482,-7011.630477,5599.961352,8597.173822,-15224.197832,-5550.027555,5989.798127,4101.455701,16134.226755,4577.726671,10946.990364,2799.377179,-24070.772418,-6864.332481,0.003000,-0.016000,1.004000,192.000000,0.000000,0.000000,0.000000,0.000000,0.000000,0.000000,0.000000,0.000000,0.000000,1772719320.666991,0.000000
230.000000,-11860.215588,-27133.497850,4505.821110,-7021.107617,5588.070224,8589.350711,-15236.938326,-5559.370584,5957.946892,4041.061287,16085.052918,4530.229214,10896.274256,2756.953568,-24088.139723,-6242.931633,0.003500,-0.018000,1.005000,192.000000,0.000000,16.000000,127.500000,48.000000,15.500000,56.000000,0.000000,0.000000,0.000000,1772719320.667014,0.000000
