Sample_index,EXG Channel 0,EXG Channel 1,EXG Channel 2,EXG Channel 3,EXG Channel 4,EXG Channel 5,EXG Channel 6,EXG Channel 7,EXG Channel 8,EXG Channel 9,EXG Channel 10,EXG Channel 11,EXG Channel 12,EXG Channel 13,EXG Channel 14,EXG Channel 15,Accel Channel 0,Accel Channel 1,Accel Channel 2,Not Used,Digital Channel 0 (D11),Digital Channel 1 (D12),Digital Channel 2 (D13),Digital Channel 3 (D17),Not Used,Digital Channel 4 (D18),Analog Channel 0,Analog Channel 1,Analog Channel 2,Timestamp,Marker Channel
210.000000,851.959092,5879.224048,-6206.498290,-227.831331,-8294.955885,14140.339391,-6950.990194,-15349.389952,10848.508578,14745.803445,-5429.641060,17907.368291,17424.347094,14067.986794,3925.145140,1964.763041,0.282000,-0.224000,0.954000,192.000000,0.000000,0.000000,0.000000,0.000000,0.000000,0.000000,0.000000,0.000000,0.000000,1773822647.460104,101.000000
212.000000,880.010531,5907.007266,-6168.120345,-194.862508,-8256.756754,14174.090525,-6911.651124,-15316.734054,10864.668890,14768.937501,-5398.818004,17933.251611,17452.353829,14094.004225,3930.956594,1961.320872,0.282000,-0.224000,0.954000,192.000000,0.000000,0.000000,0.000000,0.000000,0.000000,0.000000,0.000000,0.000000,0.000000,1773822647.460166,0.000000
214.000000,843.711298,5872.674986,-6207.280601,-234.447448,-8302.644885,14124.335542,-6952.755982,-15352.832121,10853.761238,14758.432181,-5409.502138,17927.887193,17440.328591,14087.969254,3931.113056,1968.696948,0.282000,-0.224000,0.954000,192.000000,0.000000,0.000000,0.000000,0.000000,0.000000,0.000000,0.000000,0.000000,0.000000,1773822647.460214,0.000000
216.000000,862.084432,5890.154051,-6180.793784,-209.927584,-8271.620664,14153.415162,-6923.586955,-15328.222850,10844.999354,14739.679067,-5429.708115,17912.442137,17413.528849,14068.545588,3928.117922,1960.315044,0.280000,-0.222000,0.952000,192.000000,4.000000,96.000000,124.500000,8.000000,14.500000,96.000000,0.000000,0.000000,0.000000,1773822647.460257,0.000000
218.000000,860.877438,5890.243458,-6186.985217,-212.252165,-8276.940379,14150.420028,-6929.599575,-15332.134406,10856.555206,14768.982204,-5393.006550,17940.918260,17449.604565,14098.295760,3938.109152,1968.674596,0.280000,-0.222000,0.952000,192.000000,0.000000,0.000000,0.000000,0.000000,0.000000,0.000000,0.000000,0.000000,0.000000,1773822647.460307,0.000000
220.000000,844.560664,5871.333882,-6208.197022,-234.067468,-8298.129833,14128.828243,-6952.912444,-15353.569729,10844.217043,14737.354486,-5433.329097,17901.981521,17410.220791,14077.106306,3929.637841,1966.685291,0.280000,-0.222000,0.952000,192.000000,0.000000,0.000000,0.000000,0.000000,0.000000,0.000000,0.000000,0.000000,0.000000,1773822647.460351,0.000000
222.000000,882.268057,5909.890641,-6166.756888,-195.868337,-8255.370945,14175.297520,-6910.466482,-15312.196650,10859.237416,14760.443838,-5404.472995,17924.377969,17445.245975,14095.635902,3937.103324,1968.339320,0.280000,-0.222000,0.952000,192.000000,0.000000,0.000000,0.000000,0.000000,0.000000,0.000000,0.000000,0.000000,0.000000,1773822647.460375,0.000000
224.000000,848.874551,5879.671082,-6206.520642,-231.832293,-8295.872306,14132.471577,-6954.633529,-15348.495883,10859.058602,14757.538111,-5408.272792,17920.533469,17443.703704,14113.941981,3938.355021,1971.937951,0.280000,-0.222000,0.952000,192.000000,0.000000,0.000000,0.000000,0.000000,0.000000,0.000000,0.000000,0.000000,0.000000,1773822647.460390,0.000000
226.000000,880.256400,5915.880908,-6172.523638,-201.076293,-8259.997756,14166.245063,-6922.782293,-15315.772929,10858.365698,14750.720829,-5421.281507,17908.977617,17427.543393,14078.425059,3937.595062,1969.412204,0.280000,-0.222000,0.950000,192.000000,4.000000,96.000000,124.500000,8.000000,14.500000,80.000000,0.000000,0.000000,0.000000,1773822647.460406,0.000000
228.000000,878.445909,5901.933420,-6178.312740,-202.439750,-8273.833486,14155.538578,-6927.207938,-15321.874955,10876.381204,14778.682861,-5382.769451,17945.053332,17467.173036,14108.890487,3938.109152,1969.345149,0.280000,-0.222000,0.950000,192.000000,0.000000,0.000000,0.000000,0.000000,0.000000,0.000000,0.000000,0.000000,0.000000,1773822647.460424,0.000000
230.000000,857.748193,5876.608893,-6199.323380,-220.745828,-8297.369873,14133.387999,-6948.375040,-15343.198519,10858.209235,14744.350582,-5422.086170,17910.475184,17420.390835,14074.848780,3928.654364,1965.634759,0.280000,-0.222000,0.950000,192.000000,0.000000,0.000000,0.000000,0.000000,0.000000,0.000000,0.000000,0.000000,0.000000,1773822647.460442,0.000000
232.000000,889.845299,5913.533975,-6161.012490,-186.100624,-8260.310681,14173.285863,-6906.666685,-15308.240391,10870.502695,14767.998727,-5395.174670,17935.129158,17452.353829,14096.507620,3930.040172,1962.997253,0.280000,-0.222000,0.950000,192.000000,0.000000,0.000000,0.000000,0.000000,0.000000,0.000000,0.000000,0.000000,0.000000,1773822647.460460,0.000000
234.000000,849.433345,5874.038443,-6204.307819,-226.646689,-8300.432062,14128.515318,-6953.203017,-15350.596947,10867.328747,14758.007498,-5403.489519,17927.820137,17449.984545,14090.271484,3934.041135,1965.143021,0.280000,-0.222000,0.950000,192.000000,0.000000,0.000000,0.000000,0.000000,0.000000,0.000000,0.000000,0.000000,0.000000,1773822647.460478,0.000000
236.000000,868.253513,5892.858612,-6178.759775,-200.070465,-8270.838353,14154.957432,-6925.218633,-15329.407493,10850.699049,14734.672276,-5430.892757,17901.020396,17423.922410,14080.928455,3926.530948,1960.449154,0.280000,-0.221000,0.953000,192.000000,4.000000,96.000000,124.500000,16.000000,14.500000,112.000000,0.000000,0.000000,0.000000,1773822647.460494,0.000000
238.000000,863.067909,5887.471841,-6184.504173,-208.966459,-8273.967597,14149.816531,-6930.963031,-15337.431769,10859.304471,14758.745105,-5398.460376,17936.939649,17460.333402,14114.053740,3934.063486,1968.384024,0.280000,-0.221000,0.953000,192.000000,0.000000,0.000000,0.000000,0.000000,0.000000,0.000000,0.000000,0.000000,0.000000,1773822647.460511,0.000000
240.000000,847.511095,5874.641940,-6203.145528,-228.278366,-8296.364045,14135.176138,-6952.823037,-15356.766028,10848.195654,14728.346733,-5435.787789,17901.020396,17427.297524,14080.213199,3928.229681,1962.639625,0.280000,-0.221000,0.953000,192.000000,0.000000,0.000000,0.000000,0.000000,0.000000,0.000000,0.000000,0.000000,0.000000,1773822647.460526,0.000000
242.000000,881.843374,5910.471786,-6161.526580,-190.034531,-8255.996794,14173.509380,-6909.393598,-15317.829289,10863.573654,14752.844245,-5406.171728,17924.422672,17448.621088,14103.660179,3930.218986,1961.902018,0.280000,-0.221000,0.953000,192.000000,0.000000,0.000000,0.000000,0.000000,0.000000,0.000000,0.000000,0.000000,0.000000,1773822647.460544,0.000000
244.000000,847.332281,5873.524353,-6203.570211,-229.686526,-8299.292123,14126.637772,-6952.800686,-15357.190711,10860.198541,14745.982259,-5409.345676,17920.421710,17445.380085,14081.733117,3932.498864,1966.707643,0.280000,-0.221000,0.953000,192.000000,0.000000,0.000000,0.000000,0.000000,0.000000,0.000000,0.000000,0.000000,0.000000,1773822647.460557,0.000000
246.000000,867.493554,5897.865402,-6177.977464,-202.730322,-8268.826696,14155.225653,-6924.548081,-15334.034304,10852.956576,14731.006590,-5431.675068,17900.662768,17421.642533,14069.819638,3927.492073,1963.801916,0.281000,-0.221500,0.951500,192.000000,4.000000,104.000000,124.500000,8.000000,14.500000,88.000000,0.000000,0.000000,0.000000,1773822647.460574,0.000000
248.000000,865.839525,5898.245382,-6182.045481,-205.144311,-8267.418536,14157.729048,-6927.274993,-15336.247127,10865.786477,14761.717887,-5397.588658,17931.307010,17461.898024,14112.712635,3931.515387,1970.887419,0.281000,-0.221500,0.951500,192.000000,0.000000,0.000000,0.000000,0.000000,0.000000,0.000000,0.000000,0.000000,0.000000,1773822647.460590,0.000000
250.000000,845.611196,5875.357196,-6205.783034,-223.204520,-8298.867440,14138.975935,-6951.146656,-15356.497807,10851.593119,14731.967715,-5437.352411,17900.930989,17416.188707,14078.045079,3926.709762,1964.025434,0.281000,-0.221500,0.951500,192.000000,0.000000,0.000000,0.000000,0.000000,0.000000,0.000000,0.000000,0.000000,0.000000,1773822647.460608,0.000000
252.000000,875.204906,5903.296876,-6168.209752,-187.754653,-8261.405916,14170.894226,-6908.857156,-15319.237449,10858.186884,14747.502178,-5413.570155,17922.075739,17447.794074,14096.597027,3928.162626,1964.137192,0.281000,-0.221500,0.951500,192.000000,0.000000,0.000000,0.000000,0.000000,0.000000,0.000000,0.000000,0.000000,0.000000,1773822647.460625,0.000000
254.000000,841.297310,5871.803268,-6209.895755,-226.914910,-8303.024865,14127.040103,-6951.906616,-15355.044944,10856.555206,14745.624631,-5414.397170,17922.008684,17440.015666,14095.770013,3925.368658,1965.657111,0.281000,-0.221500,0.951500,192.000000,0.000000,0.000000,0.000000,0.000000,0.000000,0.000000,0.000000,0.000000,0.000000,1773822647.460642,0.000000
0.000000,865.034862,5894.959676,-6182.201944,-201.791549,-8273.922893,14156.387944,-6923.899880,-15329.273382,10844.887596,14726.558593,-5437.665336,17897.488820,17417.418053,14095.054757,3919.959536,1953.318948,0.280500,-0.220750,0.948750,192.000000,4.000000,96.000000,124.500000,16.000000,14.500000,72.000000,0.000000,0.000000,0.000000,1773822647.460660,0.000000
2.000000,860.810382,5894.691455,-6187.856935,-203.356171,-8282.818888,14149.570662,-6925.375095,-15332.089702,10860.287948,14759.102733,-5399.935591,17929.652981,17457.092399,14109.538687,3920.808902,1965.120669,0.280500,-0.220750,0.948750,192.000000,0.000000,0.000000,0.000000,0.000000,0.000000,0.000000,0.000000,0.000000,0.000000,1773822647.460676,0.000000
4.000000,846.929949,5884.141431,-6206.587697,-223.562148,-8306.891716,14129.029409,-6947.391563,-15350.574595,10843.725305,14727.743236,-5439.229958,17896.684157,17409.706701,14084.929417,3913.075198,1965.053614,0.280500,-0.220750,0.948750,192.000000,0.000000,0.000000,0.000000,0.000000,0.000000,0.000000,0.000000,0.000000,0.000000,1773822647.460694,0.000000
6.000000,886.000798,5914.986839,-6163.024147,-186.614714,-8264.870437,14168.055554,-6904.453862,-15309.648551,10860.019727,14753.268928,-5408.831586,17923.193326,17441.736751,14090.092670,3923.513463,1966.193553,0.280500,-0.220750,0.948750,192.000000,0.000000,0.000000,0.000000,0.000000,0.000000,0.000000,0.000000,0.000000,0.000000,1773822647.460711,0.000000
8.000000,852.160257,5877.570018,-6202.743197,-226.423171,-8304.455376,14126.481310,-6947.324508,-15347.467702,10858.276291,14750.653774,-5408.138681,17925.093225,17441.423826,14096.194696,3924.496940,1968.518134,0.280500,-0.220750,0.948750,192.000000,0.000000,0.000000,0.000000,0.000000,0.000000,0.000000,0.000000,0.000000,0.000000,1773822647.460728,0.000000
10.000000,874.243781,5901.687551,-6177.821002,-200.070465,-8281.343672,14153.772790,-6921.374133,-15322.500804,10853.224796,14729.620782,-5429.574004,17903.277922,17418.557992,14077.642748,3918.730190,1960.359747,0.280250,-0.220375,0.949375,192.000000,4.000000,96.000000,124.500000,16.000000,14.500000,88.000000,0.000000,0.000000,0.000000,1773822647.460746,0.000000
12.000000,869.572266,5900.905240,-6183.408938,-205.345476,-8282.416556,14150.397676,-6926.090351,-15326.077083,10863.417192,14758.834512,-5393.855917,17938.906603,17454.477245,14107.974065,3923.334649,1967.244085,0.280250,-0.220375,0.949375,192.000000,0.000000,0.000000,0.000000,0.000000,0.000000,0.000000,0.000000,0.000000,0.000000,1773822647.460761,0.000000
14.000000,854.261321,5885.482536,-6204.441929,-226.244357,-8309.171594,14126.324847,-6951.459581,-15347.132426,10854.700012,14728.793768,-5428.344658,17901.087451,17415.316989,14096.284103,3916.874995,1965.277131,0.280250,-0.220375,0.949375,192.000000,0.000000,0.000000,0.000000,0.000000,0.000000,0.000000,0.000000,0.000000,0.000000,1773822647.460778,0.000000
16.000000,890.806424,5917.803158,-6167.583903,-183.910153,-8262.612911,14164.613386,-6910.131205,-15308.463908,10865.607663,14753.581852,-5401.097882,17927.149585,17440.663867,14105.493022,3916.763236,1965.701814,0.280250,-0.220375,0.949375,192.000000,0.000000,0.000000,0.000000,0.000000,0.000000,0.000000,0.000000,0.000000,0.000000,1773822647.460796,0.000000
18.000000,850.752097,5881.749795,-6208.688761,-224.970308,-8309.395112,14125.654295,-6954.410011,-15348.831159,10857.136352,14746.004611,-5407.423426,17923.483899,17433.712475,14088.438641,3921.322992,1965.210076,0.280250,-0.220375,0.949375,192.000000,0.000000,0.000000,0.000000,0.000000,0.000000,0.000000,0.000000,0.000000,0.000000,1773822647.460810,0.000000
20.000000,876.166031,5903.721559,-6180.480859,-200.271630,-8280.650768,14152.051705,-6928.258470,-15323.528984,10851.347250,14732.325343,-5429.350487,17900.573361,17410.980750,14085.219989,3918.394913,1955.665881,0.281125,-0.221187,0.949688,192.000000,4.000000,104.000000,124.500000,8.000000,14.500000,88.000000,0.000000,0.000000,0.000000,1773822647.460827,0.000000
22.000000,872.008606,5901.084054,-6183.274827,-204.384351,-8286.931609,14146.977859,-6930.314831,-15325.898269,10861.874922,14763.282509,-5392.872440,17934.190385,17454.432542,14113.562001,3925.815693,1959.912713,0.281125,-0.221187,0.949688,192.000000,0.000000,0.000000,0.000000,0.000000,0.000000,0.000000,0.000000,0.000000,0.000000,1773822647.460844,0.000000
24.000000,853.456659,5888.030635,-6205.447758,-227.831331,-8305.438853,14127.777711,-6953.001851,-15346.081894,10844.954651,14735.298125,-5431.920938,17901.422727,17413.595905,14084.236513,3919.087818,1953.520114,0.281125,-0.221187,0.949688,192.000000,0.000000,0.000000,0.000000,0.000000,0.000000,0.000000,0.000000,0.000000,0.000000,1773822647.460859,0.000000
26.000000,881.217525,5917.132606,-6170.936664,-196.114206,-8272.134754,14163.786371,-6913.394560,-15314.320065,10856.063468,14755.347640,-5406.462301,17923.774472,17445.268326,14102.296722,3923.088780,1952.246064,0.281125,-0.221187,0.949688,192.000000,0.000000,0.000000,0.000000,0.000000,0.000000,0.000000,0.000000,0.000000,0.000000,1773822647.460876,0.000000
28.000000,846.572321,5881.548629,-6211.683895,-236.280291,-8319.118121,14115.551307,-6955.080563,-15352.250976,10848.039192,14745.423465,-5414.620687,17917.203059,17428.236297,14085.398803,3917.523195,1960.851486,0.281125,-0.221187,0.949688,192.000000,0.000000,0.000000,0.000000,0.000000,0.000000,0.000000,0.000000,0.000000,0.000000,1773822647.460893,0.000000
30.000000,869.773432,5904.168594,-6186.135851,-212.386276,-8293.547725,14149.950641,-6926.604441,-15326.010028,10842.898291,14722.937610,-5434.849016,17895.432460,17407.627989,14064.656385,3911.488224,1950.569683,0.281563,-0.221594,0.951844,192.000000,4.000000,104.000000,124.500000,8.000000,14.500000,104.000000,0.000000,0.000000,0.000000,1773822647.460911,0.000000
32.000000,863.224371,5901.151109,-6187.991045,-215.627279,-8293.413614,14147.894281,-6929.264299,-15330.525080,10859.572692,14755.124123,-5394.906449,17933.430425,17451.348001,14106.744719,3916.450312,1955.732936,0.281563,-0.221594,0.951844,192.000000,0.000000,0.000000,0.000000,0.000000,0.000000,0.000000,0.000000,0.000000,0.000000,1773822647.460928,0.000000
34.000000,842.146676,5880.207524,-6209.851052,-237.979023,-8311.943211,14125.006095,-6953.962976,-15354.150874,10841.065447,14722.691741,-5435.586624,17891.520904,17404.722262,14077.776859,3913.410474,1953.184837,0.281563,-0.221594,0.951844,192.000000,0.000000,0.000000,0.000000,0.000000,0.000000,0.000000,0.000000,0.000000,0.000000,1773822647.460944,0.000000
36.000000,874.936685,5912.014057,-6170.288464,-201.255107,-8273.118230,14166.937967,-6913.819243,-15317.561068,10852.151913,14740.819006,-5409.077455,17910.989274,17429.823271,14100.754452,3919.981887,1950.793201,0.281563,-0.221594,0.951844,192.000000,0.000000,0.000000,0.000000,0.000000,0.000000,0.000000,0.000000,0.000000,0.000000,1773822647.460962,0.000000
38.000000,840.917330,5876.161859,-6212.801482,-236.995546,-8319.922783,14119.328751,-6957.092220,-15356.877787,10847.502750,14740.148454,-5413.324286,17909.290541,17431.901983,14103.101385,3916.718533,1956.694061,0.281563,-0.221594,0.951844,192.000000,0.000000,0.000000,0.000000,0.000000,0.000000,0.000000,0.000000,0.000000,0.000000,1773822647.460979,0.000000
40.000000,867.582961,5897.664237,-6188.281618,-209.547604,-8284.607027,14145.659106,-6928.973726,-15330.078045,10836.148064,14723.429349,-5438.268833,17885.821210,17406.644512,14084.907065,3909.811844,1952.938968,0.281563,-0.221594,0.951844,192.000000,0.000000,0.000000,0.000000,0.000000,0.000000,0.000000,0.000000,0.000000,0.000000,1773822647.460994,0.000000
42.000000,881.731615,5911.522318,-6187.499307,-206.373657,-8280.047271,14145.368534,-6927.386752,-15322.970190,10859.572692,14761.606128,-5393.766510,17925.652018,17444.843643,14127.733007,3921.904137,1956.604654,0.278000,-0.226000,0.954000,192.000000,4.000000,88.000000,124.000000,120.000000,14.500000,104.000000,0.000000,0.000000,0.000000,1773822647.461012,0.000000
44.000000,859.312816,5895.384359,-6211.102749,-226.803151,-8306.578792,14126.526013,-6953.605348,-15345.768970,10850.140256,14739.634364,-5428.545824,17901.400376,17421.083739,14076.614568,3917.366733,1950.323814,0.278000,-0.226000,0.954000,192.000000,0.000000,0.000000,0.000000,0.000000,0.000000,0.000000,0.000000,0.000000,0.000000,1773822647.461028,0.000000
46.000000,891.499328,5923.502853,-6171.383699,-192.135595,-8263.998719,14165.663918,-6911.874641,-15307.033397,10859.975023,14760.913224,-5404.472995,17924.176803,17444.195443,14098.675740,3919.490149,1952.894265,0.278000,-0.226000,0.954000,192.000000,0.000000,0.000000,0.000000,0.000000,0.000000,0.000000,0.000000,0.000000,0.000000,1773822647.461045,0.000000
48.000000,855.758888,5887.941228,-6211.862709,-229.574767,-8306.243516,14125.520185,-6953.739459,-15342.639726,10856.555206,14756.197006,-5407.177556,17925.942591,17437.936954,14092.551362,3919.646611,1959.622140,0.278000,-0.226000,0.954000,192.000000,0.000000,0.000000,0.000000,0.000000,0.000000,0.000000,0.000000,0.000000,0.000000,1773822647.461063,0.000000
50.000000,875.651941,5910.270621,-6185.510002,-208.832348,-8286.126946,14147.447246,-6928.347877,-15318.656304,10852.755410,14741.757779,-5426.020077,17902.026224,17416.501631,14100.486231,3911.443521,1951.396698,0.278000,-0.226000,0.954000,192.000000,0.000000,0.000000,0.000000,0.000000,0.000000,0.000000,0.000000,0.000000,0.000000,1773822647.461078,0.000000
52.000000,871.069833,5902.603972,-6189.689778,-209.078218,-8294.039463,14141.278165,-6929.532520,-15319.729187,10862.992509,14768.579873,-5391.173707,17936.470263,17456.019516,14129.051760,3914.058675,1954.950625,0.286000,-0.226000,0.950000,192.000000,4.000000,120.000000,124.000000,120.000000,14.500000,88.000000,0.000000,0.000000,0.000000,1773822647.461096,0.000000
54.000000,843.107801,5874.507829,-6214.589621,-234.313337,-8320.503929,14105.805946,-6958.656843,-15346.305412,10845.356982,14732.750026,-5431.675068,17898.315835,17408.790279,14074.535856,3906.392027,1948.356861,0.286000,-0.226000,0.950000,192.000000,0.000000,0.000000,0.000000,0.000000,0.000000,0.000000,0.000000,0.000000,0.000000,1773822647.461112,0.000000
56.000000,877.864763,5908.840109,-6175.027034,-192.537927,-8276.873324,14143.535691,-6915.607383,-15307.771004,10855.839951,14753.358335,-5407.557536,17923.081568,17431.320838,14102.877868,3904.849756,1945.004099,0.286000,-0.226000,0.950000,192.000000,0.000000,0.000000,0.000000,0.000000,0.000000,0.000000,0.000000,0.000000,0.000000,1773822647.461124,0.000000
58.000000,842.660766,5874.172553,-6215.059008,-231.295852,-8318.201699,14104.621304,-6959.170933,-15347.333592,10855.795247,14752.397210,-5408.272792,17920.756986,17432.304315,14089.019786,3905.296791,1950.860256,0.286000,-0.226000,0.950000,192.000000,0.000000,0.000000,0.000000,0.000000,0.000000,0.000000,0.000000,0.000000,0.000000,1773822647.461137,0.000000
60.000000,864.297255,5897.351312,-6187.588714,-207.312430,-8294.620609,14141.524034,-6932.527653,-15323.797205,10849.179131,14734.851090,-5430.468074,17898.427594,17411.517192,14093.736004,3904.670942,1944.467657,0.286000,-0.226000,0.950000,192.000000,0.000000,0.000000,0.000000,0.000000,0.000000,0.000000,0.000000,0.000000,0.000000,1773822647.461149,0.000000
62.000000,863.872571,5896.703112,-6188.728653,-209.614660,-8290.977274,14140.249984,-6934.248738,-15328.334609,10864.803000,14765.964719,-5395.331132,17933.318667,17455.617184,14109.225763,3911.331762,1950.524980,0.286000,-0.226000,0.946000,192.000000,4.000000,120.000000,124.000000,120.000000,14.500000,72.000000,0.000000,0.000000,0.000000,1773822647.461164,0.000000
64.000000,845.678251,5882.845030,-6212.309743,-228.568939,-8311.607934,14119.954600,-6957.718069,-15349.166435,10854.521198,14740.126102,-5434.983127,17897.712338,17416.278114,14074.312338,3907.040227,1952.693099,0.286000,-0.226000,0.946000,192.000000,0.000000,0.000000,0.000000,0.000000,0.000000,0.000000,0.000000,0.000000,0.000000,1773822647.461181,0.000000
66.000000,882.513926,5923.167577,-6171.517810,-189.140462,-8262.009413,14158.600766,-6911.852290,-15307.078100,10866.367622,14762.008460,-5406.842280,17922.165146,17450.096303,14094.093632,3911.018838,1954.503590,0.286000,-0.226000,0.946000,192.000000,0.000000,0.000000,0.000000,0.000000,0.000000,0.000000,0.000000,0.000000,0.000000,1773822647.461198,0.000000
68.000000,849.947435,5894.333827,-6212.354447,-231.452314,-8305.125929,14119.216993,-6955.482895,-15345.277231,10865.942939,14763.237806,-5407.646943,17920.220544,17452.599699,14092.238437,3915.578594,1958.884532,0.286000,-0.226000,0.946000,192.000000,0.000000,0.000000,0.000000,0.000000,0.000000,0.000000,0.000000,0.000000,0.000000,1773822647.461212,0.000000
70.000000,871.472165,5914.875080,-6183.744214,-206.977154,-8277.990911,14153.012830,-6927.230290,-15319.058635,10861.897273,14749.938518,-5428.769342,17902.652073,17422.089567,14072.010108,3910.638858,1951.195532,0.286000,-0.226000,0.946000,192.000000,0.000000,0.000000,0.000000,0.000000,0.000000,0.000000,0.000000,0.000000,0.000000,1773822647.461230,0.000000
72.000000,872.701511,5912.237574,-6186.269961,-206.820691,-8279.443774,14161.953528,-6925.486854,-15318.589248,10875.822410,14779.867504,-5390.234934,17941.745274,17457.472379,14110.678626,3918.305507,1962.684329,0.284000,-0.222000,0.944000,192.000000,4.000000,112.000000,124.500000,8.000000,14.500000,64.000000,0.000000,0.000000,0.000000,1773822647.461246,0.000000
74.000000,850.528580,5889.729367,-6211.661543,-229.954747,-8302.309609,14133.298592,-6953.918273,-15345.143121,10858.902140,14749.424428,-5429.439894,17907.435347,17420.614352,14091.009091,3914.125730,1954.078907,0.284000,-0.222000,0.944000,192.000000,0.000000,0.000000,0.000000,0.000000,0.000000,0.000000,0.000000,0.000000,0.000000,1773822647.940232,0.000000
76.000000,882.044540,5923.882833,-6171.875438,-192.202651,-8258.187265,14170.782467,-6911.941697,-15309.380330,10868.826314,14770.323309,-5408.831586,17924.534431,17449.135178,14098.541629,3918.394913,1952.804858,0.284000,-0.222000,0.944000,192.000000,0.000000,0.000000,0.000000,0.000000,0.000000,0.000000,0.000000,0.000000,0.000000,1773822647.940288,0.000000
78.000000,848.002833,5888.924705,-6210.566307,-234.872131,-8303.293085,14126.481310,-6953.314776,-15349.300545,10867.060526,14770.122143,-5410.843243,17923.863879,17445.156568,14115.305437,3917.299678,1960.382099,0.284000,-0.222000,0.944000,192.000000,0.000000,0.000000,0.000000,0.000000,0.000000,0.000000,0.000000,0.000000,0.000000,1773822647.940336,0.000000
80.000000,871.136888,5914.383342,-6187.141679,-208.787645,-8276.091012,14156.544406,-6929.197243,-15327.038208,10858.991547,14748.709172,-5434.156112,17902.696777,17422.335437,14073.328861,3911.488224,1951.284939,0.284000,-0.222000,0.944000,192.000000,0.000000,0.000000,0.000000,0.000000,0.000000,0.000000,0.000000,0.000000,0.000000,1773822647.940379,0.000000
82.000000,872.053310,5907.141376,-6186.806403,-208.094741,-8272.380623,14153.213996,-6930.694810,-15323.551336,10871.732041,14778.436992,-5396.918106,17933.542184,17461.495693,14099.659216,3921.345344,1960.896189,0.280000,-0.220000,0.954000,192.000000,4.000000,96.000000,124.500000,16.000000,14.500000,104.000000,0.000000,0.000000,0.000000,1773822647.940432,0.000000
84.000000,857.815249,5890.601085,-6207.213546,-231.027631,-8295.224106,14130.996362,-6954.633529,-15341.835063,10860.489113,14749.245614,-5430.892757,17904.037881,17425.218812,14074.692318,3919.177225,1957.968111,0.280000,-0.220000,0.954000,192.000000,0.000000,0.000000,0.000000,0.000000,0.000000,0.000000,0.000000,0.000000,0.000000,1773822647.940475,0.000000
86.000000,891.007589,5925.380400,-6164.812286,-192.739092,-8256.354422,14171.073040,-6910.555888,-15302.875972,10876.694128,14773.296091,-5401.723731,17927.909544,17448.643440,14107.348216,3922.686448,1953.184837,0.280000,-0.220000,0.954000,192.000000,0.000000,0.000000,0.000000,0.000000,0.000000,0.000000,0.000000,0.000000,0.000000,1773822647.940496,0.000000
88.000000,850.215656,5888.187097,-6209.091092,-230.871168,-8299.381530,14133.812682,-6954.365308,-15344.964307,10873.319015,14763.863655,-5406.819929,17923.975637,17441.848510,14088.438641,3921.479454,1958.728070,0.280000,-0.220000,0.954000,192.000000,0.000000,0.000000,0.000000,0.000000,0.000000,0.000000,0.000000,0.000000,0.000000,1773822647.940512,0.000000
90.000000,876.635418,5912.483443,-6185.107670,-203.892613,-8269.385489,14158.623118,-6927.364400,-15320.802071,10866.702898,14746.004611,-5430.669240,17902.719128,17422.469547,14069.976100,3913.879861,1950.524980,0.280000,-0.220000,0.954000,192.000000,0.000000,0.000000,0.000000,0.000000,0.000000,0.000000,0.000000,0.000000,0.000000,1773822647.940526,0.000000
92.000000,878.334150,5909.935344,-6187.901638,-209.368790,-8268.267902,14155.650336,-6928.660801,-15321.472624,10879.823372,14784.404908,-5393.542992,17938.794844,17469.855245,14113.718464,3917.903175,1959.175105,0.282000,-0.222000,0.954000,192.000000,4.000000,104.000000,124.500000,8.000000,14.500000,104.000000,0.000000,0.000000,0.000000,1773822647.940544,0.000000
94.000000,855.356557,5894.579696,-6213.695552,-239.342480,-8292.988931,14134.125606,-6957.673366,-15347.490054,10863.193674,14752.285451,-5435.832493,17899.522829,17426.559916,14105.291856,3918.394913,1956.090564,0.282000,-0.222000,0.954000,192.000000,0.000000,0.000000,0.000000,0.000000,0.000000,0.000000,0.000000,0.000000,0.000000,1773822647.940556,0.000000
96.000000,891.096996,5928.844920,-6171.607217,-194.035494,-8256.577940,14177.890322,-6915.003886,-15306.943990,10872.894332,14776.514742,-5409.971524,17921.807518,17450.118655,14105.470670,3920.585384,1954.570646,0.282000,-0.222000,0.954000,192.000000,0.000000,0.000000,0.000000,0.000000,0.000000,0.000000,0.000000,0.000000,0.000000,1773822647.940569,0.000000
98.000000,855.781240,5890.154051,-6214.969601,-234.112171,-8300.230897,14137.791292,-6959.059174,-15347.065371,10868.759259,14777.118239,-5410.083283,17924.668542,17450.744504,14090.584408,3917.992582,1957.722242,0.282000,-0.222000,0.954000,192.000000,0.000000,0.000000,0.000000,0.000000,0.000000,0.000000,0.000000,0.000000,0.000000,1773822647.940581,0.000000
100.000000,882.245705,5916.685571,-6188.616894,-210.441674,-8278.549704,14157.684345,-6931.812397,-15321.383217,10857.315166,14753.783018,-5434.893720,17901.266265,17417.932143,14067.383297,3915.064504,1954.749460,0.282000,-0.222000,0.954000,192.000000,0.000000,0.000000,0.000000,0.000000,0.000000,0.000000,0.000000,0.000000,0.000000,1773822647.940593,0.000000
102.000000,888.057159,5924.531034,-6184.325359,-205.971325,-8278.437946,14162.981708,-6929.197243,-15316.421129,10879.398689,14796.184277,-5391.240763,17944.807463,17463.887330,14126.593068,3917.925527,1954.391832,0.284000,-0.220000,0.954000,192.000000,4.000000,112.000000,124.500000,16.000000,14.500000,104.000000,0.000000,0.000000,0.000000,1773822647.940605,0.000000
104.000000,861.346824,5899.094748,-6210.543956,-228.121904,-8314.647772,14143.155711,-6956.622834,-15341.946821,10866.524084,14768.445762,-5429.484597,17915.929009,17419.899096,14085.577617,3913.388123,1952.871913,0.284000,-0.220000,0.954000,192.000000,0.000000,0.000000,0.000000,0.000000,0.000000,0.000000,0.000000,0.000000,0.000000,1773822647.940617,0.000000
106.000000,895.701456,5932.175330,-6169.260284,-191.353284,-8269.921931,14179.611406,-6912.500490,-15304.328836,10876.850590,14786.751841,-5405.009437,17936.090283,17446.207100,14111.192717,3917.858472,1951.463753,0.284000,-0.220000,0.954000,192.000000,0.000000,0.000000,0.000000,0.000000,0.000000,0.000000,0.000000,0.000000,0.000000,1773822647.940628,0.000000
108.000000,857.390566,5897.351312,-6207.749988,-233.598081,-8307.405806,14133.723275,-6954.231197,-15346.372467,10875.688300,14778.861675,-5407.557536,17931.172899,17458.142931,14121.876850,3923.111132,1955.531771,0.284000,-0.220000,0.954000,192.000000,0.000000,0.000000,0.000000,0.000000,0.000000,0.000000,0.000000,0.000000,0.000000,1773822647.940640,0.000000
110.000000,872.276827,5911.499967,-6185.688816,-209.793473,-8279.421422,14154.309232,-6928.884319,-15325.205365,10864.735945,14747.792750,-5436.659507,17904.395509,17430.851451,14075.631091,3917.612602,1942.232483,0.284000,-0.220000,0.954000,192.000000,0.000000,0.000000,0.000000,0.000000,0.000000,0.000000,0.000000,0.000000,0.000000,1773822647.940652,0.000000
112.000000,866.018339,5900.681722,-6188.035749,-207.178319,-8283.467088,14152.185816,-6927.431456,-15327.261725,10875.308320,14778.682861,-5397.342789,17941.722923,17465.317841,14103.235495,3921.054771,1949.362689,0.283000,-0.220000,0.951000,192.000000,4.000000,104.000000,124.500000,16.000000,14.500000,80.000000,0.000000,0.000000,0.000000,1773822647.940664,0.000000
114.000000,851.087374,5881.906257,-6212.130929,-232.189921,-8311.227955,14124.760225,-6954.521770,-15348.339420,10856.488151,14740.908413,-5437.330060,17902.473259,17420.279076,14067.763277,3916.115036,1943.528884,0.283000,-0.220000,0.951000,192.000000,0.000000,0.000000,0.000000,0.000000,0.000000,0.000000,0.000000,0.000000,0.000000,1773822647.940679,0.000000
116.000000,887.252496,5920.999458,-6172.858914,-197.432959,-8273.811135,14166.580339,-6913.439264,-15309.067405,10870.748564,14761.695535,-5410.798539,17923.841527,17445.335382,14087.321053,3913.991620,1940.757268,0.283000,-0.220000,0.951000,192.000000,0.000000,0.000000,0.000000,0.000000,0.000000,0.000000,0.000000,0.000000,0.000000,1773822647.940691,0.000000
118.000000,851.534409,5878.240571,-6212.756778,-239.364831,-8306.377626,14125.877813,-6954.432363,-15346.752447,10868.803962,14760.399134,-5411.491443,17927.261344,17447.659963,14083.565960,3912.650515,1951.195532,0.283000,-0.220000,0.951000,192.000000,0.000000,0.000000,0.000000,0.000000,0.000000,0.000000,0.000000,0.000000,0.000000,1773822647.940703,0.000000
120.000000,871.650979,5899.362969,-6190.427386,-214.710857,-8284.294103,14150.554138,-6930.895976,-15323.976019,10856.063468,14739.723771,-5437.732391,17904.395509,17419.049730,14069.484361,3908.023704,1942.746573,0.283000,-0.220000,0.951000,192.000000,0.000000,0.000000,0.000000,0.000000,0.000000,0.000000,0.000000,0.000000,0.000000,1773822647.940715,0.000000
122.000000,874.109670,5905.107368,-6188.415729,-212.162758,-8286.238704,14159.204264,-6929.688982,-15322.120824,10870.748564,14770.390364,-5397.990989,17941.275888,17464.870806,14114.053740,3913.321067,1949.787372,0.282500,-0.221000,0.948500,192.000000,4.000000,104.000000,124.500000,8.000000,14.500000,72.000000,0.000000,0.000000,0.000000,1773822647.940727,0.000000
124.000000,846.169990,5880.252228,-6215.729560,-237.688451,-8309.328056,14125.900164,-6960.847314,-15352.832121,10856.599910,14738.539128,-5437.978260,17900.908637,17422.335437,14082.113097,3910.974134,1945.786410,0.282500,-0.221000,0.948500,192.000000,0.000000,0.000000,0.000000,0.000000,0.000000,0.000000,0.000000,0.000000,0.000000,1773822647.940738,0.000000
126.000000,882.201002,5916.909089,-6175.004682,-194.706046,-8266.479762,14167.027374,-6917.395522,-15314.722397,10860.891445,14755.235881,-5418.576946,17922.500422,17443.748408,14084.392975,3916.383256,1950.212055,0.282500,-0.221000,0.948500,192.000000,0.000000,0.000000,0.000000,0.000000,0.000000,0.000000,0.000000,0.000000,0.000000,1773822647.940750,0.000000
128.000000,850.103897,5884.923742,-6215.573098,-231.072334,-8303.673065,14128.425911,-6962.031956,-15354.307336,10863.998337,14759.750934,-5416.475882,17924.243858,17452.778513,14116.400673,3917.411437,1956.157619,0.282500,-0.221000,0.948500,192.000000,0.000000,0.000000,0.000000,0.000000,0.000000,0.000000,0.000000,0.000000,0.000000,1773822647.940762,0.000000
130.000000,875.674293,5912.528147,-6191.723787,-205.680752,-8278.482649,14155.203301,-6939.434342,-15332.067350,10854.342384,14738.337962,-5443.275624,17898.248780,17420.167317,14078.626225,3909.901251,1950.726146,0.282500,-0.221000,0.948500,192.000000,0.000000,0.000000,0.000000,0.000000,0.000000,0.000000,0.000000,0.000000,0.000000,1773822647.940774,0.000000
132.000000,878.289447,5917.199661,-6190.941476,-204.920793,-8280.024920,14150.710601,-6936.953299,-15326.255897,10870.189770,14774.458381,-5402.550745,17936.358504,17466.278966,14103.995455,3917.433788,1954.101259,0.281250,-0.221500,0.949250,192.000000,4.000000,96.000000,124.500000,8.000000,14.500000,88.000000,0.000000,0.000000,0.000000,1773822647.940786,0.000000
134.000000,862.665577,5902.894545,-6216.064837,-228.010145,-8304.097748,14123.396769,-6962.344880,-15346.193653,10853.671831,14745.557576,-5438.894682,17903.680253,17424.347094,14070.981928,3915.019800,1949.563855,0.281250,-0.221500,0.949250,192.000000,0.000000,0.000000,0.000000,0.000000,0.000000,0.000000,0.000000,0.000000,0.000000,1773822647.940811,0.000000
136.000000,897.802520,5937.673859,-6173.283598,-190.258049,-8260.422440,14177.331528,-6919.563641,-15305.178202,10870.010957,14773.407849,-5412.743141,17928.893021,17451.973850,14097.267580,3914.885690,1952.670747,0.281250,-0.221500,0.949250,192.000000,0.000000,0.000000,0.000000,0.000000,0.000000,0.000000,0.000000,0.000000,0.000000,1773822647.940823,0.000000
138.000000,866.599484,5904.280353,-6209.471072,-225.551453,-8300.275600,14141.456978,-6959.841485,-15337.320010,10874.414250,14777.654681,-5407.378722,17932.156376,17460.422809,14107.124699,3917.746713,1955.442364,0.281250,-0.221500,0.949250,192.000000,0.000000,0.000000,0.000000,0.000000,0.000000,0.000000,0.000000,0.000000,0.000000,1773822647.940835,0.000000
140.000000,876.747176,5917.870214,-6188.773357,-205.501939,-8280.181382,14154.175121,-6939.344935,-15323.908964,10863.618358,14749.312669,-5434.558443,17908.061195,17429.130367,14081.397841,3916.137387,1947.485143,0.281250,-0.221500,0.949250,192.000000,0.000000,0.000000,0.000000,0.000000,0.000000,0.000000,0.000000,0.000000,0.000000,1773822647.940847,0.000000
142.000000,878.959999,5912.081112,-6187.096976,-207.737113,-8272.671196,14152.297575,-6939.635508,-15325.160661,10871.352061,14774.212512,-5402.640152,17937.409036,17464.937862,14109.002246,3924.988678,1954.481239,0.279625,-0.219750,0.954625,192.000000,4.000000,88.000000,124.500000,24.000000,15.000000,0.000000,0.000000,0.000000,0.000000,1773822647.940859,0.000000
144.000000,859.223409,5894.624399,-6213.226165,-231.944052,-8301.303780,14125.073150,-6966.010566,-15346.327763,10862.523122,14743.903547,-5436.056010,17899.075794,17424.615315,14079.520295,3918.014934,1944.579416,0.279625,-0.219750,0.954625,192.000000,0.000000,0.000000,0.000000,0.000000,0.000000,0.000000,0.000000,0.000000,0.000000,1773822647.940871,0.000000
146.000000,897.757816,5939.797275,-6171.473106,-190.302752,-8263.395222,14169.150790,-6920.390656,-15306.206382,10873.050794,14765.249463,-5412.363161,17918.432405,17447.391742,14119.842842,3919.311335,1945.942872,0.279625,-0.219750,0.954625,192.000000,0.000000,0.000000,0.000000,0.000000,0.000000,0.000000,0.000000,0.000000,0.000000,1773822647.940888,0.000000
148.000000,857.971711,5891.785728,-6212.935592,-228.971270,-8306.198812,14117.540612,-6966.055270,-15347.601813,10870.323881,14771.262082,-5412.609030,17920.511117,17454.276079,14093.914818,3919.512501,1948.200398,0.279625,-0.219750,0.954625,192.000000,0.000000,0.000000,0.000000,0.000000,0.000000,0.000000,0.000000,0.000000,0.000000,1773822647.940905,0.000000
150.000000,875.160202,5909.510661,-6191.656732,-204.317296,-8283.020053,14146.687287,-6943.323546,-15328.826347,10859.550340,14746.496349,-5441.643946,17892.660843,17422.514251,14084.884713,3909.968306,1941.137247,0.279625,-0.219750,0.954625,192.000000,0.000000,0.000000,0.000000,0.000000,0.000000,0.000000,0.000000,0.000000,0.000000,1773822647.940921,0.000000
152.000000,877.551839,5915.702095,-6188.862764,-201.165700,-8278.370890,14156.231482,-6940.216653,-15327.529946,10873.363718,14780.135725,-5402.506042,17931.418768,17459.081705,14111.080958,3917.053809,1950.167352,0.281813,-0.217875,0.956313,192.000000,4.000000,112.000000,124.500000,32.000000,14.500000,120.000000,0.000000,0.000000,0.000000,1773822647.940938,0.000000
154.000000,856.563551,5890.489327,-6216.243650,-220.254090,-8307.249344,14130.079941,-6968.022223,-15351.513368,10859.170360,14750.720829,-5440.235786,17899.098146,17422.782472,14072.054812,3914.259841,1947.216922,0.281813,-0.217875,0.956313,192.000000,0.000000,0.000000,0.000000,0.000000,0.000000,0.000000,0.000000,0.000000,0.000000,1773822647.940954,0.000000
156.000000,891.432272,5931.370667,-6176.681063,-182.367883,-8268.312605,14170.201322,-6925.442150,-15314.141251,10867.351099,14767.752858,-5419.225147,17916.599562,17444.687181,14088.975083,3914.081027,1947.462791,0.281813,-0.217875,0.956313,192.000000,0.000000,0.000000,0.000000,0.000000,0.000000,0.000000,0.000000,0.000000,0.000000,1773822647.940970,0.000000
158.000000,863.894923,5900.882888,-6211.661543,-214.621450,-8305.528260,14135.533766,-6961.182590,-15345.299583,10870.748564,14775.665376,-5414.240708,17922.567478,17451.750332,14096.619379,3915.064504,1954.995329,0.281813,-0.217875,0.956313,192.000000,0.000000,0.000000,0.000000,0.000000,0.000000,0.000000,0.000000,0.000000,0.000000,1773822647.940987,0.000000
160.000000,884.279714,5918.563118,-6186.515830,-193.141424,-8278.505001,14159.673650,-6936.573319,-15320.243278,10865.317090,14760.265024,-5437.397115,17903.456736,17420.971980,14086.739908,3913.343419,1947.686308,0.281813,-0.217875,0.956313,192.000000,0.000000,0.000000,0.000000,0.000000,0.000000,0.000000,0.000000,0.000000,0.000000,1773822647.941003,0.000000
162.000000,888.571249,5924.620441,-6182.917199,-193.811976,-8281.991873,14158.287842,-6931.633584,-15317.695179,10885.388957,14794.731414,-5394.526469,17941.767626,17468.312975,14112.913801,3921.904137,1954.190666,0.279906,-0.217938,0.955156,192.000000,4.000000,88.000000,124.500000,24.000000,14.500000,104.000000,0.000000,0.000000,0.000000,1773822647.941019,0.000000
164.000000,862.799688,5899.362969,-6211.415674,-224.970308,-8314.156033,14127.017752,-6962.858971,-15347.937089,10862.925454,14759.572120,-5435.251347,17904.619027,17425.867012,14076.636920,3916.651477,1948.312157,0.279906,-0.217938,0.955156,192.000000,0.000000,0.000000,0.000000,0.000000,0.000000,0.000000,0.000000,0.000000,0.000000,1773822647.941035,0.000000
166.000000,898.629534,5935.438685,-6170.221409,-186.614714,-8265.228065,14177.465639,-6919.720104,-15308.441557,10870.972082,14776.626501,-5414.732446,17925.428501,17447.414094,14108.219934,3914.237489,1946.144038,0.279906,-0.217938,0.955156,192.000000,0.000000,0.000000,0.000000,0.000000,0.000000,0.000000,0.000000,0.000000,0.000000,1773822647.941051,0.000000
168.000000,861.279769,5894.646751,-6211.102749,-226.512578,-8305.505908,14138.663010,-6964.244779,-15349.904042,10871.843800,14779.711041,-5411.804368,17928.155414,17451.035077,14115.551307,3915.064504,1955.330605,0.279906,-0.217938,0.955156,192.000000,0.000000,0.000000,0.000000,0.000000,0.000000,0.000000,0.000000,0.000000,0.000000,1773822647.941069,0.000000
170.000000,880.077586,5910.784711,-6186.024092,-205.367828,-8285.903428,14161.417086,-6941.401296,-15327.954629,10859.975023,14755.213529,-5439.252310,17898.673463,17422.290733,14089.422117,3909.811844,1950.480276,0.279906,-0.217938,0.955156,192.000000,0.000000,0.000000,0.000000,0.000000,0.000000,0.000000,0.000000,0.000000,0.000000,1773822647.941084,0.000000
172.000000,878.669426,5918.808987,-6186.292313,-205.881918,-8284.897600,14154.420990,-6940.283709,-15332.357923,10874.503657,14785.880123,-5403.489519,17931.217603,17461.249824,14111.148013,3918.238451,1956.694061,0.279906,-0.217938,0.955156,192.000000,0.000000,0.000000,0.000000,0.000000,0.000000,0.000000,0.000000,0.000000,0.000000,1773822647.941101,0.000000
174.000000,854.350728,5896.524298,-6211.549784,-230.424134,-8312.479652,14125.855461,-6968.715128,-15358.777685,10858.969195,14754.006535,-5443.767362,17893.800782,17417.038073,14070.266672,3909.387160,1952.290768,0.286000,-0.220000,0.956000,192.000000,4.000000,120.000000,124.500000,16.000000,14.500000,112.000000,0.000000,0.000000,0.000000,1773822647.941117,0.000000
176.000000,888.571249,5926.654449,-6173.305949,-190.570973,-8266.882094,14173.017642,-6927.520863,-15320.287981,10867.284044,14771.843227,-5419.962754,17919.952323,17442.116730,14093.870115,3912.136425,1945.205265,0.286000,-0.220000,0.956000,192.000000,0.000000,0.000000,0.000000,0.000000,0.000000,0.000000,0.000000,0.000000,0.000000,1773822647.941134,0.000000
178.000000,855.155391,5893.506812,-6212.846185,-229.127732,-8301.907277,14130.348162,-6969.653901,-15357.905967,10862.187846,14774.883065,-5420.610955,17919.415882,17447.324687,14097.826373,3914.416303,1954.637701,0.286000,-0.220000,0.956000,192.000000,0.000000,0.000000,0.000000,0.000000,0.000000,0.000000,0.000000,0.000000,0.000000,1773822647.941156,0.000000
180.000000,873.394415,5910.784711,-6189.779185,-209.547604,-8286.328111,14154.666859,-6945.737534,-15334.995429,10856.666965,14756.107599,-5443.610900,17894.069003,17418.937971,14087.946902,3908.358980,1947.038108,0.286000,-0.220000,0.956000,192.000000,0.000000,0.000000,0.000000,0.000000,0.000000,0.000000,0.000000,0.000000,0.000000,1773822647.941171,0.000000
182.000000,875.584886,5913.377513,-6188.259266,-208.809997,-8282.304797,14149.704772,-6943.412953,-15330.860356,10869.921550,14784.024928,-5407.713998,17927.216640,17458.791132,14097.111117,3919.937184,1954.369480,0.286000,-0.220000,0.956000,192.000000,0.000000,0.000000,0.000000,0.000000,0.000000,0.000000,0.000000,0.000000,0.000000,1773822647.941188,0.000000
184.000000,861.369176,5902.179289,-6213.136758,-232.905177,-8310.870327,14127.822414,-6970.458564,-15349.591118,10859.505637,14755.705268,-5440.816932,17896.885323,17422.402492,14068.970271,3912.002315,1948.848599,0.282000,-0.222000,0.954000,192.000000,4.000000,104.000000,124.500000,8.000000,14.500000,104.000000,0.000000,0.000000,0.000000,1773822647.941206,0.000000
186.000000,899.747121,5932.018868,-6169.975539,-199.846947,-8266.882094,14174.269339,-6928.929022,-15309.492088,10873.117849,14772.737297,-5413.637211,17916.063120,17452.845568,14101.045025,3920.250108,1951.128477,0.282000,-0.222000,0.954000,192.000000,0.000000,0.000000,0.000000,0.000000,0.000000,0.000000,0.000000,0.000000,0.000000,1773822647.941220,0.000000
188.000000,867.068871,5899.608839,-6206.855918,-236.682622,-8305.617667,14129.744664,-6968.268093,-15341.119807,10875.800058,14776.827666,-5408.071626,17919.505289,17452.175015,14116.512432,3921.211233,1957.185800,0.282000,-0.222000,0.954000,192.000000,0.000000,0.000000,0.000000,0.000000,0.000000,0.000000,0.000000,0.000000,0.000000,1773822647.941238,0.000000
190.000000,887.811290,5920.463016,-6185.778223,-215.671982,-8282.640074,14156.298537,-6946.653956,-15317.158737,10867.216988,14754.006535,-5432.144455,17900.260437,17420.971980,14089.198600,3910.884727,1949.317986,0.282000,-0.222000,0.954000,192.000000,0.000000,0.000000,0.000000,0.000000,0.000000,0.000000,0.000000,0.000000,0.000000,1773822647.941254,0.000000
192.000000,896.126139,5926.408580,-6182.760737,-211.246337,-8276.046309,14162.042935,-6944.172912,-15314.275362,10884.383128,14790.238713,-5391.598391,17939.934783,17471.330460,14116.132452,3918.372562,1954.704756,0.282000,-0.222000,0.954000,192.000000,0.000000,0.000000,0.000000,0.000000,0.000000,0.000000,0.000000,0.000000,0.000000,1773822647.941269,0.000000
194.000000,870.242819,5900.659371,-6212.868537,-236.414401,-8304.433024,14131.935135,-6976.180610,-15344.606679,10868.423983,14763.774248,-5433.999650,17904.440213,17435.679428,14094.942998,3912.695219,1956.247026,0.280000,-0.226000,0.954000,192.000000,4.000000,96.000000,124.000000,120.000000,14.500000,104.000000,0.000000,0.000000,0.000000,1773822648.422055,0.000000
196.000000,905.513871,5944.692307,-6172.277769,-195.220136,-8262.657614,14173.554084,-6932.058267,-15306.854583,10874.570712,14783.846114,-5411.938478,17924.243858,17448.419922,14093.892466,3916.673829,1959.353919,0.280000,-0.226000,0.954000,192.000000,0.000000,0.000000,0.000000,0.000000,0.000000,0.000000,0.000000,0.000000,0.000000,1773822648.422117,0.000000
198.000000,868.924066,5904.235650,-6216.109540,-231.564073,-8309.059836,14137.567775,-6974.325415,-15347.311240,10871.732041,14781.298015,-5412.363161,17926.009646,17452.175015,14106.297684,3915.958573,1962.170239,0.280000,-0.226000,0.954000,192.000000,0.000000,0.000000,0.000000,0.000000,0.000000,0.000000,0.000000,0.000000,0.000000,1773822648.422152,0.000000
200.000000,886.872516,5918.518414,-6193.176650,-207.960630,-8286.573981,14155.516226,-6949.649090,-15325.004199,10857.203407,14755.615861,-5441.062801,17899.411070,17422.782472,14086.225818,3905.676771,1954.056556,0.280000,-0.226000,0.954000,192.000000,0.000000,0.000000,0.000000,0.000000,0.000000,0.000000,0.000000,0.000000,0.000000,1773822648.422203,0.000000
202.000000,890.091168,5920.239499,-6189.555668,-207.781816,-8288.451527,14150.040048,-6943.658822,-15321.584382,10873.050794,14788.428222,-5400.293219,17935.330324,17456.578309,14119.060531,3912.851681,1957.521076,0.280000,-0.226000,0.954000,192.000000,0.000000,0.000000,0.000000,0.000000,0.000000,0.000000,0.000000,0.000000,0.000000,1773822648.422256,0.000000
204.000000,856.027109,5887.337731,-6221.541014,-236.324994,-8316.882946,14116.601839,-6974.951264,-15353.077990,10855.124695,14748.977393,-5440.146379,17902.316797,17406.644512,14081.040213,3905.207384,1949.228579,0.280000,-0.224000,0.954000,192.000000,4.000000,96.000000,124.500000,0.000000,14.500000,104.000000,0.000000,0.000000,0.000000,1773822648.422315,0.000000
206.000000,898.584831,5928.822569,-6180.436156,-196.024799,-8277.320358,14159.785409,-6929.420761,-15309.380330,10861.025555,14759.750934,-5422.153225,17913.135041,17425.352922,14098.966312,3905.140329,1948.401564,0.280000,-0.224000,0.954000,192.000000,0.000000,0.000000,0.000000,0.000000,0.000000,0.000000,0.000000,0.000000,0.000000,1773822648.422367,0.000000
208.000000,864.900752,5898.826527,-6218.076494,-233.329860,-8319.073417,14115.461900,-6970.257398,-15345.836025,10860.779686,14767.819913,-5416.162958,17920.712283,17434.025399,14123.240307,3905.274439,1952.447230,0.280000,-0.224000,0.954000,192.000000,0.000000,0.000000,0.000000,0.000000,0.000000,0.000000,0.000000,0.000000,0.000000,1773822648.422385,0.000000
210.000000,886.693703,5919.881871,-6194.361293,-211.268689,-8292.363082,14146.083790,-6947.838598,-15325.093606,10855.392916,14742.271869,-5443.655603,17893.845486,17406.510402,14084.795306,3900.804091,1945.115858,0.280000,-0.224000,0.954000,192.000000,0.000000,0.000000,0.000000,0.000000,0.000000,0.000000,0.000000,0.000000,0.000000,1773822648.422409,0.000000
212.000000,889.241801,5923.547557,-6190.695607,-207.111264,-8285.322283,14156.298537,-6942.876511,-15321.584382,10875.844762,14782.035623,-5401.053178,17933.341018,17450.811559,14126.011923,3911.890556,1950.815553,0.280000,-0.224000,0.954000,192.000000,0.000000,0.000000,0.000000,0.000000,0.000000,0.000000,0.000000,0.000000,0.000000,1773822648.422425,0.000000
214.000000,863.090260,5897.910106,-6221.473959,-231.876997,-8322.381475,14124.559060,-6974.414822,-15347.646516,10855.795247,14748.664468,-5439.676993,17902.137983,17410.511364,14099.994493,3906.123806,1951.530808,0.274000,-0.226000,0.950000,192.000000,4.000000,72.000000,124.000000,120.000000,14.500000,88.000000,0.000000,0.000000,0.000000,1773822648.422440,0.000000
216.000000,898.629534,5931.817702,-6178.558609,-192.850851,-8278.147373,14167.630871,-6927.386752,-15307.167507,10864.691241,14762.164922,-5417.772283,17922.031036,17432.170204,14100.195658,3904.112149,1948.669785,0.274000,-0.226000,0.950000,192.000000,0.000000,0.000000,0.000000,0.000000,0.000000,0.000000,0.000000,0.000000,0.000000,1773822648.422456,0.000000
218.000000,861.995025,5893.417405,-6215.260174,-232.793419,-8314.357199,14120.513394,-6967.195209,-15344.070237,10862.679584,14769.116315,-5413.391341,17925.540260,17438.316934,14122.815624,3908.783663,1950.815553,0.274000,-0.226000,0.950000,192.000000,0.000000,0.000000,0.000000,0.000000,0.000000,0.000000,0.000000,0.000000,0.000000,1773822648.422471,0.000000
220.000000,875.003740,5907.744873,-6197.646999,-216.901328,-8293.324207,14135.422007,-6952.733630,-15329.474548,10849.648517,14739.612012,-5443.208568,17889.710413,17405.191649,14078.693280,3903.531003,1942.545407,0.274000,-0.226000,0.950000,192.000000,0.000000,0.000000,0.000000,0.000000,0.000000,0.000000,0.000000,0.000000,0.000000,1773822648.422486,0.000000
222.000000,885.732578,5918.026676,-6191.969656,-212.363924,-8287.088071,14144.295650,-6948.129171,-15324.087778,10868.222817,14770.904454,-5404.271830,17925.450853,17448.397571,14117.562964,3907.576669,1950.234407,0.274000,-0.226000,0.950000,192.000000,0.000000,0.000000,0.000000,0.000000,0.000000,0.000000,0.000000,0.000000,0.000000,1773822648.422502,0.000000
224.000000,860.676272,5893.305647,-6220.669296,-239.856570,-8319.475748,14129.699961,-6978.996930,-15352.116865,10861.740811,14749.312669,-5438.469999,17894.605445,17416.099300,14114.813699,3904.201556,1950.100297,0.272000,-0.224000,0.954000,192.000000,4.000000,64.000000,124.500000,0.000000,14.500000,104.000000,0.000000,0.000000,0.000000,1773822648.422518,0.000000
226.000000,888.526546,5925.112179,-6180.167935,-194.437825,-8276.828620,14169.307252,-6932.214729,-15314.185955,10856.666965,14759.058030,-5423.248461,17909.491707,17435.500614,14107.527030,3902.569878,1942.053669,0.272000,-0.224000,0.954000,192.000000,0.000000,0.000000,0.000000,0.000000,0.000000,0.000000,0.000000,0.000000,0.000000,1773822648.422534,0.000000
228.000000,855.423612,5891.472804,-6218.232956,-232.234625,-8320.258060,14123.329714,-6974.638340,-15351.781589,10857.158703,14759.326250,-5418.040504,17914.453794,17438.138120,14111.393882,3905.967344,1951.262587,0.272000,-0.224000,0.954000,192.000000,0.000000,0.000000,0.000000,0.000000,0.000000,0.000000,0.000000,0.000000,0.000000,1773822648.422550,0.000000
230.000000,866.353615,5905.129719,-6198.585772,-215.023782,-8296.229934,14140.071170,-6956.332261,-15336.224775,10841.467779,14731.095997,-5448.349470,17884.770678,17403.135288,14089.824449,3903.285134,1938.633852,0.272000,-0.224000,0.954000,192.000000,0.000000,0.000000,0.000000,0.000000,0.000000,0.000000,0.000000,0.000000,0.000000,1773822648.422567,0.000000
232.000000,871.338054,5901.665199,-6194.160127,-209.279383,-8296.431100,14143.133359,-6950.990194,-15330.078045,10850.743753,14766.881140,-5411.670257,17922.522774,17442.340248,14136.070208,3909.253050,1945.384079,0.272000,-0.224000,0.954000,192.000000,0.000000,0.000000,0.000000,0.000000,0.000000,0.000000,0.000000,0.000000,0.000000,1773822648.422584,0.000000
234.000000,834.904711,5871.512696,-6227.061895,-240.571826,-8326.896528,14109.829260,-6983.511982,-15362.510426,10831.856529,14728.234974,-5452.976281,17887.609349,17399.916637,14078.112135,3901.653457,1943.752401,0.270000,-0.222000,0.952000,192.000000,4.000000,56.000000,124.500000,8.000000,14.500000,96.000000,0.000000,0.000000,0.000000,1773822648.422599,0.000000
236.000000,884.838508,5917.199661,-6183.118365,-201.322162,-8278.840277,14154.331583,-6937.690906,-15317.046978,10834.538738,14751.078457,-5433.865539,17906.541277,17416.702797,14112.287952,3905.766178,1940.131419,0.270000,-0.222000,0.952000,192.000000,0.000000,0.000000,0.000000,0.000000,0.000000,0.000000,0.000000,0.000000,0.000000,1773822648.422615,0.000000
238.000000,843.845408,5881.191001,-6224.223223,-233.218102,-8323.856690,14114.657237,-6979.376910,-15354.195577,10844.149988,14758.163960,-5424.857786,17910.005797,17431.656114,14101.089728,3901.809919,1944.065326,0.270000,-0.222000,0.952000,192.000000,0.000000,0.000000,0.000000,0.000000,0.000000,0.000000,0.000000,0.000000,0.000000,1773822648.422631,0.000000
240.000000,867.135926,5899.050045,-6201.536203,-215.381410,-8301.214373,14137.098388,-6958.925063,-15333.922545,10828.459064,14738.516776,-5454.809124,17885.910617,17392.853486,14081.464896,3895.707893,1940.109067,0.270000,-0.222000,0.952000,192.000000,0.000000,0.000000,0.000000,0.000000,0.000000,0.000000,0.000000,0.000000,0.000000,1773822648.422647,0.000000
242.000000,860.005720,5895.272600,-6198.764586,-211.760427,-8292.273675,14135.869042,-6954.611177,-15332.179109,10849.693221,14766.367050,-5411.938478,17924.981466,17441.267364,14119.664028,3900.290000,1945.294672,0.270000,-0.222000,0.952000,192.000000,0.000000,0.000000,0.000000,0.000000,0.000000,0.000000,0.000000,0.000000,0.000000,1773822648.422674,0.000000
244.000000,832.580129,5865.857704,-6227.955965,-240.616529,-8322.873214,14108.488155,-6986.931799,-15363.359793,10821.328857,14732.437102,-5456.485505,17886.469410,17395.736861,14081.978986,3897.540736,1944.020622,0.272000,-0.220000,0.953000,192.000000,4.000000,72.000000,124.500000,24.000000,14.500000,104.000000,0.000000,0.000000,0.000000,1773822648.422694,0.000000
246.000000,872.075662,5903.721559,-6182.157240,-196.471834,-8277.722690,14154.622156,-6939.479046,-15318.455138,10833.532910,14754.654736,-5432.904414,17905.669559,17419.161489,14105.403615,3900.915849,1942.232483,0.272000,-0.220000,0.953000,192.000000,0.000000,0.000000,0.000000,0.000000,0.000000,0.000000,0.000000,0.000000,0.000000,1773822648.422712,0.000000
248.000000,832.714240,5866.058870,-6220.579889,-231.340555,-8314.603068,14116.624190,-6978.616950,-15354.597909,10835.410456,14756.532282,-5426.645926,17909.469355,17425.799957,14114.344312,3903.508652,1947.395736,0.272000,-0.220000,0.953000,192.000000,0.000000,0.000000,0.000000,0.000000,0.000000,0.000000,0.000000,0.000000,0.000000,1773822648.422727,0.000000
250.000000,851.288539,5884.767280,-6197.356426,-210.955764,-8296.721673,14136.763112,-6956.064040,-15331.285039,10820.881822,14733.599393,-5453.915054,17884.211884,17396.452117,14098.586333,3898.434806,1935.370497,0.272000,-0.220000,0.953000,192.000000,0.000000,0.000000,0.000000,0.000000,0.000000,0.000000,0.000000,0.000000,0.000000,1773822648.422742,0.000000
252.000000,849.276882,5888.701187,-6191.008531,-198.997581,-8291.334902,14144.988554,-6946.966880,-15323.551336,10831.275383,14771.195027,-5412.273754,17925.517908,17438.428693,14121.742740,3905.185033,1941.137247,0.272000,-0.220000,0.953000,192.000000,0.000000,0.000000,0.000000,0.000000,0.000000,0.000000,0.000000,0.000000,0.000000,1773822648.422758,0.000000
254.000000,829.026202,5868.159934,-6217.741217,-228.211311,-8315.877118,14116.445376,-6978.013453,-15349.747580,10825.262764,14746.429294,-5446.628385,17896.617102,17406.689216,14085.130582,3900.737035,1937.158637,0.276000,-0.219000,0.952500,192.000000,4.000000,96.000000,124.500000,24.000000,14.500000,96.000000,0.000000,0.000000,0.000000,1773822648.422775,0.000000
0.000000,855.088336,5896.904277,-6177.128098,-189.945124,-8271.665367,14164.926310,-6935.209863,-15311.369635,10829.822520,14756.532282,-5429.708115,17912.799765,17426.738730,14101.872039,3904.648591,1939.483218,0.276000,-0.219000,0.952500,192.000000,0.000000,0.000000,0.000000,0.000000,0.000000,0.000000,0.000000,0.000000,0.000000,1773822648.422788,0.000000
2.000000,822.074809,5862.571998,-6215.573098,-229.507712,-8304.790652,14137.232499,-6976.091203,-15350.328726,10833.868186,14767.238768,-5424.053123,17918.767681,17440.261536,14140.451150,3907.643724,1950.502628,0.276000,-0.219000,0.952500,192.000000,0.000000,0.000000,0.000000,0.000000,0.000000,0.000000,0.000000,0.000000,0.000000,1773822648.422807,0.000000
4.000000,823.684135,5867.131754,-6197.937572,-209.838177,-8276.962731,14150.598842,-6960.489686,-15339.376371,10816.120901,14735.164015,-5458.407755,17884.860085,17405.728090,14085.868190,3909.208347,1948.312157,0.276000,-0.219000,0.952500,192.000000,0.000000,0.000000,0.000000,0.000000,0.000000,0.000000,0.000000,0.000000,0.000000,1773822648.422824,0.000000
6.000000,840.313833,5883.850859,-6186.471127,-199.355209,-8267.686757,14168.726107,-6951.392526,-15329.005161,10837.511520,14769.473942,-5417.772283,17917.493632,17452.756161,14123.597935,3920.026591,1952.782506,0.276000,-0.219000,0.952500,192.000000,0.000000,0.000000,0.000000,0.000000,0.000000,0.000000,0.000000,0.000000,0.000000,1773822648.422837,0.000000
8.000000,804.171062,5844.735306,-6222.435084,-229.597119,-8304.365969,14142.529862,-6987.423538,-15365.818485,10822.267630,14742.920070,-5452.730412,17887.654053,17410.690178,14092.551362,3914.639820,1954.861218,0.279000,-0.219500,0.951250,192.000000,4.000000,104.000000,124.500000,16.000000,14.500000,88.000000,0.000000,0.000000,0.000000,1773822648.422854,0.000000
10.000000,830.680231,5881.570981,-6182.112537,-192.649685,-8262.612911,14180.684290,-6942.183607,-15327.865222,10820.144215,14752.441913,-5441.196911,17901.467431,17433.600716,14116.512432,3915.109207,1954.414183,0.279000,-0.219500,0.951250,192.000000,0.000000,0.000000,0.000000,0.000000,0.000000,0.000000,0.000000,0.000000,0.000000,1773822648.422871,0.000000
12.000000,808.216728,5852.424306,-6218.478825,-224.813846,-8299.917972,14143.356877,-6980.695663,-15363.985641,10825.799206,14767.082306,-5433.597318,17911.257495,17439.881556,14144.765037,3916.003277,1963.198419,0.279000,-0.219500,0.951250,192.000000,0.000000,0.000000,0.000000,0.000000,0.000000,0.000000,0.000000,0.000000,0.000000,1773822648.422885,0.000000
14.000000,814.050533,5860.537989,-6201.044464,-205.434883,-8280.918989,14160.210092,-6960.824962,-15349.680525,10810.354151,14734.135834,-5464.375670,17882.557855,17406.555105,14077.709803,3909.744788,1954.369480,0.279000,-0.219500,0.951250,192.000000,0.000000,0.000000,0.000000,0.000000,0.000000,0.000000,0.000000,0.000000,0.000000,1773822648.422902,0.000000
16.000000,821.895995,5872.160896,-6195.143604,-200.897479,-8275.688681,14167.519113,-6952.152485,-15340.136330,10820.434787,14766.948195,-5428.434065,17919.281771,17447.056466,14116.914763,3915.645649,1957.208151,0.279000,-0.219500,0.951250,192.000000,0.000000,0.000000,0.000000,0.000000,0.000000,0.000000,0.000000,0.000000,0.000000,1773822648.422919,0.000000
18.000000,800.483024,5847.037536,-6222.904470,-231.675831,-8307.361103,14138.618307,-6984.808384,-15366.578444,10813.058712,14740.528433,-5460.374708,17889.352785,17412.120689,14090.159725,3908.001352,1950.390869,0.280500,-0.221750,0.950625,192.000000,4.000000,104.000000,124.500000,0.000000,14.500000,88.000000,0.000000,0.000000,0.000000,1773822648.422943,0.000000
20.000000,832.557777,5884.096728,-6178.871534,-193.901383,-8263.328166,14179.231427,-6938.450866,-15325.853565,10818.423130,14749.603242,-5440.660470,17901.713300,17434.584193,14122.927382,3911.063541,1943.953567,0.280500,-0.221750,0.950625,192.000000,0.000000,0.000000,0.000000,0.000000,0.000000,0.000000,0.000000,0.000000,0.000000,1773822648.422960,0.000000
22.000000,812.865891,5857.162876,-6214.321400,-227.674869,-8299.850917,14138.953583,-6974.973616,-15353.659136,10826.894441,14760.510893,-5428.970507,17909.044672,17439.993315,14103.816641,3913.790454,1948.580378,0.280500,-0.221750,0.950625,192.000000,0.000000,0.000000,0.000000,0.000000,0.000000,0.000000,0.000000,0.000000,0.000000,1773822648.422978,0.000000
24.000000,824.645260,5868.674024,-6197.401130,-210.508729,-8282.505963,14150.263566,-6954.342956,-15336.269478,10821.015933,14733.197061,-5454.697365,17886.804686,17418.960323,14073.105344,3904.536832,1943.506532,0.280500,-0.221750,0.950625,192.000000,0.000000,0.000000,0.000000,0.000000,0.000000,0.000000,0.000000,0.000000,0.000000,1773822648.423016,0.000000
26.000000,826.545158,5878.128812,-6188.818060,-202.640915,-8279.063795,14164.747496,-6948.218578,-15330.256859,10828.749636,14765.294166,-5417.459359,17917.404225,17461.048658,14117.115929,3911.108245,1951.173180,0.280500,-0.221750,0.950625,192.000000,0.000000,0.000000,0.000000,0.000000,0.000000,0.000000,0.000000,0.000000,0.000000,1773822648.423037,0.000000
28.000000,803.902841,5863.644882,-6216.623630,-232.391087,-8303.069568,14138.215976,-6981.165049,-15359.962327,10819.496014,14748.396247,-5451.277548,17888.704585,17420.502594,14126.883641,3908.426035,1946.188741,0.282250,-0.219875,0.951313,192.000000,4.000000,112.000000,124.500000,24.000000,14.500000,96.000000,0.000000,0.000000,0.000000,1773822648.423059,0.000000
30.000000,833.854179,5887.337731,-6177.664540,-187.240563,-8260.981233,14177.957377,-6937.690906,-15320.980885,10821.641782,14766.367050,-5437.777095,17905.736614,17442.608469,14107.415272,3913.254012,1946.345204,0.282250,-0.219875,0.951313,192.000000,0.000000,0.000000,0.000000,0.000000,0.000000,0.000000,0.000000,0.000000,0.000000,1773822648.423078,0.000000
32.000000,799.700713,5856.782896,-6216.981258,-226.087895,-8291.781937,14139.154749,-6978.572247,-15355.782551,10823.005238,14773.027870,-5431.116275,17915.325512,17444.374257,14117.562964,3914.483358,1957.051689,0.282250,-0.219875,0.951313,192.000000,0.000000,0.000000,0.000000,0.000000,0.000000,0.000000,0.000000,0.000000,0.000000,1773822648.423096,0.000000
34.000000,822.477141,5880.363987,-6200.955057,-207.111264,-8279.957864,14153.012830,-6960.065002,-15337.342362,10812.745787,14753.157169,-5458.228941,17888.168143,17407.583285,14091.500830,3910.482396,1943.975919,0.282250,-0.219875,0.951313,192.000000,0.000000,0.000000,0.000000,0.000000,0.000000,0.000000,0.000000,0.000000,0.000000,1773822648.423113,0.000000
36.000000,827.930966,5876.720652,-6194.808328,-205.524290,-8277.990911,14167.072078,-6954.253549,-15333.117882,10821.127691,14782.080326,-5420.432141,17925.897887,17445.581251,14122.413292,3916.293850,1961.075003,0.282250,-0.219875,0.951313,192.000000,0.000000,0.000000,0.000000,0.000000,0.000000,0.000000,0.000000,0.000000,0.000000,1773822648.423131,0.000000
38.000000,803.455806,5853.787762,-6223.127988,-231.117038,-8311.272658,14139.780598,-6986.417709,-15358.040077,10809.661246,14752.598375,-5452.082211,17892.727899,17415.361692,14097.021711,3910.571803,1957.386965,0.279125,-0.220938,0.951656,192.000000,4.000000,80.000000,124.500000,8.000000,14.500000,96.000000,0.000000,0.000000,0.000000,1773822648.423148,0.000000
40.000000,846.572321,5898.580658,-6179.698548,-190.034531,-8258.857818,14174.515209,-6940.328412,-15314.588286,10820.948877,14768.602224,-5430.780999,17915.549030,17434.807710,14105.627132,3916.584422,1948.938006,0.279125,-0.220938,0.951656,192.000000,0.000000,0.000000,0.000000,0.000000,0.000000,0.000000,0.000000,0.000000,0.000000,1773822648.423165,0.000000
42.000000,812.508263,5865.433021,-6216.087188,-223.808017,-8304.142452,14137.567775,-6977.544067,-15347.646516,10827.833215,14769.786867,-5422.600260,17924.825004,17441.848510,14100.173306,3919.132521,1954.235369,0.279125,-0.220938,0.951656,192.000000,0.000000,0.000000,0.000000,0.000000,0.000000,0.000000,0.000000,0.000000,0.000000,1773822648.423181,0.000000
44.000000,840.716164,5889.975237,-6196.328246,-207.446540,-8281.321321,14157.371421,-6959.461505,-15326.635876,10827.833215,14746.630460,-5447.500103,17900.528657,17416.702797,14088.572751,3910.840024,1944.959396,0.279125,-0.220938,0.951656,192.000000,0.000000,0.000000,0.000000,0.000000,0.000000,0.000000,0.000000,0.000000,0.000000,1773822648.423198,0.000000
46.000000,843.040746,5899.944115,-6187.946342,-197.097683,-8275.331053,14166.490932,-6948.196226,-15317.471661,10842.741828,14787.243579,-5407.803405,17939.085417,17464.267309,14130.974010,3914.773931,1953.229541,0.279125,-0.220938,0.951656,192.000000,0.000000,0.000000,0.000000,0.000000,0.000000,0.000000,0.000000,0.000000,0.000000,1773822648.423216,0.000000
48.000000,810.586013,5867.891713,-6222.412732,-231.988756,-8305.237687,14124.827281,-6984.383700,-15355.648441,10824.055770,14753.023059,-5447.097772,17905.535448,17424.995294,14084.728251,3914.192786,1950.837904,0.279563,-0.225469,0.948828,192.000000,4.000000,96.000000,124.000000,104.000000,14.500000,72.000000,0.000000,0.000000,0.000000,1773822648.423231,0.000000
50.000000,849.098068,5903.118062,-6179.184458,-192.426168,-8262.523504,14165.976842,-6938.562624,-15318.745711,10828.570822,14763.908358,-5435.519568,17915.750195,17438.227527,14097.155821,3911.309410,1942.947739,0.279563,-0.225469,0.948828,192.000000,0.000000,0.000000,0.000000,0.000000,0.000000,0.000000,0.000000,0.000000,0.000000,1773822648.423253,0.000000
52.000000,815.145769,5868.271693,-6217.808273,-229.239491,-8295.782899,14129.431740,-6980.740366,-15358.665926,10829.777817,14770.971509,-5428.814045,17919.639399,17449.850434,14106.364740,3914.438655,1944.512361,0.279563,-0.225469,0.948828,192.000000,0.000000,0.000000,0.000000,0.000000,0.000000,0.000000,0.000000,0.000000,0.000000,1773822648.423267,0.000000
54.000000,829.920272,5880.475745,-6200.955057,-214.554395,-8279.019091,14146.866101,-6963.484819,-15344.293755,10816.679694,14743.881195,-5461.559351,17885.240064,17415.205230,14082.761298,3909.990658,1938.164465,0.279563,-0.225469,0.948828,192.000000,0.000000,0.000000,0.000000,0.000000,0.000000,0.000000,0.000000,0.000000,0.000000,1773822648.423284,0.000000
56.000000,836.849312,5887.762414,-6193.377816,-210.329915,-8275.420460,14149.794179,-6954.655880,-15338.437598,10831.901232,14774.704251,-5422.399094,17927.149585,17453.784341,14122.860327,3912.538756,1947.619253,0.279563,-0.225469,0.948828,192.000000,0.000000,0.000000,0.000000,0.000000,0.000000,0.000000,0.000000,0.000000,0.000000,1773822648.423300,0.000000
58.000000,806.361533,5856.000585,-6229.609994,-241.935282,-8307.517565,14109.784557,-6991.223334,-15373.954520,10810.935296,14735.543994,-5462.922807,17883.697794,17405.102242,14075.251111,3911.287059,1939.684384,0.279563,-0.225469,0.948828,192.000000,0.000000,0.000000,0.000000,0.000000,0.000000,0.000000,0.000000,0.000000,0.000000,1773822648.902904,0.000000
60.000000,839.084487,5887.762414,-6191.209697,-203.311468,-8268.491419,14157.304365,-6947.302156,-15334.973077,10814.310409,14741.020172,-5449.131781,17899.142849,17417.283942,14096.395862,3908.314277,1941.964262,0.278000,-0.224000,0.954000,192.000000,4.000000,88.000000,124.500000,0.000000,14.500000,104.000000,0.000000,0.000000,0.000000,1773822648.902966,0.000000
62.000000,807.479120,5862.326129,-6229.967622,-238.470762,-8306.131757,14121.183946,-6985.098956,-15370.132371,10816.165604,14739.589660,-5444.706135,17907.368291,17428.683332,14123.776749,3906.324971,1946.658128,0.278000,-0.224000,0.954000,192.000000,0.000000,0.000000,0.000000,0.000000,0.000000,0.000000,0.000000,0.000000,0.000000,1773822648.903014,0.000000
64.000000,828.020373,5879.402862,-6208.577002,-216.454293,-8296.140527,14139.311211,-6962.568398,-15346.573633,10807.157851,14716.053273,-5473.361072,17888.145791,17392.272340,14057.727344,3891.729282,1936.868064,0.278000,-0.224000,0.954000,192.000000,0.000000,0.000000,0.000000,0.000000,0.000000,0.000000,0.000000,0.000000,0.000000,1773822648.903057,0.000000
66.000000,836.670498,5889.595257,-6199.278676,-208.765293,-8292.854821,14147.916633,-6952.532465,-15337.834100,10824.167529,14750.877291,-5430.423371,17929.273001,17433.600716,14110.209240,3899.708855,1940.578454,0.278000,-0.224000,0.954000,192.000000,0.000000,0.000000,0.000000,0.000000,0.000000,0.000000,0.000000,0.000000,0.000000,1773822648.903101,0.000000
68.000000,813.357629,5861.320300,-6229.073552,-234.067468,-8324.795464,14110.119833,-6985.747157,-15363.426848,10808.476604,14727.340904,-5465.023871,17899.455774,17396.295654,14063.069411,3894.925582,1940.779619,0.278000,-0.224000,0.954000,192.000000,0.000000,0.000000,0.000000,0.000000,0.000000,0.000000,0.000000,0.000000,0.000000,1773822648.903144,0.000000
70.000000,851.109725,5899.161804,-6184.928856,-195.667171,-8278.795574,14145.524996,-6940.462523,-15321.047940,10822.558203,14746.943384,-5442.448609,17919.013550,17420.055559,14081.263731,3897.786605,1934.007041,0.282000,-0.220000,0.950000,192.000000,4.000000,104.000000,124.500000,16.000000,14.500000,88.000000,0.000000,0.000000,0.000000,1773822648.903188,0.000000
72.000000,823.080638,5869.992777,-6220.155206,-232.234625,-8312.636115,14107.951714,-6978.639302,-15356.386048,10822.289982,14751.234919,-5434.759609,17920.198193,17425.911716,14087.902199,3904.648591,1941.204302,0.282000,-0.220000,0.950000,192.000000,0.000000,0.000000,0.000000,0.000000,0.000000,0.000000,0.000000,0.000000,0.000000,1773822648.903203,0.000000
74.000000,829.763809,5875.401899,-6202.474976,-218.287136,-8300.543821,14125.475481,-6960.579093,-15340.583365,10812.879898,14727.497366,-5463.705118,17890.559779,17391.691195,14061.169512,3893.740939,1930.877797,0.282000,-0.220000,0.950000,192.000000,0.000000,0.000000,0.000000,0.000000,0.000000,0.000000,0.000000,0.000000,0.000000,1773822648.903220,0.000000
76.000000,837.631623,5887.136565,-6198.138737,-208.541776,-8303.293085,14136.651353,-6951.884264,-15330.994467,10822.714665,14756.644041,-5425.170711,17926.724902,17427.208117,14098.116946,3899.708855,1937.404506,0.282000,-0.220000,0.950000,192.000000,0.000000,0.000000,0.000000,0.000000,0.000000,0.000000,0.000000,0.000000,0.000000,1773822648.903235,0.000000
78.000000,812.955298,5865.768297,-6230.973450,-235.453276,-8344.867330,14101.067376,-6985.948323,-15358.576519,10809.191860,14730.268983,-5459.055955,17901.132155,17389.701890,14075.876960,3890.589343,1936.242215,0.282000,-0.220000,0.950000,192.000000,0.000000,0.000000,0.000000,0.000000,0.000000,0.000000,0.000000,0.000000,0.000000,1773822648.903253,0.000000
80.000000,851.243836,5906.180251,-6190.829717,-194.974267,-8302.622533,14139.512377,-6942.921214,-15318.186917,10817.886688,14748.239785,-5442.314499,17919.862916,17402.576495,14095.300626,3889.874088,1932.151846,0.284000,-0.224000,0.948000,192.000000,4.000000,112.000000,124.500000,0.000000,14.500000,80.000000,0.000000,0.000000,0.000000,1773822648.903270,0.000000
82.000000,823.527673,5877.972350,-6224.156168,-229.284195,-8330.919842,14101.827336,-6979.198096,-15350.373429,10825.553337,14758.320422,-5431.160978,17928.647152,17419.742634,14123.329714,3895.260858,1943.931215,0.284000,-0.224000,0.948000,192.000000,0.000000,0.000000,0.000000,0.000000,0.000000,0.000000,0.000000,0.000000,0.000000,1773822648.903297,0.000000
84.000000,839.464467,5891.852783,-6205.827738,-215.113189,-8299.627399,14131.264583,-6961.607273,-15334.682504,10818.289020,14735.096959,-5459.614749,17905.267227,17394.283997,14065.885730,3891.617524,1934.476427,0.284000,-0.224000,0.948000,192.000000,0.000000,0.000000,0.000000,0.000000,0.000000,0.000000,0.000000,0.000000,0.000000,1773822648.903315,0.000000
86.000000,847.019356,5895.965504,-6196.372950,-207.603003,-8289.233838,14155.292708,-6950.699622,-15325.406531,10836.125712,14763.707192,-5418.800464,17939.934783,17437.378161,14105.738891,3898.680675,1943.774753,0.284000,-0.224000,0.948000,192.000000,0.000000,0.000000,0.000000,0.000000,0.000000,0.000000,0.000000,0.000000,0.000000,1773822648.903333,0.000000
88.000000,812.508263,5862.102611,-6230.369953,-244.975119,-8320.392170,14108.912839,-6988.474070,-15361.348136,10817.327895,14728.369084,-5456.619615,17903.993178,17397.077965,14072.948882,3893.316256,1943.215959,0.284000,-0.224000,0.948000,192.000000,0.000000,0.000000,0.000000,0.000000,0.000000,0.000000,0.000000,0.000000,0.000000,1773822648.903350,0.000000
90.000000,846.572321,5897.261905,-6187.812232,-205.837215,-8277.454469,14148.654240,-6945.625776,-15323.149004,10819.384255,14741.936593,-5442.761534,17918.231239,17416.523983,14084.348271,3905.006219,1932.241253,0.286000,-0.226000,0.950000,192.000000,4.000000,120.000000,124.000000,120.000000,14.500000,88.000000,0.000000,0.000000,0.000000,1773822648.903368,0.000000
92.000000,809.580184,5857.989890,-6223.977354,-244.662195,-8321.018019,14110.410405,-6985.545991,-15364.387973,10819.965401,14742.808311,-5435.653679,17922.992161,17429.085663,14083.364795,3903.039265,1939.170294,0.286000,-0.226000,0.950000,192.000000,0.000000,0.000000,0.000000,0.000000,0.000000,0.000000,0.000000,0.000000,0.000000,1773822648.903382,0.000000
94.000000,829.562644,5878.620550,-6205.559517,-225.015011,-8302.130795,14130.884603,-6966.010566,-15346.126598,10809.951819,14717.014398,-5466.655548,17891.655015,17393.233465,14057.839102,3897.607791,1930.095485,0.286000,-0.226000,0.950000,192.000000,0.000000,0.000000,0.000000,0.000000,0.000000,0.000000,0.000000,0.000000,0.000000,1773822648.903398,0.000000
96.000000,829.450885,5881.034539,-6202.340865,-215.783741,-8291.044330,14138.081865,-6959.126229,-15342.013877,10822.267630,14750.899643,-5426.601222,17924.936762,17436.908774,14102.810812,3899.887669,1940.667861,0.286000,-0.226000,0.950000,192.000000,0.000000,0.000000,0.000000,0.000000,0.000000,0.000000,0.000000,0.000000,0.000000,1773822648.903414,0.000000
98.000000,802.762902,5860.985024,-6233.275680,-242.047041,-8324.281374,14114.254905,-6993.614971,-15373.865113,10807.761348,14720.858898,-5465.470906,17893.621968,17397.435593,14063.985832,3893.226849,1936.912768,0.286000,-0.226000,0.950000,192.000000,0.000000,0.000000,0.000000,0.000000,0.000000,0.000000,0.000000,0.000000,0.000000,1773822648.903430,0.000000
100.000000,838.548045,5894.490289,-6192.170822,-200.651610,-8278.281483,14164.635737,-6951.861912,-15338.281135,10817.104377,14736.795692,-5452.819819,17905.669559,17419.027378,14079.117963,3897.719550,1935.303442,0.282000,-0.220000,0.950000,192.000000,4.000000,104.000000,124.500000,16.000000,14.500000,88.000000,0.000000,0.000000,0.000000,1773822648.903449,0.000000
102.000000,811.368324,5869.299873,-6228.581813,-231.497017,-8317.464091,14127.263621,-6991.357445,-15372.680470,10825.285116,14746.138721,-5442.940348,17916.063120,17430.359713,14106.789423,3904.179204,1948.490971,0.282000,-0.220000,0.950000,192.000000,0.000000,0.000000,0.000000,0.000000,0.000000,0.000000,0.000000,0.000000,0.000000,1773822648.903466,0.000000
104.000000,822.968879,5882.845030,-6213.449682,-215.157892,-8298.934495,14142.038124,-6976.828811,-15358.196540,10811.628200,14722.691741,-5473.942217,17886.603521,17391.691195,14074.893484,3898.792434,1942.187779,0.282000,-0.220000,0.950000,192.000000,0.000000,0.000000,0.000000,0.000000,0.000000,0.000000,0.000000,0.000000,0.000000,1773822648.903484,0.000000
106.000000,836.156408,5896.680760,-6202.340865,-199.221098,-8282.930646,14150.889415,-6963.462468,-15342.796188,10829.017857,14759.639175,-5432.725600,17925.272039,17447.727018,14093.177210,3905.319143,1952.558989,0.282000,-0.220000,0.950000,192.000000,0.000000,0.000000,0.000000,0.000000,0.000000,0.000000,0.000000,0.000000,0.000000,1773822648.903502,0.000000
108.000000,813.782312,5871.199771,-6231.442837,-231.787590,-8312.636115,14119.708731,-6998.644113,-15369.595929,10817.171433,14735.275773,-5463.369842,17902.473259,17411.494841,14077.933321,3900.893498,1948.848599,0.282000,-0.220000,0.950000,192.000000,0.000000,0.000000,0.000000,0.000000,0.000000,0.000000,0.000000,0.000000,0.000000,1773822648.903518,0.000000
110.000000,854.887170,5915.880908,-6188.236915,-186.547659,-8279.108498,14171.765944,-6951.459581,-15324.624219,10830.738942,14754.073591,-5441.129856,17922.142794,17435.008876,14099.949789,3899.731207,1947.149866,0.286000,-0.224000,0.952000,192.000000,4.000000,120.000000,124.500000,0.000000,14.500000,96.000000,0.000000,0.000000,0.000000,1773822648.903536,0.000000
112.000000,821.136036,5878.709957,-6225.385514,-221.282270,-8317.687609,14121.183946,-6989.882230,-15360.766990,10832.169453,14762.455495,-5431.451551,17931.374065,17436.215870,14089.802097,3897.741902,1949.183875,0.286000,-0.224000,0.952000,192.000000,0.000000,0.000000,0.000000,0.000000,0.000000,0.000000,0.000000,0.000000,0.000000,1773822648.903553,0.000000
114.000000,831.641356,5890.221106,-6208.666409,-207.580651,-8309.953905,14131.152824,-6972.090241,-15343.533795,10817.931392,14731.632439,-5463.213380,17900.081623,17395.133364,14062.532969,3891.237544,1933.358840,0.286000,-0.224000,0.952000,192.000000,0.000000,0.000000,0.000000,0.000000,0.000000,0.000000,0.000000,0.000000,0.000000,1773822648.903584,0.000000
116.000000,841.677289,5899.742949,-6198.786938,-202.931488,-8294.888830,14133.432702,-6961.093183,-15333.341400,10831.767122,14763.751896,-5422.957888,17932.603411,17436.931126,14109.359873,3900.334704,1934.610538,0.286000,-0.224000,0.952000,192.000000,0.000000,0.000000,0.000000,0.000000,0.000000,0.000000,0.000000,0.000000,0.000000,1773822648.903602,0.000000
118.000000,811.211862,5870.797440,-6233.275680,-235.453276,-8332.328002,14102.587295,-6998.442948,-15366.623147,10816.813805,14735.588698,-5457.759554,17897.801745,17398.754346,14078.201542,3894.120919,1931.838922,0.286000,-0.224000,0.952000,192.000000,0.000000,0.000000,0.000000,0.000000,0.000000,0.000000,0.000000,0.000000,0.000000,1773822648.903617,0.000000
120.000000,850.550932,5910.762359,-6191.276752,-194.773101,-8291.044330,14145.994383,-6953.851217,-15327.664057,10822.714665,14749.625593,-5445.577853,17912.844469,17412.321855,14075.161704,3898.501861,1926.496855,0.280000,-0.220000,0.954000,192.000000,4.000000,96.000000,124.500000,16.000000,14.500000,104.000000,0.000000,0.000000,0.000000,1773822648.903635,0.000000
122.000000,826.321641,5884.052024,-6227.821854,-226.981965,-8327.276507,14114.947810,-6989.189325,-15360.565825,10826.693276,14758.208663,-5436.145417,17921.874573,17431.879632,14103.011978,3897.697198,1940.645509,0.280000,-0.220000,0.954000,192.000000,0.000000,0.000000,0.000000,0.000000,0.000000,0.000000,0.000000,0.000000,0.000000,1773822648.903653,0.000000
124.000000,832.557777,5888.477670,-6213.896717,-213.772084,-8303.807176,14131.801025,-6975.666520,-15349.971098,10816.456177,14727.922050,-5472.109374,17895.454812,17389.411317,14055.291004,3891.908096,1934.901111,0.280000,-0.220000,0.954000,192.000000,0.000000,0.000000,0.000000,0.000000,0.000000,0.000000,0.000000,0.000000,0.000000,1773822648.903670,0.000000
126.000000,839.643280,5897.798347,-6205.492461,-207.580651,-8301.013208,14142.351048,-6966.837581,-15341.812711,10826.559165,14762.835474,-5433.463208,17929.049483,17433.868937,14102.564943,3900.424111,1939.103238,0.280000,-0.220000,0.954000,192.000000,0.000000,0.000000,0.000000,0.000000,0.000000,0.000000,0.000000,0.000000,0.000000,1773822648.903687,0.000000
128.000000,813.044705,5870.395109,-6237.008421,-236.526160,-8331.702153,14111.103310,-7002.488613,-15374.423906,10811.941124,14734.381704,-5467.773136,17893.063175,17398.061442,14061.817713,3891.349303,1937.180988,0.280000,-0.220000,0.954000,192.000000,0.000000,0.000000,0.000000,0.000000,0.000000,0.000000,0.000000,0.000000,0.000000,1773822648.903705,0.000000
130.000000,853.814286,5922.608784,-6192.908429,-191.554450,-8278.303835,14154.666859,-6954.700584,-15330.949763,10825.128654,14752.687782,-5451.411659,17908.910562,17419.407358,14083.700071,3893.204497,1936.555140,0.282000,-0.221000,0.950000,192.000000,4.000000,112.000000,124.500000,8.000000,14.500000,72.000000,0.000000,0.000000,0.000000,1773822648.903723,0.000000
132.000000,828.378001,5887.874173,-6227.374819,-224.165645,-8317.553498,14123.821452,-6991.357445,-15359.582348,10828.257898,14766.054126,-5437.397115,17920.511117,17428.772739,14100.329769,3899.753559,1946.278148,0.282000,-0.221000,0.950000,192.000000,0.000000,0.000000,0.000000,0.000000,0.000000,0.000000,0.000000,0.000000,0.000000,1773822648.903740,0.000000
134.000000,841.140847,5902.536917,-6210.655714,-211.201633,-8301.549649,14151.157636,-6976.225314,-15344.338458,10822.692314,14741.087227,-5465.582665,17899.969864,17396.072137,14075.631091,3894.590306,1941.070192,0.282000,-0.221000,0.950000,192.000000,0.000000,0.000000,0.000000,0.000000,0.000000,0.000000,0.000000,0.000000,0.000000,1773822648.903756,0.000000
136.000000,856.384737,5918.518414,-6197.803461,-197.790587,-8284.607027,14162.959357,-6960.892017,-15328.692237,10840.908985,14774.525437,-5424.321344,17938.705437,17441.513233,14113.383187,3904.514480,1946.702832,0.282000,-0.221000,0.950000,192.000000,0.000000,0.000000,0.000000,0.000000,0.000000,0.000000,0.000000,0.000000,0.000000,1773822648.903773,0.000000
138.000000,829.003850,5889.349388,-6227.307764,-228.747753,-8324.191967,14131.242231,-6995.112538,-15356.073124,10830.940107,14753.537149,-5450.897569,17917.337169,17413.439442,14090.092670,3898.345399,1941.003137,0.282000,-0.221000,0.950000,192.000000,0.000000,0.000000,0.000000,0.000000,0.000000,0.000000,0.000000,0.000000,0.000000,1773822648.903791,0.000000
140.000000,864.029034,5924.598089,-6185.197077,-188.358151,-8284.919952,14171.162447,-6951.973671,-15317.516365,10836.840968,14761.382611,-5437.285356,17928.781262,17426.291695,14115.417196,3895.573782,1936.532788,0.280000,-0.221500,0.945000,192.000000,4.000000,88.000000,124.500000,8.000000,14.500000,48.000000,0.000000,0.000000,0.000000,1773822648.903807,0.000000
142.000000,828.623870,5893.551516,-6220.713999,-224.791494,-8323.163786,14132.404522,-6988.898753,-15351.222795,10837.869148,14770.055088,-5428.501121,17939.018361,17438.495748,14118.077054,3893.226849,1946.032279,0.280000,-0.221500,0.945000,192.000000,0.000000,0.000000,0.000000,0.000000,0.000000,0.000000,0.000000,0.000000,0.000000,1773822648.903824,0.000000
144.000000,840.380888,5903.140414,-6203.458453,-215.448465,-8300.499117,14143.111008,-6974.347767,-15340.203385,10825.933316,14742.987125,-5461.201723,17904.551972,17404.498745,14084.996472,3890.119957,1932.285956,0.280000,-0.221500,0.945000,192.000000,0.000000,0.000000,0.000000,0.000000,0.000000,0.000000,0.000000,0.000000,0.000000,1773822648.903841,0.000000
146.000000,843.867760,5912.282278,-6196.417653,-202.283287,-8291.647827,14156.812627,-6962.747212,-15332.469682,10834.628145,14772.133800,-5426.847092,17936.894946,17439.814501,14109.516336,3898.434806,1942.008965,0.280000,-0.221500,0.945000,192.000000,0.000000,0.000000,0.000000,0.000000,0.000000,0.000000,0.000000,0.000000,0.000000,1773822648.903863,0.000000
148.000000,814.899899,5881.302760,-6229.565290,-234.156875,-8328.483501,14122.770920,-6999.605238,-15364.969118,10817.864337,14744.395285,-5463.258083,17907.323588,17402.330625,14091.992568,3891.081082,1940.466695,0.280000,-0.221500,0.945000,192.000000,0.000000,0.000000,0.000000,0.000000,0.000000,0.000000,0.000000,0.000000,0.000000,1773822648.903880,0.000000
150.000000,855.110688,5920.641830,-6184.392415,-194.013142,-8274.191114,14170.223674,-6952.867741,-15322.970190,10827.632049,14757.113428,-5445.779019,17920.801690,17423.654190,14092.238437,3897.652495,1936.219863,0.280000,-0.222750,0.947500,192.000000,4.000000,96.000000,124.500000,0.000000,14.500000,88.000000,0.000000,0.000000,0.000000,1773822648.903897,0.000000
152.000000,824.645260,5891.338693,-6220.378723,-227.049020,-8308.545745,14138.707714,-6987.982331,-15356.475455,10833.041171,14769.831570,-5434.044353,17936.179690,17442.384951,14100.016844,3907.643724,1941.830151,0.280000,-0.222750,0.947500,192.000000,0.000000,0.000000,0.000000,0.000000,0.000000,0.000000,0.000000,0.000000,0.000000,1773822648.903915,0.000000
154.000000,839.643280,5906.336714,-6202.944363,-214.308526,-8291.781937,14155.896205,-6973.297235,-15343.243223,10820.837119,14742.607146,-5468.913075,17904.350806,17406.868029,14075.005242,3904.514480,1931.146017,0.280000,-0.222750,0.947500,192.000000,0.000000,0.000000,0.000000,0.000000,0.000000,0.000000,0.000000,0.000000,0.000000,1773822648.903932,0.000000
156.000000,846.572321,5916.394999,-6190.762662,-205.501939,-8276.716861,14170.178970,-6961.406107,-15335.688333,10842.630070,14777.431163,-5425.371876,17941.387646,17459.171111,14131.622211,3911.622335,1938.790314,0.280000,-0.222750,0.947500,192.000000,0.000000,0.000000,0.000000,0.000000,0.000000,0.000000,0.000000,0.000000,0.000000,1773822648.903948,0.000000
158.000000,818.476178,5898.021865,-6225.005534,-232.391087,-8314.714827,14138.663010,-6995.291352,-15368.478342,10828.436712,14748.664468,-5461.984034,17904.708434,17418.781509,14094.741833,3904.112149,1940.824323,0.280000,-0.222750,0.947500,192.000000,0.000000,0.000000,0.000000,0.000000,0.000000,0.000000,0.000000,0.000000,0.000000,1773822648.903965,0.000000
160.000000,854.216618,5918.496063,-6184.012435,-192.202651,-8274.436983,14184.037052,-6947.771543,-15328.312257,10835.499863,14764.780076,-5447.880083,17916.934838,17436.729960,14113.897278,3902.212250,1937.784486,0.279000,-0.223375,0.947750,192.000000,4.000000,88.000000,124.500000,0.000000,14.500000,80.000000,0.000000,0.000000,0.000000,1773822648.903982,0.000000
162.000000,821.225443,5887.851821,-6218.970563,-225.707916,-8315.340676,14148.654240,-6983.400224,-15362.041040,10835.924546,14768.289300,-5439.900510,17922.813347,17444.150739,14104.777766,3907.174338,1943.417125,0.279000,-0.223375,0.947750,192.000000,0.000000,0.000000,0.000000,0.000000,0.000000,0.000000,0.000000,0.000000,0.000000,1773822648.903998,0.000000
164.000000,830.568472,5898.155975,-6203.391397,-214.129712,-8297.436928,14157.393772,-6969.989177,-15349.099380,10826.223889,14741.646021,-5469.561275,17893.018471,17407.069195,14080.950806,3901.385236,1934.319965,0.279000,-0.223375,0.947750,192.000000,0.000000,0.000000,0.000000,0.000000,0.000000,0.000000,0.000000,0.000000,0.000000,1773822648.904016,0.000000
166.000000,840.872626,5909.756530,-6193.780147,-203.110302,-8285.366986,14172.056517,-6958.142752,-15339.465778,10839.389067,14773.072573,-5428.344658,17923.170975,17447.302335,14114.880754,3905.341495,1940.533750,0.279000,-0.223375,0.947750,192.000000,0.000000,0.000000,0.000000,0.000000,0.000000,0.000000,0.000000,0.000000,0.000000,1773822648.904033,0.000000
168.000000,810.988344,5879.067585,-6228.134779,-233.620433,-8317.419388,14137.925403,-6993.503212,-15371.026441,10825.151005,14748.932689,-5464.174505,17892.213809,17410.109032,14088.617455,3899.887669,1935.929291,0.279000,-0.223375,0.947750,192.000000,0.000000,0.000000,0.000000,0.000000,0.000000,0.000000,0.000000,0.000000,0.000000,1773822648.904051,0.000000
170.000000,841.409068,5910.583545,-6189.063929,-196.047151,-8274.615797,14183.880589,-6952.040726,-15335.196595,10832.370619,14755.615861,-5451.143438,17903.926123,17428.571573,14103.503716,3899.865317,1936.286919,0.277500,-0.221687,0.945875,192.000000,4.000000,80.000000,124.500000,16.000000,14.500000,64.000000,0.000000,0.000000,0.000000,1773822648.904068,0.000000
172.000000,820.487835,5883.917914,-6220.378723,-229.150084,-8308.076359,14146.441418,-6985.970674,-15364.723249,10837.466817,14756.845207,-5439.386420,17916.308989,17441.893213,14112.869097,3906.526137,1939.773791,0.277500,-0.221687,0.945875,192.000000,0.000000,0.000000,0.000000,0.000000,0.000000,0.000000,0.000000,0.000000,0.000000,1773822648.904085,0.000000
174.000000,819.750228,5889.259981,-6207.906450,-215.068485,-8297.615742,14159.450133,-6971.017357,-15350.820464,10829.084912,14733.621744,-5468.488391,17891.811477,17408.767928,14093.199562,3902.592230,1932.487122,0.277500,-0.221687,0.945875,192.000000,0.000000,0.000000,0.000000,0.000000,0.000000,0.000000,0.000000,0.000000,0.000000,1773822648.904102,0.000000
176.000000,825.159350,5896.300780,-6198.585772,-200.964534,-8289.345597,14171.005985,-6956.488723,-15335.151891,10821.910002,14758.409829,-5435.407810,17926.456681,17438.808672,14117.898240,3906.146158,1938.611500,0.277500,-0.221687,0.945875,192.000000,0.000000,0.000000,0.000000,0.000000,0.000000,0.000000,0.000000,0.000000,0.000000,1773822648.904119,0.000000
178.000000,793.844556,5866.707071,-6232.493369,-230.804113,-8319.632211,14136.763112,-6991.871535,-15366.042002,10807.135499,14732.705323,-5466.052051,17903.054405,17403.962303,14103.861344,3896.445500,1936.778657,0.277500,-0.221687,0.945875,192.000000,0.000000,0.000000,0.000000,0.000000,0.000000,0.000000,0.000000,0.000000,0.000000,1773822649.382366,0.000000
180.000000,826.455751,5902.581621,-6192.282580,-189.855717,-8281.924818,14178.315005,-6948.307985,-15326.300600,10813.818671,14744.417637,-5453.378612,17914.990236,17416.971018,14100.441527,3898.099530,1934.275262,0.276750,-0.222844,0.948937,192.000000,4.000000,80.000000,124.500000,0.000000,14.500000,96.000000,0.000000,0.000000,0.000000,1773822649.382471,0.000000
182.000000,805.154539,5877.793536,-6224.804369,-222.891596,-8316.011228,14146.933156,-6984.495459,-15354.843778,10813.930430,14750.944346,-5442.761534,17925.719074,17433.913640,14112.131490,3903.352189,1940.086715,0.276750,-0.222844,0.948937,192.000000,0.000000,0.000000,0.000000,0.000000,0.000000,0.000000,0.000000,0.000000,0.000000,1773822649.382519,0.000000
184.000000,818.990269,5893.260943,-6210.186328,-207.781816,-8299.113309,14167.496761,-6970.972654,-15339.890461,10809.929467,14736.996858,-5471.237656,17899.254608,17404.543448,14107.325865,3893.763291,1932.017735,0.276750,-0.222844,0.948937,192.000000,0.000000,0.000000,0.000000,0.000000,0.000000,0.000000,0.000000,0.000000,0.000000,1773822649.382567,0.000000
186.000000,828.310946,5901.262868,-6197.624647,-197.455311,-8281.410728,14172.168275,-6960.221465,-15331.530909,10823.385218,14768.356355,-5434.491388,17932.782225,17446.855300,14127.375379,3909.320105,1941.763096,0.276750,-0.222844,0.948937,192.000000,0.000000,0.000000,0.000000,0.000000,0.000000,0.000000,0.000000,0.000000,0.000000,1773822649.382620,0.000000
188.000000,790.022408,5864.695414,-6236.539034,-230.424134,-8321.621516,14130.191699,-6999.180555,-15368.053659,10804.229773,14731.498329,-5469.673034,17897.622931,17410.466660,14107.325865,3904.648591,1934.409372,0.276750,-0.222844,0.948937,192.000000,0.000000,0.000000,0.000000,0.000000,0.000000,0.000000,0.000000,0.000000,0.000000,1773822649.382657,0.000000
190.000000,835.776429,5911.075283,-6191.008531,-187.061749,-8272.559437,14173.487028,-6951.526636,-15322.321990,10810.622372,14746.697515,-5456.060822,17910.184611,17423.453024,14108.801080,3909.543623,1935.035221,0.276750,-0.222844,0.948937,192.000000,0.000000,0.000000,0.000000,0.000000,0.000000,0.000000,0.000000,0.000000,0.000000,1773822649.382676,0.000000
192.000000,801.220632,5879.559324,-6225.989011,-217.840101,-8315.921821,14147.268432,-6987.155317,-15354.687316,10814.265706,14756.085248,-5442.627423,17924.020341,17436.797015,14116.445376,3908.716608,1939.952605,0.274000,-0.222000,0.952000,192.000000,4.000000,72.000000,124.500000,8.000000,14.500000,96.000000,0.000000,0.000000,0.000000,1773822649.382690,0.000000
194.000000,815.123417,5893.171536,-6209.381665,-207.111264,-8294.888830,14149.749476,-6973.453697,-15343.422037,10801.212287,14731.610087,-5475.104508,17897.935855,17396.094489,14092.618417,3902.547527,1933.157674,0.274000,-0.222000,0.952000,192.000000,0.000000,0.000000,0.000000,0.000000,0.000000,0.000000,0.000000,0.000000,0.000000,1773822649.382703,0.000000
196.000000,823.482969,5899.810004,-6197.110557,-195.220136,-8283.176515,14162.579377,-6960.847314,-15333.967249,10821.328857,14762.969585,-5434.513740,17929.071835,17441.803806,14125.855461,3917.925527,1936.286919,0.274000,-0.222000,0.952000,192.000000,0.000000,0.000000,0.000000,0.000000,0.000000,0.000000,0.000000,0.000000,0.000000,1773822649.382716,0.000000
198.000000,797.018504,5874.530181,-6230.839340,-222.958651,-8313.306667,14136.159615,-6997.638285,-15365.103229,10803.313351,14740.886061,-5467.862543,17900.528657,17402.420032,14103.011978,3910.236527,1937.315099,0.274000,-0.222000,0.952000,192.000000,0.000000,0.000000,0.000000,0.000000,0.000000,0.000000,0.000000,0.000000,0.000000,1773822649.382728,0.000000
200.000000,832.423667,5906.001437,-6190.673255,-185.720645,-8269.854876,14174.939892,-6954.410011,-15328.669885,10811.158813,14746.652811,-5454.093868,17910.072852,17417.686274,14094.563019,3906.503785,1932.598881,0.274000,-0.222000,0.952000,192.000000,0.000000,0.000000,0.000000,0.000000,0.000000,0.000000,0.000000,0.000000,0.000000,1773822649.382742,0.000000
202.000000,797.577297,5873.546704,-6222.949174,-219.024744,-8302.466071,14142.261641,-6989.301084,-15363.404496,10816.009142,14750.586718,-5442.046278,17916.331341,17433.868937,14105.917705,3909.565974,1940.869026,0.278000,-0.222000,0.944000,192.000000,4.000000,88.000000,124.500000,8.000000,14.500000,64.000000,0.000000,0.000000,0.000000,1773822649.382754,0.000000
204.000000,805.601574,5881.705091,-6209.515775,-205.144311,-8291.424309,14162.177046,-6977.275846,-15353.346211,10797.814822,14724.457529,-5478.144345,17884.077774,17399.760175,14087.119888,3904.737998,1932.330660,0.278000,-0.222000,0.944000,192.000000,0.000000,0.000000,0.000000,0.000000,0.000000,0.000000,0.000000,0.000000,0.000000,1773822649.382769,0.000000
206.000000,825.919309,5900.905240,-6194.763624,-193.610810,-8274.615797,14177.197418,-6963.507171,-15337.275307,10820.255973,14769.988033,-5433.731429,17923.394492,17452.577347,14135.869042,3911.108245,1944.981747,0.278000,-0.222000,0.944000,192.000000,0.000000,0.000000,0.000000,0.000000,0.000000,0.000000,0.000000,0.000000,0.000000,1773822649.382787,0.000000
208.000000,792.414044,5866.125925,-6232.046334,-228.837160,-8315.586545,14136.673705,-7003.270924,-15371.138200,10805.347360,14742.316573,-5467.415508,17893.934893,17412.053634,14102.989626,3904.536832,1943.215959,0.278000,-0.222000,0.944000,192.000000,0.000000,0.000000,0.000000,0.000000,0.000000,0.000000,0.000000,0.000000,0.000000,1773822649.382804,0.000000
210.000000,835.396449,5915.009190,-6189.578019,-182.725511,-8275.353405,14180.147848,-6955.996985,-15324.244240,10814.645686,14753.492445,-5451.188141,17910.899867,17423.385969,14101.112080,3900.267649,1934.454076,0.278000,-0.222000,0.944000,192.000000,0.000000,0.000000,0.000000,0.000000,0.000000,0.000000,0.000000,0.000000,0.000000,1773822649.382842,0.000000
212.000000,809.468425,5889.371740,-6224.513796,-214.487340,-8302.868402,14139.847653,-6992.899715,-15357.146008,10826.156834,14772.133800,-5435.430161,17925.003818,17437.333457,14116.266562,3903.620410,1936.398677,0.282000,-0.226000,0.944000,192.000000,4.000000,104.000000,124.000000,120.000000,14.500000,64.000000,0.000000,0.000000,0.000000,1773822649.382855,0.000000
214.000000,812.664725,5894.914972,-6212.935592,-200.204575,-8291.469013,14154.868025,-6978.572247,-15346.350115,10807.157851,14737.287430,-5474.366900,17890.939759,17397.234428,14086.024652,3902.234602,1928.530863,0.282000,-0.226000,0.944000,192.000000,0.000000,0.000000,0.000000,0.000000,0.000000,0.000000,0.000000,0.000000,0.000000,1773822649.382879,0.000000
216.000000,827.081600,5914.696266,-6200.619781,-186.279438,-8281.343672,14171.385964,-6964.378889,-15335.062484,10822.804072,14775.084230,-5435.452513,17927.998951,17442.563765,14125.900164,3907.196690,1937.829189,0.282000,-0.226000,0.944000,192.000000,0.000000,0.000000,0.000000,0.000000,0.000000,0.000000,0.000000,0.000000,0.000000,1773822649.382892,0.000000
218.000000,797.979629,5884.476708,-6234.281508,-220.857587,-8313.016094,14134.438531,-7003.069759,-15367.539569,10812.164642,14746.898681,-5467.661377,17896.080660,17411.539544,14116.355969,3904.313314,1934.811704,0.282000,-0.226000,0.944000,192.000000,0.000000,0.000000,0.000000,0.000000,0.000000,0.000000,0.000000,0.000000,0.000000,1773822649.382904,0.000000
220.000000,829.294423,5915.567984,-6194.651865,-184.200726,-8267.664405,14174.448153,-6960.623796,-15329.116920,10816.590287,14747.993916,-5456.954891,17905.736614,17424.592963,14118.546440,3908.917774,1934.767000,0.282000,-0.226000,0.944000,192.000000,0.000000,0.000000,0.000000,0.000000,0.000000,0.000000,0.000000,0.000000,0.000000,1773822649.382916,0.000000
222.000000,804.036952,5889.662312,-6229.118255,-212.319221,-8300.007379,14133.879737,-6996.073663,-15361.526950,10818.870165,14761.315556,-5447.075420,17916.577210,17439.255707,14109.337522,3914.259841,1943.662994,0.280000,-0.222000,0.944000,192.000000,4.000000,96.000000,124.500000,8.000000,14.500000,64.000000,0.000000,0.000000,0.000000,1773822649.382929,0.000000
224.000000,809.110798,5893.931495,-6219.015267,-201.411569,-8293.435966,14159.718354,-6984.361349,-15357.168359,10807.738996,14731.833605,-5483.866392,17883.139000,17400.788355,14084.772955,3902.905155,1935.459904,0.280000,-0.222000,0.944000,192.000000,0.000000,0.000000,0.000000,0.000000,0.000000,0.000000,0.000000,0.000000,0.000000,1773822649.382941,0.000000
226.000000,821.828940,5908.236612,-6204.665447,-184.915982,-8277.923856,14170.760115,-6968.938645,-15345.657211,10819.406607,14767.350527,-5447.120124,17916.241934,17444.195443,14138.148920,3910.191823,1942.768925,0.280000,-0.222000,0.944000,192.000000,0.000000,0.000000,0.000000,0.000000,0.000000,0.000000,0.000000,0.000000,0.000000,1773822649.382954,0.000000
228.000000,796.750283,5881.079242,-6238.505988,-216.521349,-8313.239612,14133.857385,-7005.126119,-15374.356851,10806.464947,14746.205776,-5477.898476,17891.744422,17405.281056,14098.273408,3902.771044,1940.757268,0.280000,-0.222000,0.944000,192.000000,0.000000,0.000000,0.000000,0.000000,0.000000,0.000000,0.000000,0.000000,0.000000,1773822649.382967,0.000000
230.000000,836.759905,5919.568946,-6194.361293,-174.835345,-8276.493344,14176.035127,-6959.305043,-15328.915754,10814.176299,14759.683878,-5460.419412,17906.138945,17419.317951,14101.313245,3897.898364,1934.275262,0.280000,-0.222000,0.944000,192.000000,0.000000,0.000000,0.000000,0.000000,0.000000,0.000000,0.000000,0.000000,0.000000,1773822649.382979,0.000000
232.000000,813.067056,5895.294952,-6226.503101,-206.552471,-8315.094807,14141.792255,-6993.212639,-15355.491979,10823.116997,14772.826704,-5439.028792,17920.041730,17430.382065,14115.327789,3898.993599,1935.973994,0.282000,-0.220000,0.948000,192.000000,4.000000,104.000000,124.500000,16.000000,14.500000,80.000000,0.000000,0.000000,0.000000,1773822649.382991,0.000000
234.000000,816.755094,5902.916897,-6214.969601,-197.947049,-8300.432062,14152.185816,-6981.321511,-15346.595984,10809.773005,14743.277698,-5471.058842,17890.760945,17398.463774,14090.807926,3892.690407,1927.815608,0.282000,-0.220000,0.948000,192.000000,0.000000,0.000000,0.000000,0.000000,0.000000,0.000000,0.000000,0.000000,0.000000,1773822649.383004,0.000000
236.000000,833.362440,5917.713752,-6198.183441,-186.592363,-8278.415594,14159.785409,-6964.401241,-15334.168414,10818.981924,14771.575006,-5435.027830,17923.260382,17440.172129,14121.496871,3902.391064,1936.510436,0.282000,-0.220000,0.948000,192.000000,0.000000,0.000000,0.000000,0.000000,0.000000,0.000000,0.000000,0.000000,0.000000,1773822649.383016,0.000000
238.000000,803.366399,5883.403824,-6232.895700,-221.662250,-8317.508795,14128.940002,-7004.075587,-15371.696993,10811.248220,14747.770399,-5466.029700,17897.019434,17406.800974,14108.644618,3900.111187,1933.336488,0.282000,-0.220000,0.948000,192.000000,0.000000,0.000000,0.000000,0.000000,0.000000,0.000000,0.000000,0.000000,0.000000,1773822649.383028,0.000000
240.000000,839.173894,5915.836205,-6191.746139,-182.993732,-8273.297044,14168.748458,-6961.115534,-15335.062484,10813.550450,14754.073591,-5460.285301,17904.484916,17418.759158,14110.231591,3898.300695,1932.665936,0.282000,-0.220000,0.948000,192.000000,0.000000,0.000000,0.000000,0.000000,0.000000,0.000000,0.000000,0.000000,0.000000,1773822649.383040,0.000000
242.000000,810.988344,5886.197792,-6224.267927,-215.806093,-8310.020961,14132.829205,-6996.297180,-15367.919549,10819.473662,14763.751896,-5446.762496,17919.326475,17433.019570,14111.863269,3898.635971,1937.359802,0.284000,-0.224000,0.950000,192.000000,4.000000,112.000000,124.500000,0.000000,14.500000,88.000000,0.000000,0.000000,0.000000,1773822649.383053,0.000000
244.000000,824.220577,5898.580658,-6209.314610,-199.444616,-8296.252286,14146.799045,-6979.779241,-15351.289851,10806.911982,14735.342829,-5480.021892,17889.039861,17394.082832,14093.691301,3890.946971,1923.747590,0.284000,-0.224000,0.950000,192.000000,0.000000,0.000000,0.000000,0.000000,0.000000,0.000000,0.000000,0.000000,0.000000,1773822649.383066,0.000000
246.000000,832.468370,5907.253135,-6199.569249,-188.067578,-8286.126946,14150.352973,-6966.457601,-15341.879766,10827.386180,14774.570140,-5437.754743,17928.289524,17440.216832,14112.980856,3896.110224,1931.838922,0.284000,-0.224000,0.950000,192.000000,0.000000,0.000000,0.000000,0.000000,0.000000,0.000000,0.000000,0.000000,0.000000,1773822649.383078,0.000000
248.000000,800.863004,5879.246399,-6235.868482,-220.231738,-8327.187100,14114.254905,-7004.075587,-15373.373374,10805.123842,14741.310744,-5477.160868,17895.901846,17400.721300,14079.341481,3890.142308,1927.703849,0.284000,-0.224000,0.950000,192.000000,0.000000,0.000000,0.000000,0.000000,0.000000,0.000000,0.000000,0.000000,0.000000,1773822649.383090,0.000000
250.000000,835.999946,5913.981010,-6196.417653,-180.646799,-8283.891771,14152.386982,-6961.964901,-15333.497862,10812.566973,14752.576024,-5463.995691,17908.508230,17410.779585,14099.167478,3891.371654,1927.860311,0.284000,-0.224000,0.950000,192.000000,0.000000,0.000000,0.000000,0.000000,0.000000,0.000000,0.000000,0.000000,0.000000,1773822649.383102,0.000000
252.000000,813.424684,5890.623437,-6229.185311,-210.151101,-8318.559327,14119.194641,-6995.313703,-15360.364659,10814.735092,14762.544902,-5449.601167,17922.299257,17427.185765,14116.221859,3894.456195,1940.243177,0.286000,-0.226000,0.952000,192.000000,4.000000,120.000000,124.000000,120.000000,14.500000,96.000000,0.000000,0.000000,0.000000,1773822649.383114,0.000000
254.000000,831.663708,5904.280353,-6215.528395,-193.431997,-8301.795519,14133.142130,-6980.338035,-15344.673734,10807.090796,14740.550785,-5476.423261,17897.645282,17396.697986,14091.947865,3884.397910,1929.380230,0.286000,-0.226000,0.952000,192.000000,0.000000,0.000000,0.000000,0.000000,0.000000,0.000000,0.000000,0.000000,0.000000,1773822649.383126,0.000000
0.000000,848.516923,5922.944060,-6201.200926,-177.338741,-8287.043367,14154.219825,-6963.328357,-15328.267554,10829.017857,14777.408812,-5432.390324,17940.225356,17442.697876,14123.217955,3892.153965,1934.767000,0.286000,-0.226000,0.952000,192.000000,0.000000,0.000000,0.000000,0.000000,0.000000,0.000000,0.000000,0.000000,0.000000,1773822649.383138,0.000000
2.000000,821.180740,5895.540821,-6237.030773,-212.386276,-8327.120045,14116.467728,-7004.522622,-15363.315089,10818.221965,14755.101771,-5463.503952,17912.553896,17413.484146,14113.204374,3885.649608,1930.497817,0.286000,-0.226000,0.952000,192.000000,0.000000,0.000000,0.000000,0.000000,0.000000,0.000000,0.000000,0.000000,0.000000,1773822649.383150,0.000000
4.000000,852.562589,5928.062609,-6196.641171,-175.707063,-8281.634245,14158.891339,-6962.456639,-15327.753464,10821.552375,14763.237806,-5457.066650,17917.292466,17420.927277,14102.855516,3887.504803,1923.166445,0.286000,-0.226000,0.952000,192.000000,0.000000,0.000000,0.000000,0.000000,0.000000,0.000000,0.000000,0.000000,0.000000,1773822649.383163,0.000000
6.000000,825.002888,5901.553440,-6229.587642,-211.603965,-8307.070530,14132.404522,-6998.040616,-15358.643575,10823.608735,14770.546826,-5445.086115,17925.137928,17435.321800,14114.143147,3892.288076,1933.336488,0.286000,-0.226000,0.953000,192.000000,4.000000,120.000000,124.000000,120.000000,14.500000,104.000000,0.000000,0.000000,0.000000,1773822649.383176,0.000000
8.000000,831.909577,5909.175385,-6218.568232,-203.803206,-8301.192022,14146.061438,-6988.071738,-15347.445351,10813.885726,14746.161073,-5478.077290,17890.157448,17401.727128,14112.891449,3883.123861,1922.451189,0.286000,-0.226000,0.953000,192.000000,0.000000,0.000000,0.000000,0.000000,0.000000,0.000000,0.000000,0.000000,0.000000,1773822649.383188,0.000000
10.000000,843.308967,5918.250193,-6205.201889,-186.905287,-8291.357254,14158.891339,-6970.458564,-15334.548394,10826.425055,14775.106582,-5440.571063,17925.763777,17440.440350,14137.746589,3889.203535,1924.820474,0.286000,-0.226000,0.953000,192.000000,0.000000,0.000000,0.000000,0.000000,0.000000,0.000000,0.000000,0.000000,0.000000,1773822649.383200,0.000000
12.000000,811.256565,5890.154051,-6239.400058,-218.756523,-8324.728408,14118.814661,-7008.031846,-15368.411287,10810.912944,14748.709172,-5470.745918,17899.455774,17406.555105,14083.677719,3884.286151,1919.679573,0.286000,-0.226000,0.953000,192.000000,0.000000,0.000000,0.000000,0.000000,0.000000,0.000000,0.000000,0.000000,0.000000,1773822649.383212,0.000000
14.000000,848.449868,5926.497987,-6199.591601,-177.539906,-8275.599274,14165.507456,-6965.697642,-15329.876879,10816.143252,14754.408867,-5461.201723,17905.580152,17422.134271,14101.939094,3887.594210,1916.930308,0.286000,-0.226000,0.953000,192.000000,0.000000,0.000000,0.000000,0.000000,0.000000,0.000000,0.000000,0.000000,0.000000,1773822649.383225,0.000000
16.000000,823.840597,5901.799309,-6230.235842,-208.944107,-8307.495213,14139.244156,-7000.566363,-15358.487112,10822.491148,14766.501160,-5448.640042,17920.600524,17442.742579,14117.630019,3894.098567,1935.102276,0.288000,-0.226000,0.950500,192.000000,4.500000,8.000000,124.000000,120.000000,14.500000,80.000000,0.000000,0.000000,0.000000,1773822649.383237,0.000000
18.000000,834.837655,5911.365856,-6218.970563,-201.568031,-8294.598257,14151.112932,-6990.955113,-15348.808807,10815.383293,14741.400151,-5481.184182,17889.866875,17405.504573,14092.573713,3885.694311,1929.022602,0.288000,-0.226000,0.950500,192.000000,0.000000,0.000000,0.000000,0.000000,0.000000,0.000000,0.000000,0.000000,0.000000,1773822649.383250,0.000000
20.000000,848.136943,5924.374571,-6203.838432,-186.614714,-8276.292178,14166.535636,-6973.498401,-15332.335571,10825.575689,14768.512817,-5445.466095,17922.187498,17446.475321,14134.416179,3895.618486,1930.833093,0.288000,-0.226000,0.950500,192.000000,0.000000,0.000000,0.000000,0.000000,0.000000,0.000000,0.000000,0.000000,0.000000,1773822649.383262,0.000000
22.000000,825.092295,5903.475690,-6239.422409,-216.521349,-8319.006362,14131.823377,-7008.434177,-15357.905967,10818.199613,14747.479826,-5469.695386,17899.701643,17416.479280,14105.805946,3883.749710,1928.508512,0.288000,-0.226000,0.950500,192.000000,0.000000,0.000000,0.000000,0.000000,0.000000,0.000000,0.000000,0.000000,0.000000,1773822649.383275,0.000000
24.000000,853.948397,5937.070362,-6200.217450,-180.825613,-8279.935513,14172.101220,-6964.892979,-15320.332685,10824.301639,14758.298070,-5456.284339,17915.996065,17424.369445,14112.422062,3878.653512,1920.841863,0.288000,-0.226000,0.950500,192.000000,0.000000,0.000000,0.000000,0.000000,0.000000,0.000000,0.000000,0.000000,0.000000,1773822649.383287,0.000000
26.000000,825.785199,5904.928554,-6231.554595,-211.961593,-8319.408693,14136.919574,-6998.644113,-15350.999278,10826.492110,14765.472980,-5441.062801,17930.211774,17438.786321,14125.162557,3886.476622,1922.495892,0.286000,-0.224000,0.950250,192.000000,4.000000,112.000000,124.500000,8.000000,14.500000,88.000000,0.000000,0.000000,0.000000,1773822649.383300,0.000000
28.000000,835.374097,5911.745836,-6223.172691,-201.657438,-8310.669161,14138.953583,-6988.921105,-15343.354981,10810.801185,14737.265079,-5477.697310,17897.846448,17394.306349,14083.364795,3879.078195,1913.219918,0.286000,-0.224000,0.950250,192.000000,0.000000,0.000000,0.000000,0.000000,0.000000,0.000000,0.000000,0.000000,0.000000,1773822649.383312,0.000000
30.000000,845.030051,5923.636964,-6209.783996,-184.692464,-8291.290199,14159.807761,-6970.950302,-15330.234507,10821.775892,14767.909320,-5440.280490,17933.162204,17433.667771,14133.589164,3883.705006,1920.908918,0.286000,-0.224000,0.950250,192.000000,0.000000,0.000000,0.000000,0.000000,0.000000,0.000000,0.000000,0.000000,0.000000,1773822649.383324,0.000000
32.000000,814.743437,5893.350350,-6246.373802,-218.264785,-8324.683705,14129.163519,-7010.177614,-15364.410325,10806.107319,14742.473035,-5472.757575,17902.920294,17399.290788,14089.645635,3879.592285,1923.255852,0.286000,-0.224000,0.950250,192.000000,0.000000,0.000000,0.000000,0.000000,0.000000,0.000000,0.000000,0.000000,0.000000,1773822649.383336,0.000000
34.000000,850.841504,5933.002345,-6205.827738,-182.703159,-8288.093899,14173.464677,-6968.670424,-15325.361827,10812.254049,14756.532282,-5462.319310,17912.978579,17414.892306,14108.823432,3881.693349,1921.110084,0.286000,-0.224000,0.950250,192.000000,0.000000,0.000000,0.000000,0.000000,0.000000,0.000000,0.000000,0.000000,0.000000,1773822649.383348,0.000000
36.000000,826.031068,5907.230783,-6237.276642,-214.554395,-8315.877118,14140.786426,-7003.919125,-15355.514330,10816.143252,14768.199893,-5448.125952,17928.222469,17424.436501,14124.179080,3882.810936,1926.630965,0.282000,-0.223000,0.952125,192.000000,4.000000,88.000000,124.500000,8.000000,14.500000,104.000000,0.000000,0.000000,0.000000,1773822649.383361,0.000000
38.000000,831.842522,5914.271583,-6228.067723,-200.495148,-8306.154109,14156.298537,-6993.838488,-15345.388990,10805.861450,14740.774303,-5480.893610,17899.031091,17394.954550,14095.144164,3877.379462,1922.540596,0.282000,-0.223000,0.952125,192.000000,0.000000,0.000000,0.000000,0.000000,0.000000,0.000000,0.000000,0.000000,0.000000,1773822649.383373,0.000000
40.000000,851.467353,5930.342487,-6210.946287,-180.825613,-8283.869420,14179.410241,-6974.705395,-15326.077083,10821.597078,14774.123105,-5440.749877,17934.659771,17437.579326,14130.638734,3885.493146,1936.353974,0.282000,-0.223000,0.952125,192.000000,0.000000,0.000000,0.000000,0.000000,0.000000,0.000000,0.000000,0.000000,0.000000,1773822649.383390,0.000000
42.000000,821.873644,5899.966466,-6247.401982,-212.520386,-8324.393132,14143.826263,-7013.597430,-15358.285947,10810.488261,14751.637250,-5470.745918,17910.005797,17407.113899,14105.314208,3877.737090,1936.555140,0.282000,-0.223000,0.952125,192.000000,0.000000,0.000000,0.000000,0.000000,0.000000,0.000000,0.000000,0.000000,0.000000,1773822649.863250,0.000000
44.000000,859.625740,5940.870159,-6205.112482,-168.532153,-8288.786803,14191.658997,-6967.306968,-15312.822498,10813.572802,14765.271814,-5458.698327,17922.612181,17415.160527,14114.724292,3876.843021,1933.425895,0.282000,-0.223000,0.952125,192.000000,0.000000,0.000000,0.000000,0.000000,0.000000,0.000000,0.000000,0.000000,0.000000,1773822649.863318,0.000000
46.000000,832.624833,5911.991705,-6239.221244,-202.819729,-8320.593336,14152.811665,-7003.025055,-15343.734961,10819.741883,14781.856809,-5440.436952,17938.906603,17432.058445,14130.772845,3877.804146,1939.662032,0.282000,-0.220500,0.956063,192.000000,4.000000,104.000000,124.500000,24.000000,15.000000,0.000000,0.000000,0.000000,0.000000,1773822649.863372,0.000000
48.000000,842.660766,5924.553385,-6230.057029,-190.839194,-8318.805196,14158.377249,-6991.223334,-15331.687371,10804.386235,14751.771361,-5477.965531,17902.964998,17387.332605,14103.414309,3874.630198,1927.323869,0.282000,-0.220500,0.956063,192.000000,0.000000,0.000000,0.000000,0.000000,0.000000,0.000000,0.000000,0.000000,0.000000,1773822649.863427,0.000000
50.000000,857.614083,5940.914862,-6213.740255,-175.282380,-8309.529222,14162.177046,-6971.889075,-15315.862336,10822.647610,14789.724623,-5433.619670,17941.834681,17432.907812,14153.370458,3876.641855,1932.062439,0.282000,-0.220500,0.956063,192.000000,0.000000,0.000000,0.000000,0.000000,0.000000,0.000000,0.000000,0.000000,0.000000,1773822649.863492,0.000000
52.000000,827.036897,5908.258964,-6247.938424,-214.710857,-8342.363935,14123.530879,-7010.892869,-15353.301508,10808.744825,14764.042469,-5466.230865,17908.999969,17397.815573,14108.823432,3871.389195,1921.512416,0.282000,-0.220500,0.956063,192.000000,0.000000,0.000000,0.000000,0.000000,0.000000,0.000000,0.000000,0.000000,0.000000,1773822649.863547,0.000000
54.000000,864.654883,5947.530979,-6200.172746,-175.237677,-8290.954923,14170.983633,-6963.998909,-15311.704911,10823.608735,14772.022041,-5453.959758,17915.303161,17418.155660,14118.792310,3877.021834,1916.438570,0.282000,-0.220500,0.956063,192.000000,0.000000,0.000000,0.000000,0.000000,0.000000,0.000000,0.000000,0.000000,0.000000,1773822649.863580,0.000000
56.000000,834.234158,5916.305592,-6231.554595,-208.474721,-8315.720655,14148.073095,-6999.158204,-15346.752447,10832.169453,14786.193047,-5434.424333,17929.071835,17442.921393,14134.170310,3884.844945,1921.937099,0.284000,-0.219250,0.959031,192.000000,4.000000,120.000000,124.500000,24.000000,15.000000,8.000000,0.000000,0.000000,0.000000,1773822649.863597,0.000000
58.000000,837.408106,5919.390132,-6225.698438,-204.719627,-8300.186193,14160.567720,-6992.206811,-15342.930298,10815.092720,14751.927823,-5476.177392,17887.788163,17401.145983,14121.563926,3880.933390,1917.332639,0.284000,-0.219250,0.959031,192.000000,0.000000,0.000000,0.000000,0.000000,0.000000,0.000000,0.000000,0.000000,0.000000,1773822649.863612,0.000000
60.000000,848.628682,5930.409542,-6212.242688,-187.844060,-8288.607989,14177.286825,-6975.890038,-15329.899231,10826.134482,14785.388385,-5440.369897,17919.952323,17443.837815,14142.105179,3888.532983,1923.658183,0.284000,-0.219250,0.959031,192.000000,0.000000,0.000000,0.000000,0.000000,0.000000,0.000000,0.000000,0.000000,0.000000,1773822649.863629,0.000000
62.000000,813.201167,5894.378530,-6250.486523,-219.650593,-8326.851824,14139.422970,-7014.446797,-15367.226644,10806.532002,14755.817027,-5475.126860,17888.883399,17401.838887,14096.239399,3884.643779,1923.166445,0.284000,-0.219250,0.959031,192.000000,0.000000,0.000000,0.000000,0.000000,0.000000,0.000000,0.000000,0.000000,0.000000,1773822649.863646,0.000000
64.000000,850.238007,5933.069400,-6210.029866,-177.718720,-8285.635207,14186.316930,-6970.391508,-15327.753464,10810.287095,14765.450628,-5467.571970,17898.159373,17408.231486,14110.678626,3885.873125,1921.713581,0.284000,-0.219250,0.959031,192.000000,0.000000,0.000000,0.000000,0.000000,0.000000,0.000000,0.000000,0.000000,0.000000,1773822649.863662,0.000000
66.000000,823.348859,5902.961600,-6242.082267,-209.704066,-8318.112292,14154.219825,-7004.522622,-15359.649403,10816.634991,14778.861675,-5451.858694,17918.007722,17428.616277,14141.076999,3886.923657,1932.755343,0.283000,-0.220625,0.957516,192.000000,4.000000,104.000000,124.500000,8.000000,14.500000,112.000000,0.000000,0.000000,0.000000,1773822649.863679,0.000000
68.000000,831.596652,5909.868289,-6231.755761,-201.389218,-8304.656542,14164.523979,-6996.431291,-15351.066333,10797.367787,14744.641154,-5490.035473,17881.239102,17392.182933,14093.333673,3882.207439,1921.758285,0.283000,-0.220625,0.957516,192.000000,0.000000,0.000000,0.000000,0.000000,0.000000,0.000000,0.000000,0.000000,0.000000,1773822649.863696,0.000000
70.000000,853.546066,5933.829359,-6211.192156,-184.156023,-8283.802364,14186.160467,-6975.733575,-15330.368618,10822.580555,14784.382556,-5443.543845,17923.282733,17445.000106,14141.412275,3892.466890,1926.742724,0.283000,-0.220625,0.957516,192.000000,0.000000,0.000000,0.000000,0.000000,0.000000,0.000000,0.000000,0.000000,0.000000,1773822649.863712,0.000000
72.000000,816.889205,5894.914972,-6251.246482,-221.751657,-8322.739103,14148.117798,-7018.090131,-15369.417115,10811.695255,14759.035678,-5473.361072,17894.493686,17412.165393,14109.248115,3888.532983,1927.413276,0.283000,-0.220625,0.957516,192.000000,0.000000,0.000000,0.000000,0.000000,0.000000,0.000000,0.000000,0.000000,0.000000,1773822649.863729,0.000000
74.000000,853.255493,5932.152978,-6206.274772,-184.960685,-8279.600236,14185.065232,-6973.677215,-15330.167452,10814.288058,14762.634309,-5466.946121,17898.002910,17425.196460,14129.230574,3890.946971,1914.382209,0.283000,-0.220625,0.957516,192.000000,0.000000,0.000000,0.000000,0.000000,0.000000,0.000000,0.000000,0.000000,0.000000,1773822649.863744,0.000000
76.000000,829.875568,5905.710865,-6235.264985,-212.967421,-8312.792577,14148.363668,-7006.221355,-15356.900138,10822.044113,14777.408812,-5445.622557,17918.119480,17450.029248,14127.464786,3893.025684,1923.077038,0.283000,-0.220625,0.957516,192.000000,0.000000,0.000000,0.000000,0.000000,0.000000,0.000000,0.000000,0.000000,0.000000,1773822649.863761,0.000000
78.000000,837.877493,5912.528147,-6227.508930,-205.770159,-8300.901449,14152.342278,-6998.934686,-15348.048848,10812.790491,14750.765532,-5480.088947,17885.821210,17409.527887,14084.795306,3887.057768,1910.045971,0.276000,-0.230000,0.948000,192.000000,4.000000,80.000000,124.000000,104.000000,14.500000,80.000000,0.000000,0.000000,0.000000,1773822649.863778,0.000000
80.000000,851.914388,5928.241423,-6211.840357,-187.709950,-8291.804289,14162.199397,-6978.795764,-15331.799129,10825.598040,14786.371861,-5437.732391,17922.545126,17451.057428,14123.240307,3893.942105,1909.621288,0.276000,-0.230000,0.948000,192.000000,0.000000,0.000000,0.000000,0.000000,0.000000,0.000000,0.000000,0.000000,0.000000,1773822649.863794,0.000000
82.000000,815.212824,5893.395054,-6250.978261,-226.020840,-8335.256080,14116.110100,-7018.850090,-15369.126543,10803.156889,14757.091076,-5474.322197,17892.124402,17408.812631,14092.193734,3889.851736,1907.833148,0.276000,-0.230000,0.948000,192.000000,0.000000,0.000000,0.000000,0.000000,0.000000,0.000000,0.000000,0.000000,0.000000,1773822649.863811,0.000000
84.000000,857.569380,5930.610708,-6208.197022,-184.670113,-8295.380568,14169.195493,-6972.336110,-15325.428882,10810.063578,14765.629442,-5462.878104,17905.446041,17419.407358,14109.471632,3885.381387,1902.893412,0.276000,-0.230000,0.948000,192.000000,0.000000,0.000000,0.000000,0.000000,0.000000,0.000000,0.000000,0.000000,0.000000,1773822649.863829,0.000000
86.000000,823.751190,5900.167632,-6242.953985,-213.503863,-8331.076304,14136.584298,-7008.188308,-15359.403534,10814.019837,14777.207646,-5447.254234,17921.293428,17430.739693,14122.122720,3887.281285,1917.444398,0.276000,-0.230000,0.948000,192.000000,0.000000,0.000000,0.000000,0.000000,0.000000,0.000000,0.000000,0.000000,0.000000,1773822649.863844,0.000000
88.000000,831.082562,5905.532051,-6230.414656,-208.921755,-8311.093844,14142.149883,-7001.795709,-15352.899176,10800.832307,14744.305878,-5484.000502,17883.161352,17390.730070,14088.684510,3885.046111,1904.368628,0.276000,-0.234000,0.950000,192.000000,4.000000,80.000000,124.000000,88.000000,14.500000,88.000000,0.000000,0.000000,0.000000,1773822649.863861,0.000000
90.000000,845.007699,5919.658353,-6212.801482,-190.682732,-8290.753757,14160.321851,-6983.266113,-15339.331667,10821.597078,14774.927768,-5443.342679,17918.678274,17441.423826,14120.379283,3895.350265,1915.075113,0.276000,-0.234000,0.950000,192.000000,0.000000,0.000000,0.000000,0.000000,0.000000,0.000000,0.000000,0.000000,0.000000,1773822649.863878,0.000000
92.000000,812.195338,5887.024806,-6250.531226,-227.831331,-8333.847920,14118.144109,-7023.208681,-15375.943825,10806.822575,14747.815102,-5475.350377,17889.486896,17405.817497,14095.837068,3894.433843,1918.785503,0.276000,-0.234000,0.950000,192.000000,0.000000,0.000000,0.000000,0.000000,0.000000,0.000000,0.000000,0.000000,0.000000,1773822649.863893,0.000000
94.000000,850.752097,5924.955717,-6207.437063,-188.179337,-8287.088071,14163.808723,-6978.482840,-15337.029438,10815.740921,14754.744143,-5468.510743,17894.113707,17420.659056,14103.548420,3893.539774,1909.867157,0.276000,-0.234000,0.950000,192.000000,0.000000,0.000000,0.000000,0.000000,0.000000,0.000000,0.000000,0.000000,0.000000,1773822649.863911,0.000000
96.000000,826.455751,5902.268696,-6237.813084,-214.375581,-8318.134644,14137.210147,-7009.149433,-15362.376316,10824.525157,14773.094925,-5449.265891,17914.565553,17438.987486,14117.652371,3892.511593,1919.701924,0.276000,-0.234000,0.950000,192.000000,0.000000,0.000000,0.000000,0.000000,0.000000,0.000000,0.000000,0.000000,0.000000,1773822649.863928,0.000000
98.000000,837.341051,5911.432911,-6226.726619,-204.093779,-8308.031655,14148.900109,-6996.744215,-15347.490054,10815.226831,14750.944346,-5479.239581,17888.883399,17402.174163,14104.956580,3884.241448,1910.895337,0.280000,-0.228000,0.946000,192.000000,4.000000,96.000000,124.000000,112.000000,14.500000,72.000000,0.000000,0.000000,0.000000,1773822649.863944,0.000000
100.000000,851.914388,5927.347353,-6208.040560,-186.100624,-8293.704187,14156.410296,-6975.420651,-15330.167452,10836.058657,14787.467097,-5437.531225,17931.686989,17446.810597,14127.867118,3887.884782,1915.544500,0.280000,-0.228000,0.946000,192.000000,0.000000,0.000000,0.000000,0.000000,0.000000,0.000000,0.000000,0.000000,0.000000,1773822649.863960,0.000000
