Sample_index,EXG Channel 0,EXG Channel 1,EXG Channel 2,EXG Channel 3,EXG Channel 4,EXG Channel 5,EXG Channel 6,EXG Channel 7,EXG Channel 8,EXG Channel 9,EXG Channel 10,EXG Channel 11,EXG Channel 12,EXG Channel 13,EXG Channel 14,EXG Channel 15,Accel Channel 0,Accel Channel 1,Accel Channel 2,Not Used,Digital Channel 0 (D11),Digital Channel 1 (D12),Digital Channel 2 (D13),Digital Channel 3 (D17),Not Used,Digital Channel 4 (D18),Analog Channel 0,Analog Channel 1,Analog Channel 2,Timestamp,Marker Channel
88.000000,24883.057163,24724.516240,2787.597810,677.682540,14331.089178,-7327.639440,10588.021348,-1387.395130,18235.402493,17065.288671,-535.257224,14891.961502,15868.911549,23137.542383,-5569.183000,-7107.810033,-0.008000,-0.022000,1.008000,192.000000,0.000000,0.000000,0.000000,0.000000,0.000000,0.000000,0.000000,0.000000,0.000000,1770901825.348449,101.000000
90.000000,24876.686916,24720.828202,2786.726092,676.453194,14332.497338,-7325.583080,10584.713290,-1391.798424,18242.711513,17076.866874,-550.009376,14883.691357,15898.259389,23124.623075,-5571.686396,-7111.587478,-0.008000,-0.022000,1.008000,192.000000,0.000000,0.000000,0.000000,0.000000,0.000000,0.000000,0.000000,0.000000,0.000000,1770901825.348516,0.000000
92.000000,24877.111599,24718.525972,2786.614333,682.085834,14325.121263,-7311.702646,10588.982473,-1389.697360,18221.969095,17056.727953,-545.762544,14883.780764,15873.672470,23121.493831,-5561.158724,-7102.378559,-0.008000,-0.022000,1.008000,192.000000,0.000000,0.000000,0.000000,0.000000,0.000000,0.000000,0.000000,0.000000,0.000000,1770901825.348564,0.000000
94.000000,24879.391477,24728.852478,2774.946722,681.728206,14332.117359,-7307.142890,10582.791040,-1395.307648,18224.830118,17062.382944,-552.959806,14883.669005,15900.382805,23128.378168,-5571.038195,-7097.729397,-0.008000,-0.020000,1.004000,192.000000,127.500000,96.000000,127.500000,48.000000,15.500000,48.000000,0.000000,0.000000,0.000000,1770901825.348608,0.000000
96.000000,24891.684936,24735.155670,2789.676522,693.284058,14318.013408,-7307.120539,10597.029101,-1375.883982,18242.979734,17083.326528,-543.236797,14894.531953,15905.747224,23148.315924,-5586.036216,-7097.528231,-0.008000,-0.020000,1.004000,192.000000,0.000000,0.000000,0.000000,0.000000,0.000000,0.000000,0.000000,0.000000,0.000000,1770901825.348651,0.000000
98.000000,24893.942463,24741.503565,2782.434557,692.010008,14313.140728,-7323.325553,10595.620942,-1373.492345,18227.400568,17069.557854,-535.100762,14905.730177,15859.345002,23142.102139,-5590.014826,-7100.210440,-0.008000,-0.020000,1.004000,192.000000,0.000000,0.000000,0.000000,0.000000,0.000000,0.000000,0.000000,0.000000,0.000000,1770901825.348695,0.000000
100.000000,24894.165980,24746.510356,2788.827156,692.077064,14315.040626,-7334.903757,10595.620942,-1371.368929,18245.952516,17097.184610,-536.754791,14906.624246,15915.984323,23149.701732,-5604.588163,-7109.844042,-0.008000,-0.020000,1.004000,192.000000,0.000000,0.000000,0.000000,0.000000,0.000000,0.000000,0.000000,0.000000,0.000000,1770901825.348742,0.000000
102.000000,24896.758782,24743.805795,2796.382045,696.703875,14310.726739,-7339.150588,10605.276895,-1362.361176,18240.141063,17086.880456,-525.355402,14913.597991,15875.818238,23143.934982,-5593.725216,-7114.292039,-0.008000,-0.020000,1.004000,192.000000,0.000000,0.000000,0.000000,0.000000,0.000000,0.000000,0.000000,0.000000,0.000000,1770901825.348758,0.000000
104.000000,24902.525533,24754.355819,2793.230449,691.920601,14323.422530,-7341.318708,10598.146689,-1367.256208,18250.176996,17095.731747,-526.852969,14913.285066,15886.010633,23146.348971,-5593.814623,-7120.461121,-0.014000,-0.022000,1.008000,192.000000,127.500000,72.000000,127.500000,40.000000,15.500000,64.000000,0.000000,0.000000,0.000000,1770901825.348773,0.000000
106.000000,24904.090155,24748.186737,2798.930144,697.262668,14320.986190,-7324.040809,10604.718102,-1358.986063,18252.456874,17109.723939,-522.404971,14915.252020,15918.867698,23151.176947,-5590.394806,-7120.952859,-0.014000,-0.022000,1.008000,192.000000,0.000000,0.000000,0.000000,0.000000,0.000000,0.000000,0.000000,0.000000,0.000000,1770901825.348791,0.000000
108.000000,24891.908454,24737.770824,2793.699836,688.321971,14328.809301,-7332.713286,10597.543192,-1369.893714,18235.268382,17085.516999,-522.986117,14910.625209,15884.468363,23145.365494,-5577.363739,-7114.962592,-0.014000,-0.022000,1.008000,192.000000,0.000000,0.000000,0.000000,0.000000,0.000000,0.000000,0.000000,0.000000,0.000000,1770901825.348809,0.000000
110.000000,24882.587776,24731.489984,2791.174089,682.354055,14337.437074,-7334.680240,10591.508221,-1378.141508,18248.679429,17099.777412,-538.587634,14898.108232,15900.516915,23137.631790,-5571.462878,-7120.483472,-0.014000,-0.022000,1.008000,192.000000,0.000000,0.000000,0.000000,0.000000,0.000000,0.000000,0.000000,0.000000,0.000000,1770901825.348823,0.000000
112.000000,24877.536282,24719.330635,2796.113824,681.884668,14333.212594,-7325.963059,10594.235133,-1376.755700,18224.807766,17069.490799,-535.704259,14894.509601,15887.642311,23132.490889,-5556.397802,-7114.582612,-0.014000,-0.022000,1.008000,192.000000,0.000000,0.000000,0.000000,0.000000,0.000000,0.000000,0.000000,0.000000,0.000000,1770901825.348836,0.000000
114.000000,24871.501311,24719.978836,2787.664865,677.146098,14344.299059,-7326.723018,10583.103965,-1390.054988,18236.117749,17065.802761,-542.387431,14884.719537,15884.870694,23126.858250,-5555.459029,-7109.553469,-0.008000,-0.024000,1.006000,192.000000,127.500000,96.000000,127.500000,32.000000,15.500000,56.000000,0.000000,0.000000,0.000000,1770901825.348853,0.000000
116.000000,24873.244747,24715.396728,2789.654170,685.103319,14331.558565,-7307.053483,10590.033005,-1383.930610,18234.441368,17074.385831,-543.728536,14882.126735,15883.998976,23133.317904,-5556.263692,-7102.065635,-0.008000,-0.024000,1.006000,192.000000,0.000000,0.000000,0.000000,0.000000,0.000000,0.000000,0.000000,0.000000,0.000000,1770901825.348870,0.000000
118.000000,24879.257367,24716.849591,2779.394720,686.287962,14334.821920,-7304.035998,10586.143802,-1389.339732,18223.377254,17063.433476,-541.381602,14888.362871,15890.615093,23136.447148,-5560.868151,-7088.341664,-0.008000,-0.024000,1.006000,192.000000,0.000000,0.000000,0.000000,0.000000,0.000000,0.000000,0.000000,0.000000,0.000000,1770901825.348884,0.000000
120.000000,24881.805465,24726.103214,2785.206173,690.177165,14334.330181,-7296.615219,10586.881410,-1387.126909,18239.090531,17084.444116,-551.730460,14885.501848,15891.620921,23148.405331,-5567.439564,-7089.347492,-0.008000,-0.024000,1.006000,192.000000,0.000000,0.000000,0.000000,0.000000,0.000000,0.000000,0.000000,0.000000,0.000000,1770901825.348900,0.000000
122.000000,24898.524570,24734.507469,2788.894211,697.709703,14323.422530,-7290.312027,10596.604418,-1373.022958,18232.921449,17087.707470,-535.860722,14897.929418,15872.912511,23152.473349,-5573.362776,-7087.067614,-0.008000,-0.024000,1.006000,192.000000,0.000000,0.000000,0.000000,0.000000,0.000000,0.000000,0.000000,0.000000,0.000000,1770901825.348915,0.000000
124.000000,24895.507085,24738.553135,2781.741653,688.567840,14324.361303,-7311.859108,10588.021348,-1381.382511,18245.505481,17090.814363,-536.844198,14899.136412,15893.654930,23158.664782,-5583.890448,-7094.443690,-0.008000,-0.024000,1.006000,192.000000,127.500000,96.000000,127.500000,32.000000,15.500000,56.000000,0.000000,0.000000,0.000000,1770901825.348932,0.000000
126.000000,24899.530399,24735.692112,2786.480223,692.434691,14312.716045,-7321.090379,10596.805584,-1373.514697,18244.007915,17096.715223,-539.660518,14895.828354,15894.593703,23152.830977,-5589.120756,-7103.920830,-0.008000,-0.024000,1.006000,192.000000,0.000000,0.000000,0.000000,0.000000,0.000000,0.000000,0.000000,0.000000,0.000000,1770901825.348944,0.000000
128.000000,24901.318538,24738.351970,2784.401510,685.729168,14313.587763,-7336.289565,10594.883334,-1373.112365,18239.358752,17078.364441,-529.691640,14899.784613,15875.550017,23149.589974,-5586.416195,-7108.569993,-0.008000,-0.024000,1.006000,192.000000,0.000000,0.000000,0.000000,0.000000,0.000000,0.000000,0.000000,0.000000,0.000000,1770901825.348962,0.000000
130.000000,24899.463344,24739.514260,2791.464662,684.566877,14322.506109,-7348.448914,10594.056319,-1373.849973,18254.379124,17095.418822,-534.318451,14893.481421,15897.700596,23143.711465,-5589.344274,-7120.706990,-0.008000,-0.024000,1.006000,192.000000,0.000000,0.000000,0.000000,0.000000,0.000000,0.000000,0.000000,0.000000,0.000000,1770901825.348976,0.000000
132.000000,24892.064916,24728.293685,2791.866993,685.505651,14311.441995,-7343.687993,10599.532497,-1374.252304,18235.983638,17082.298348,-527.903501,14896.633017,15880.422697,23132.625000,-5575.843820,-7119.030609,-0.008000,-0.024000,1.006000,192.000000,0.000000,0.000000,0.000000,0.000000,0.000000,0.000000,0.000000,0.000000,0.000000,1770901825.348992,0.000000
134.000000,24882.096038,24728.740719,2780.914638,677.481374,14326.037684,-7353.701574,10589.407157,-1386.903392,18240.856319,17078.207979,-542.610948,14888.273464,15882.657872,23129.428700,-5574.234494,-7119.388237,-0.007000,-0.022000,1.004000,192.000000,127.500000,104.000000,127.500000,48.000000,15.500000,40.000000,0.000000,0.000000,0.000000,1770901825.349006,0.000000
136.000000,24878.631518,24720.783498,2788.916563,680.655322,14322.483757,-7351.265234,10595.173907,-1382.477746,18239.314048,17086.746345,-543.817943,14884.585426,15897.208857,23127.081767,-5569.518276,-7115.811958,-0.007000,-0.022000,1.004000,192.000000,0.000000,0.000000,0.000000,0.000000,0.000000,0.000000,0.000000,0.000000,0.000000,1770901825.349022,0.000000
138.000000,24871.769532,24716.268446,2781.316970,676.877877,14322.550812,-7347.979527,10588.736604,-1389.809118,18216.917600,17061.064191,-544.801419,14885.747717,15874.477133,23122.164383,-5560.823448,-7108.078254,-0.007000,-0.022000,1.004000,192.000000,0.000000,0.000000,0.000000,0.000000,0.000000,0.000000,0.000000,0.000000,0.000000,1770901825.349040,0.000000
140.000000,24877.893910,24720.224705,2781.696949,678.822479,14328.921059,-7335.462551,10586.926113,-1390.792595,18241.102188,17078.163275,-551.417536,14878.662214,15880.646215,23127.953485,-5569.250055,-7109.419359,-0.007000,-0.022000,1.004000,192.000000,0.000000,0.000000,0.000000,0.000000,0.000000,0.000000,0.000000,0.000000,0.000000,1770901825.349058,0.000000
142.000000,24887.885140,24722.348120,2781.607542,690.154814,14321.679094,-7317.648210,10594.793927,-1382.030711,18235.067217,17071.569511,-543.370908,14888.899313,15896.247732,23132.334427,-5570.501753,-7096.343588,-0.007000,-0.022000,1.004000,192.000000,0.000000,0.000000,0.000000,0.000000,0.000000,0.000000,0.000000,0.000000,0.000000,1770901825.349075,0.000000
144.000000,24901.184428,24738.687246,2782.613371,687.003218,14335.693638,-7317.201175,10588.669549,-1382.790671,18235.804824,17086.165200,-541.582768,14892.676758,15866.922243,23137.967067,-5578.838954,-7094.644856,-0.004500,-0.024000,1.006000,192.000000,127.500000,120.000000,127.500000,24.000000,15.500000,64.000000,0.000000,0.000000,0.000000,1770901825.349092,0.000000
146.000000,24909.096945,24740.609496,2793.096339,696.145081,14331.960896,-7307.120539,10599.018407,-1369.714900,18243.516176,17107.712282,-534.161989,14898.689377,15899.421680,23149.724084,-5582.705806,-7097.885859,-0.004500,-0.024000,1.006000,192.000000,0.000000,0.000000,0.000000,0.000000,0.000000,0.000000,0.000000,0.000000,0.000000,1770901825.349106,0.000000
148.000000,24915.154268,24744.722217,2789.229487,690.601848,14334.441940,-7313.870765,10596.492660,-1369.871362,18244.857281,17095.798802,-522.941413,14906.154860,15880.757973,23144.918459,-5580.448279,-7101.193917,-0.004500,-0.024000,1.006000,192.000000,0.000000,0.000000,0.000000,0.000000,0.000000,0.000000,0.000000,0.000000,0.000000,1770901825.349121,0.000000
150.000000,24920.943370,24750.623077,2790.257667,688.321971,14337.951164,-7325.337210,10593.788099,-1369.714900,18260.883482,17113.680197,-529.579881,14902.891505,15921.102872,23152.808625,-5585.365663,-7112.593307,-0.004500,-0.024000,1.006000,192.000000,0.000000,0.000000,0.000000,0.000000,0.000000,0.000000,0.000000,0.000000,0.000000,1770901825.349136,0.000000
152.000000,24923.290303,24754.624039,2795.063292,689.663075,14332.095007,-7333.920280,10600.672436,-1359.880133,18251.406342,17101.587904,-519.320431,14909.239401,15912.564506,23149.478215,-5578.011939,-7117.108359,-0.004500,-0.024000,1.006000,192.000000,0.000000,0.000000,0.000000,0.000000,0.000000,0.000000,0.000000,0.000000,0.000000,1770901825.349154,0.000000
154.000000,24915.176620,24753.819377,2789.005970,681.907020,14340.678077,-7344.179731,10588.937770,-1373.514697,18255.876691,17104.180706,-525.489512,14905.841935,15889.296340,23137.430625,-5575.352082,-7122.182205,-0.007250,-0.025000,1.009000,192.000000,127.500000,88.000000,127.500000,24.000000,15.500000,80.000000,0.000000,0.000000,0.000000,1770901825.349166,0.000000
156.000000,24909.745146,24745.549231,2795.063292,687.964343,14332.877318,-7334.255556,10595.844459,-1366.116269,18256.815464,17112.584962,-528.484646,14903.919685,15914.106776,23146.103102,-5574.390957,-7118.471815,-0.007250,-0.025000,1.009000,192.000000,0.000000,0.000000,0.000000,0.000000,0.000000,0.000000,0.000000,0.000000,0.000000,1770901825.349183,0.000000
158.000000,24902.167905,24741.302400,2784.513269,682.957552,14330.284516,-7346.481961,10588.401328,-1375.593409,18231.580345,17087.908636,-529.423419,14904.724348,15881.026194,23133.787290,-5564.600893,-7113.107397,-0.007250,-0.025000,1.009000,192.000000,0.000000,0.000000,0.000000,0.000000,0.000000,0.000000,0.000000,0.000000,0.000000,1770901825.349197,0.000000
160.000000,24898.055184,24743.179946,2780.892286,682.823441,14327.825824,-7349.253577,10584.847401,-1375.548706,18246.131330,17104.292465,-538.587634,14899.248171,15891.553866,23134.614305,-5574.726233,-7116.013124,-0.007250,-0.025000,1.009000,192.000000,0.000000,0.000000,0.000000,0.000000,0.000000,0.000000,0.000000,0.000000,0.000000,1770901825.349214,0.000000
162.000000,24890.343832,24732.138185,2781.942818,684.745691,14322.908440,-7338.502388,10589.071880,-1376.286313,18225.992409,17089.696776,-536.933605,14900.075185,15865.581139,23128.400520,-5568.423041,-7108.279420,-0.007250,-0.025000,1.009000,192.000000,0.000000,0.000000,0.000000,0.000000,0.000000,0.000000,0.000000,0.000000,0.000000,1770901825.349227,0.000000
164.000000,24884.755896,24736.876754,2773.739728,683.672808,14337.235908,-7335.619013,10581.315825,-1386.210488,18224.897173,17089.205037,-547.215408,14896.498906,15868.084534,23128.311113,-5576.961407,-7103.898478,-0.007625,-0.022500,1.008500,192.000000,127.500000,96.000000,127.500000,48.000000,15.500000,64.000000,0.000000,0.000000,0.000000,1770901825.349244,0.000000
166.000000,24889.986204,24737.435548,2780.936990,691.294753,14334.888975,-7322.744408,10591.508221,-1372.777089,18239.246993,17093.965959,-543.348556,14900.924552,15897.767651,23135.977761,-5577.542553,-7104.591382,-0.007625,-0.022500,1.008500,192.000000,0.000000,0.000000,0.000000,0.000000,0.000000,0.000000,0.000000,0.000000,0.000000,1770901825.349260,0.000000
168.000000,24901.475001,24739.514260,2784.312103,689.327799,14339.895766,-7327.885309,10590.994130,-1372.106537,18226.350036,17084.086488,-537.693565,14910.804023,15868.106886,23135.798947,-5574.636826,-7102.132690,-0.007625,-0.022500,1.008500,192.000000,0.000000,0.000000,0.000000,0.000000,0.000000,0.000000,0.000000,0.000000,0.000000,1770901825.349274,0.000000
170.000000,24915.578951,24746.219784,2786.927257,686.422072,14346.355420,-7327.639440,10590.815317,-1371.391281,18245.706647,17106.661750,-536.620681,14906.847764,15894.951331,23140.693979,-5582.303474,-7112.190975,-0.007625,-0.022500,1.008500,192.000000,0.000000,0.000000,0.000000,0.000000,0.000000,0.000000,0.000000,0.000000,0.000000,1770901825.349288,0.000000
172.000000,24915.511896,24739.849536,2793.073987,688.679598,14334.352533,-7329.807559,10597.140860,-1366.004511,18237.235336,17089.361499,-529.736344,14906.579543,15886.815296,23136.201279,-5575.285026,-7112.123920,-0.007625,-0.022500,1.008500,192.000000,0.000000,0.000000,0.000000,0.000000,0.000000,0.000000,0.000000,0.000000,0.000000,1770901825.349304,0.000000
174.000000,24896.445858,24738.307266,2784.401510,680.565915,14339.113455,-7337.943594,10586.993168,-1374.140546,18237.503557,17087.685119,-529.021088,14902.109194,15897.678244,23137.654142,-5579.889486,-7115.990772,-0.007812,-0.021250,1.007250,192.000000,127.500000,96.000000,127.500000,48.000000,15.500000,56.000000,0.000000,0.000000,0.000000,1770901825.349322,0.000000
176.000000,24895.127105,24734.775690,2788.156603,686.734997,14330.999771,-7337.250690,10595.330369,-1367.300912,18248.835891,17101.945532,-528.998736,14902.980912,15894.012558,23139.531689,-5582.839916,-7116.415455,-0.007812,-0.021250,1.007250,192.000000,0.000000,0.000000,0.000000,0.000000,0.000000,0.000000,0.000000,0.000000,0.000000,1770901825.349334,0.000000
178.000000,24890.522646,24732.227592,2778.590057,681.459985,14327.267030,-7339.441161,10589.004825,-1377.046272,18218.817499,17082.521866,-531.926815,14905.707825,15871.861979,23130.501584,-5573.653349,-7113.554432,-0.007812,-0.021250,1.007250,192.000000,0.000000,0.000000,0.000000,0.000000,0.000000,0.000000,0.000000,0.000000,0.000000,1770901825.349350,0.000000
180.000000,24886.298166,24732.987551,2781.272266,678.978941,14332.340876,-7341.922205,10584.847401,-1382.365988,18242.465644,17099.531543,-546.567207,14898.577618,15902.036834,23138.637619,-5582.079957,-7115.230812,-0.007812,-0.021250,1.007250,192.000000,0.000000,0.000000,0.000000,0.000000,0.000000,0.000000,0.000000,0.000000,0.000000,1770901825.349364,0.000000
182.000000,24886.074649,24726.773766,2785.899077,681.772909,14327.110568,-7345.744353,10593.251657,-1375.861630,18224.897173,17083.594749,-538.051193,14898.577618,15868.553921,23133.831994,-5570.144125,-7113.688542,-0.007812,-0.021250,1.007250,192.000000,0.000000,0.000000,0.000000,0.000000,0.000000,0.000000,0.000000,0.000000,0.000000,1770901825.349382,0.000000
184.000000,24882.565425,24729.523030,2780.579362,674.128613,14336.408894,-7354.752106,10584.735642,-1382.164822,18227.199403,17079.459677,-539.548759,14895.448374,15870.364412,23127.260581,-5574.435660,-7116.795435,-0.007906,-0.021625,1.007625,192.000000,127.500000,96.000000,127.500000,40.000000,15.500000,64.000000,0.000000,0.000000,0.000000,1770901825.349394,0.000000
186.000000,24885.873483,24730.774728,2785.273228,682.108186,14331.938545,-7343.799751,10594.212782,-1369.580790,18234.709589,17092.691909,-537.335937,14896.185982,15895.443069,23128.579334,-5580.627093,-7123.746827,-0.007906,-0.021625,1.007625,192.000000,0.000000,0.000000,0.000000,0.000000,0.000000,0.000000,0.000000,0.000000,0.000000,1770901825.349411,0.000000
188.000000,24895.484733,24733.144013,2781.428728,681.795261,14340.007524,-7341.609280,10591.776442,-1371.123060,18226.372388,17082.030127,-530.161027,14903.919685,15879.640386,23136.469500,-5580.045948,-7117.510690,-0.007906,-0.021625,1.007625,192.000000,0.000000,0.000000,0.000000,0.000000,0.000000,0.000000,0.000000,0.000000,0.000000,1770901825.349439,0.000000
190.000000,24890.679108,24738.575487,2784.513269,685.125671,14346.847158,-7331.305126,10589.004825,-1374.408767,18248.813540,17100.649130,-534.720783,14902.243305,15915.984323,23143.979686,-5584.158669,-7121.176376,-0.007906,-0.021625,1.007625,192.000000,0.000000,0.000000,0.000000,0.000000,0.000000,0.000000,0.000000,0.000000,0.000000,1770901825.349456,0.000000
192.000000,24890.030907,24734.529821,2790.145909,688.321971,14337.817054,-7326.901832,10593.318712,-1371.726557,18232.764987,17094.547104,-531.926815,14905.640770,15905.277837,23149.031180,-5573.698053,-7111.498071,-0.007906,-0.021625,1.007625,192.000000,0.000000,0.000000,0.000000,0.000000,0.000000,0.000000,0.000000,0.000000,0.000000,1770901825.349473,0.000000
194.000000,24888.533341,24738.419025,2783.529792,680.051825,14348.814112,-7333.115617,10583.640407,-1382.008360,18232.452063,17095.038843,-539.101725,14900.008130,15885.585950,23139.777558,-5576.581428,-7111.967458,-0.007953,-0.017812,1.008812,192.000000,127.500000,96.000000,127.500000,72.000000,15.500000,72.000000,0.000000,0.000000,0.000000,1770901825.349487,0.000000
196.000000,24880.151436,24732.048778,2785.653208,687.405549,14336.475949,-7323.996106,10592.067014,-1376.398072,18232.921449,17099.218619,-538.475876,14899.605799,15894.236075,23144.002038,-5579.464803,-7111.028685,-0.007953,-0.017812,1.008812,192.000000,0.000000,0.000000,0.000000,0.000000,0.000000,0.000000,0.000000,0.000000,0.000000,1770901825.349504,0.000000
198.000000,24876.485750,24728.248981,2777.405414,682.823441,14340.074580,-7331.998030,10587.373148,-1381.851897,18214.838888,17078.565607,-539.839332,14899.024653,15870.610281,23142.079788,-5572.312244,-7107.944144,-0.007953,-0.017812,1.008812,192.000000,0.000000,0.000000,0.000000,0.000000,0.000000,0.000000,0.000000,0.000000,0.000000,1770901825.349518,0.000000
200.000000,24879.592643,24734.865097,2778.791222,683.628104,14344.701391,-7335.283737,10584.221552,-1381.069586,18232.474414,17099.263322,-545.628434,14895.537781,15893.677282,23142.191546,-5577.944884,-7112.056865,-0.007953,-0.017812,1.008812,192.000000,0.000000,0.000000,0.000000,0.000000,0.000000,0.000000,0.000000,0.000000,0.000000,1770901825.349536,0.000000
202.000000,24877.938614,24726.349083,2782.233391,684.119843,14333.592574,-7331.349830,10590.815317,-1375.861630,18217.565801,17089.562665,-537.447695,14900.142241,15878.321633,23142.638581,-5567.931303,-7108.726455,-0.007953,-0.017812,1.008812,192.000000,0.000000,0.000000,0.000000,0.000000,0.000000,0.000000,0.000000,0.000000,0.000000,1770901825.349552,0.000000
204.000000,24872.484788,24724.404481,2776.243124,674.754462,14339.806359,-7343.397420,10578.521857,-1388.065682,18216.761138,17088.310967,-544.667309,14893.056738,15883.239017,23137.140052,-5569.384166,-7114.224984,-0.007953,-0.017812,1.008812,192.000000,0.000000,0.000000,0.000000,0.000000,0.000000,0.000000,0.000000,0.000000,0.000000,1770901825.349569,0.000000
206.000000,24880.240843,24727.421966,2782.635722,684.566877,14335.179548,-7334.590833,10588.803660,-1373.000607,18225.455967,17097.966921,-540.509884,14894.688415,15897.655892,23142.191546,-5572.044024,-7117.309525,-0.008000,-0.022000,1.014000,192.000000,127.500000,96.000000,127.500000,40.000000,15.500000,88.000000,0.000000,0.000000,0.000000,1770901825.349586,0.000000
208.000000,24874.697611,24722.258714,2776.757214,678.688369,14332.519690,-7336.647193,10583.595703,-1379.415557,18208.602751,17081.448982,-536.039536,14899.203467,15860.328479,23135.061340,-5566.903122,-7115.007295,-0.008000,-0.022000,1.014000,192.000000,0.000000,0.000000,0.000000,0.000000,0.000000,0.000000,0.000000,0.000000,0.000000,1770901825.349601,0.000000
210.000000,24873.468265,24728.092519,2774.186763,683.404587,14339.001696,-7326.410094,10581.360529,-1381.807194,18228.629914,17099.710357,-550.434059,14894.129621,15896.158325,23152.003962,-5580.537686,-7115.163757,-0.008000,-0.022000,1.014000,192.000000,0.000000,0.000000,0.000000,0.000000,0.000000,0.000000,0.000000,0.000000,0.000000,1770901825.829149,0.000000
212.000000,24874.362335,24730.595914,2778.075967,690.199517,14336.252431,-7315.435388,10588.669549,-1372.419461,18205.361748,17091.127287,-537.782972,14902.600932,15880.377994,23148.450035,-5575.687358,-7105.194879,-0.008000,-0.022000,1.014000,192.000000,0.000000,0.000000,0.000000,0.000000,0.000000,0.000000,0.000000,0.000000,0.000000,1770901825.829217,0.000000
214.000000,24869.757875,24732.451109,2772.577437,682.152889,14342.667382,-7319.503405,10575.750241,-1386.121081,18219.778624,17094.748270,-544.421440,14902.086842,15895.577180,23146.460729,-5577.587256,-7100.053978,-0.008000,-0.022000,1.014000,192.000000,0.000000,0.000000,0.000000,0.000000,0.000000,0.000000,0.000000,0.000000,0.000000,1770901825.829269,0.000000
216.000000,24868.439122,24728.763071,2782.054577,685.550354,14339.247565,-7315.211870,10582.746337,-1378.432081,18223.109033,17098.570418,-544.175571,14895.515429,15880.310938,23149.969953,-5573.809811,-7101.104510,-0.012000,-0.018000,1.008000,192.000000,127.500000,80.000000,127.500000,56.000000,15.500000,64.000000,0.000000,0.000000,0.000000,1770901825.829331,0.000000
218.000000,24868.617936,24723.555115,2779.886458,679.761252,14339.672248,-7329.606394,10581.896970,-1379.326150,18214.213039,17076.799819,-538.632338,14896.789479,15875.214741,23138.950543,-5566.478439,-7100.836289,-0.012000,-0.018000,1.008000,192.000000,0.000000,0.000000,0.000000,0.000000,0.000000,0.000000,0.000000,0.000000,0.000000,1770901825.829378,0.000000
220.000000,24869.847282,24730.707673,2783.730958,680.297694,14345.349591,-7337.965946,10582.500468,-1376.778051,18240.297525,17100.179744,-538.900559,14895.649540,15897.544133,23142.280953,-5572.692224,-7113.688542,-0.012000,-0.018000,1.008000,192.000000,0.000000,0.000000,0.000000,0.000000,0.000000,0.000000,0.000000,0.000000,0.000000,1770901825.829430,0.000000
222.000000,24867.835625,24725.767937,2786.547278,682.577572,14338.331144,-7335.015516,10590.122412,-1370.608970,18226.282981,17088.914465,-532.127980,14900.790441,15889.922189,23150.573450,-5560.823448,-7114.046170,-0.012000,-0.018000,1.008000,192.000000,0.000000,0.000000,0.000000,0.000000,0.000000,0.000000,0.000000,0.000000,0.000000,1770901825.829462,0.000000
224.000000,24864.169939,24729.232458,2779.305313,675.156793,14346.377772,-7347.353679,10580.019424,-1384.891735,18239.045827,17094.524752,-538.654690,14897.191810,15888.692843,23146.170157,-5565.025576,-7118.874147,-0.012000,-0.018000,1.008000,192.000000,0.000000,0.000000,0.000000,0.000000,0.000000,0.000000,0.000000,0.000000,0.000000,1770901825.829480,0.000000
226.000000,24863.409980,24723.309246,2783.239220,679.425976,14337.928812,-7346.236091,10585.741471,-1377.940342,18237.212984,17105.633569,-543.884998,14896.051871,15902.014482,23143.666761,-5562.075145,-7121.422246,-0.012000,-0.018000,1.012000,192.000000,127.500000,80.000000,127.500000,56.000000,15.500000,80.000000,0.000000,0.000000,0.000000,1770901825.829497,0.000000
228.000000,24856.413884,24721.364644,2777.763042,677.570781,14334.307830,-7344.045620,10581.092308,-1383.684741,18213.922467,17082.007776,-540.331070,14896.655368,15859.568520,23140.403407,-5559.839971,-7115.119054,-0.012000,-0.018000,1.012000,192.000000,0.000000,0.000000,0.000000,0.000000,0.000000,0.000000,0.000000,0.000000,0.000000,1770901825.829515,0.000000
230.000000,24857.732637,24730.327693,2774.209115,681.929372,14337.168853,-7340.916376,10580.578218,-1383.640037,18232.876746,17102.124346,-550.501114,14894.844877,15896.247732,23148.025352,-5574.748585,-7113.509728,-0.012000,-0.018000,1.012000,192.000000,0.000000,0.000000,0.000000,0.000000,0.000000,0.000000,0.000000,0.000000,0.000000,1770901825.829530,0.000000
232.000000,24857.106788,24726.796118,2778.254781,687.696122,14327.714065,-7325.940707,10588.378976,-1376.599238,18221.142080,17093.585979,-542.096858,14903.271485,15880.601511,23151.534575,-5572.982797,-7104.591382,-0.012000,-0.018000,1.012000,192.000000,0.000000,0.000000,0.000000,0.000000,0.000000,0.000000,0.000000,0.000000,0.000000,1770901825.829548,0.000000
234.000000,24850.870651,24728.025464,2770.409318,684.991561,14340.365152,-7319.458702,10577.314863,-1388.780938,18227.869955,17092.826020,-545.650786,14900.768089,15871.258482,23151.914555,-5579.598913,-7095.673036,-0.012000,-0.018000,1.012000,192.000000,0.000000,0.000000,0.000000,0.000000,0.000000,0.000000,0.000000,0.000000,0.000000,1770901825.829566,0.000000
236.000000,24850.378913,24726.080862,2774.186763,690.333628,14336.833577,-7305.421806,10585.115622,-1379.817889,18231.066255,17104.270113,-546.835428,14899.315226,15924.075654,23160.452921,-5577.833125,-7089.280437,-0.010000,-0.020000,1.010000,192.000000,127.500000,88.000000,127.500000,48.000000,15.500000,72.000000,0.000000,0.000000,0.000000,1770901825.829584,0.000000
238.000000,24842.980485,24720.671740,2776.198420,681.504688,14334.017257,-7323.079684,10581.047604,-1386.299895,18215.196516,17084.086488,-543.505018,14900.455165,15868.330403,23146.058398,-5571.865210,-7088.945161,-0.010000,-0.020000,1.010000,192.000000,0.000000,0.000000,0.000000,0.000000,0.000000,0.000000,0.000000,0.000000,0.000000,1770901825.829601,0.000000
240.000000,24846.892041,24724.829164,2777.785394,682.376406,14341.996830,-7329.092303,10581.204066,-1383.930610,18231.088606,17100.023282,-552.311605,14896.118927,15881.786154,23144.270258,-5572.871038,-7099.696350,-0.010000,-0.020000,1.010000,192.000000,0.000000,0.000000,0.000000,0.000000,0.000000,0.000000,0.000000,0.000000,0.000000,1770901825.829632,0.000000
242.000000,24858.090265,24726.170269,2780.065272,685.460947,14334.374885,-7328.198234,10589.228343,-1372.777089,18220.471528,17097.452831,-538.095896,14904.433775,15875.639424,23150.819320,-5563.393898,-7105.753673,-0.010000,-0.020000,1.010000,192.000000,0.000000,0.000000,0.000000,0.000000,0.000000,0.000000,0.000000,0.000000,0.000000,1770901825.829650,0.000000
244.000000,24859.677238,24732.071129,2780.579362,674.687406,14346.087199,-7343.755048,10579.482982,-1382.634209,18235.044865,17101.319683,-540.107553,14904.456127,15884.557770,23150.774616,-5564.891465,-7116.951897,-0.010000,-0.020000,1.010000,192.000000,0.000000,0.000000,0.000000,0.000000,0.000000,0.000000,0.000000,0.000000,0.000000,1770901825.829667,0.000000
246.000000,24860.705419,24725.522068,2786.681388,678.487203,14344.030838,-7344.939690,10587.283741,-1378.141508,18236.005990,17103.130174,-539.951091,14897.907066,15919.180622,23156.340200,-5560.890503,-7121.757522,-0.008000,-0.018000,1.014000,192.000000,127.500000,96.000000,127.500000,56.000000,15.500000,88.000000,0.000000,0.000000,0.000000,1770901825.829685,0.000000
248.000000,24856.346829,24721.834030,2779.461775,676.520249,14343.069713,-7350.617033,10583.975683,-1385.428177,18226.327685,17080.398450,-536.575977,14898.465860,15863.703592,23143.555003,-5561.695166,-7118.471815,-0.008000,-0.018000,1.014000,192.000000,0.000000,0.000000,0.000000,0.000000,0.000000,0.000000,0.000000,0.000000,0.000000,1770901825.829709,0.000000
250.000000,24859.140797,24726.974932,2776.645455,678.621313,14343.270879,-7348.024231,10581.941674,-1386.121081,18241.191595,17099.665654,-549.405879,14894.196677,15902.573276,23148.338276,-5574.145087,-7120.058789,-0.008000,-0.018000,1.014000,192.000000,0.000000,0.000000,0.000000,0.000000,0.000000,0.000000,0.000000,0.000000,0.000000,1770901825.829726,0.000000
252.000000,24863.432331,24719.509449,2781.428728,685.662113,14334.240774,-7336.647193,10590.703558,-1376.286313,18230.820385,17089.629720,-536.732440,14900.499868,15875.885293,23151.422817,-5573.832163,-7112.235679,-0.008000,-0.018000,1.014000,192.000000,0.000000,0.000000,0.000000,0.000000,0.000000,0.000000,0.000000,0.000000,0.000000,1770901825.829744,0.000000
254.000000,24859.453721,24720.738795,2774.052653,678.956590,14342.935603,-7341.072838,10580.555866,-1387.506889,18237.704723,17088.869761,-539.705222,14896.498906,15890.771555,23148.405331,-5578.481326,-7108.368827,-0.008000,-0.018000,1.014000,192.000000,0.000000,0.000000,0.000000,0.000000,0.000000,0.000000,0.000000,0.000000,0.000000,1770901825.829762,0.000000
0.000000,24860.325439,24720.068243,2779.305313,688.076101,14338.621716,-7321.582117,10587.328444,-1379.057929,18244.276135,17101.856125,-540.196960,14897.214162,15901.589799,23154.105026,-5581.431756,-7101.819766,-0.006000,-0.022000,1.014000,192.000000,127.500000,104.000000,127.500000,40.000000,15.500000,88.000000,0.000000,0.000000,0.000000,1770901825.829779,0.000000
2.000000,24853.016419,24712.312187,2776.600751,681.638799,14343.002658,-7325.136045,10582.545171,-1388.736235,18228.026417,17085.628758,-537.134771,14901.326883,15872.197255,23151.847500,-5572.982797,-7091.962646,-0.006000,-0.022000,1.014000,192.000000,0.000000,0.000000,0.000000,0.000000,0.000000,0.000000,0.000000,0.000000,0.000000,1770901825.829796,0.000000
4.000000,24850.535375,24718.749490,2770.632836,678.397796,14354.245586,-7320.732751,10578.275988,-1394.011246,18244.946688,17097.117555,-551.439887,14888.541685,15915.000846,23150.193471,-5572.178134,-7096.522402,-0.006000,-0.022000,1.014000,192.000000,0.000000,0.000000,0.000000,0.000000,0.000000,0.000000,0.000000,0.000000,0.000000,1770901825.829814,0.000000
6.000000,24850.691837,24710.121716,2784.915600,677.928409,14346.802455,-7319.771626,10585.585008,-1386.366950,18222.304371,17085.561703,-543.616777,14892.185020,15891.933846,23158.754189,-5556.330747,-7096.030664,-0.006000,-0.022000,1.014000,192.000000,0.000000,0.000000,0.000000,0.000000,0.000000,0.000000,0.000000,0.000000,0.000000,1770901825.829831,0.000000
8.000000,24843.136948,24708.087708,2780.981693,668.987712,14350.646955,-7332.310955,10575.146744,-1397.207546,18219.063368,17076.017508,-546.902483,14885.032461,15879.014537,23143.510299,-5550.943977,-7107.206536,-0.006000,-0.022000,1.014000,192.000000,0.000000,0.000000,0.000000,0.000000,0.000000,0.000000,0.000000,0.000000,0.000000,1770901825.829849,0.000000
10.000000,24851.474148,24715.240266,2787.486051,679.358921,14346.087199,-7317.447045,10586.344968,-1381.114290,18232.988505,17089.048575,-544.108515,14886.641787,15896.225380,23153.434474,-5551.413363,-7108.324123,-0.006000,-0.020000,1.012000,192.000000,127.500000,104.000000,127.500000,48.000000,15.500000,80.000000,0.000000,0.000000,0.000000,1770901825.829866,0.000000
12.000000,24860.638363,24721.655216,2780.847583,679.984770,14337.437074,-7321.760931,10583.640407,-1381.114290,18224.181917,17085.896979,-532.664422,14900.008130,15874.790058,23153.970916,-5550.184017,-7105.463100,-0.006000,-0.020000,1.012000,192.000000,0.000000,0.000000,0.000000,0.000000,0.000000,0.000000,0.000000,0.000000,0.000000,1770901825.829884,0.000000
14.000000,24861.800654,24723.242190,2776.623103,681.594095,14329.993943,-7328.041771,10581.137011,-1383.729444,18240.006952,17110.193325,-542.566245,14900.164592,15901.589799,23170.377096,-5567.573675,-7109.844042,-0.006000,-0.020000,1.012000,192.000000,0.000000,0.000000,0.000000,0.000000,0.000000,0.000000,0.000000,0.000000,0.000000,1770901825.829901,0.000000
16.000000,24864.706381,24719.643559,2776.667807,685.907982,14310.614981,-7327.907661,10587.306093,-1377.180383,18222.974923,17099.464488,-541.381602,14903.696168,15883.037851,23163.202186,-5569.115945,-7107.720626,-0.006000,-0.020000,1.012000,192.000000,0.000000,0.000000,0.000000,0.000000,0.000000,0.000000,0.000000,0.000000,0.000000,1770901825.829918,0.000000
18.000000,24872.641250,24731.892315,2771.213981,681.549392,14314.034797,-7336.893062,10581.516991,-1379.124985,18228.808728,17094.480049,-540.778105,14904.746700,15880.601511,23165.929099,-5581.610570,-7110.335780,-0.006000,-0.020000,1.012000,192.000000,0.000000,0.000000,0.000000,0.000000,0.000000,0.000000,0.000000,0.000000,0.000000,1770901825.829935,0.000000
20.000000,24870.942518,24724.091557,2777.070138,685.103319,14308.692731,-7336.222510,10588.289569,-1370.586618,18240.453987,17107.689930,-538.542931,14903.316188,15888.424622,23164.431532,-5587.936114,-7111.118091,-0.007000,-0.019000,1.011000,192.000000,127.500000,96.000000,127.500000,56.000000,15.500000,72.000000,0.000000,0.000000,0.000000,1770901825.829953,0.000000
22.000000,24871.009573,24725.387958,2772.309217,680.498860,14308.133937,-7345.498484,10584.914456,-1373.358235,18220.762100,17080.599616,-535.592501,14905.305494,15879.059241,23164.655049,-5585.276256,-7107.385350,-0.007000,-0.019000,1.011000,192.000000,0.000000,0.000000,0.000000,0.000000,0.000000,0.000000,0.000000,0.000000,0.000000,1770901825.829971,0.000000
24.000000,24867.567404,24731.847612,2775.326702,679.984770,14324.920097,-7345.654946,10579.684148,-1378.208563,18246.310144,17103.912485,-540.912216,14903.450299,15890.905665,23165.683230,-5587.980817,-7112.235679,-0.007000,-0.019000,1.011000,192.000000,0.000000,0.000000,0.000000,0.000000,0.000000,0.000000,0.000000,0.000000,0.000000,1770901825.829993,0.000000
26.000000,24863.320573,24723.376301,2777.718339,682.599924,14329.591612,-7331.483940,10585.450898,-1375.146374,18235.089569,17092.133116,-536.397163,14904.992569,15869.939729,23168.164273,-5573.899218,-7103.697312,-0.007000,-0.019000,1.011000,192.000000,0.000000,0.000000,0.000000,0.000000,0.000000,0.000000,0.000000,0.000000,0.000000,1770901825.830011,0.000000
28.000000,24855.922145,24721.565809,2775.326702,674.285075,14347.048324,-7332.176844,10574.319729,-1389.362084,18234.486071,17089.249741,-546.589559,14896.610665,15885.518895,23166.867872,-5562.790401,-7100.545716,-0.007000,-0.019000,1.011000,192.000000,0.000000,0.000000,0.000000,0.000000,0.000000,0.000000,0.000000,0.000000,0.000000,1770901825.830028,0.000000
30.000000,24861.957116,24717.453088,2779.573533,681.124709,14354.200882,-7322.878518,10580.444107,-1381.740139,18246.511310,17096.491706,-546.231931,14893.928456,15926.176718,23168.968936,-5548.485285,-7100.053978,-0.007500,-0.018500,1.010500,192.000000,127.500000,96.000000,127.500000,56.000000,15.500000,72.000000,0.000000,0.000000,0.000000,1770901825.830045,0.000000
32.000000,24856.905622,24710.456992,2782.456909,675.246200,14356.301946,-7327.438274,10577.538380,-1388.736235,18233.659057,17078.900883,-540.688698,14895.314264,15870.990261,23165.727933,-5539.365773,-7096.276533,-0.007500,-0.018500,1.010500,192.000000,0.000000,0.000000,0.000000,0.000000,0.000000,0.000000,0.000000,0.000000,0.000000,1770901825.830063,0.000000
34.000000,24854.581041,24714.480306,2779.506478,676.274380,14361.196978,-7330.723981,10575.213799,-1392.781900,18241.370409,17091.261398,-552.803344,14884.272502,15916.364302,23164.252718,-5542.942052,-7104.859603,-0.007500,-0.018500,1.010500,192.000000,0.000000,0.000000,0.000000,0.000000,0.000000,0.000000,0.000000,0.000000,0.000000,1770901825.830080,0.000000
36.000000,24860.303087,24711.574580,2781.764004,676.520249,14348.501187,-7331.819216,10583.394537,-1383.103595,18229.434577,17078.275034,-545.159047,14889.033424,15885.831819,23157.189567,-5537.309413,-7104.323161,-0.007500,-0.018500,1.010500,192.000000,0.000000,0.000000,0.000000,0.000000,0.000000,0.000000,0.000000,0.000000,0.000000,1770901825.830096,0.000000
38.000000,24856.726808,24718.414213,2772.488030,674.195668,14349.596423,-7349.566501,10575.571427,-1390.323209,18235.514252,17081.761906,-548.243588,14889.301644,15885.787116,23154.954392,-5551.435715,-7107.117129,-0.007500,-0.018500,1.010500,192.000000,0.000000,0.000000,0.000000,0.000000,0.000000,0.000000,0.000000,0.000000,0.000000,1770901825.830116,0.000000
40.000000,24857.196195,24720.716443,2780.467603,682.443462,14329.636315,-7341.743391,10584.243904,-1381.717787,18242.532699,17098.995101,-546.187228,14892.207371,15896.247732,23158.977706,-5564.489134,-7112.705065,-0.007750,-0.018250,1.010250,192.000000,127.500000,96.000000,127.500000,56.000000,15.500000,72.000000,0.000000,0.000000,0.000000,1770901825.830182,0.000000
42.000000,24857.754988,24717.363681,2775.147888,677.459023,14322.550812,-7350.035888,10581.382880,-1384.355293,18230.574516,17078.409145,-541.091030,14896.364796,15860.194368,23159.983535,-5567.350157,-7106.826557,-0.007750,-0.018250,1.010250,192.000000,0.000000,0.000000,0.000000,0.000000,0.000000,0.000000,0.000000,0.000000,0.000000,1770901825.830201,0.000000
44.000000,24855.452759,24717.207219,2768.777641,674.307427,14321.008542,-7354.707403,10576.778421,-1386.232839,18250.422865,17092.691909,-548.891789,14892.319130,15910.485793,23151.802796,-5580.448279,-7114.493205,-0.007750,-0.018250,1.010250,192.000000,0.000000,0.000000,0.000000,0.000000,0.000000,0.000000,0.000000,0.000000,0.000000,1770901825.830218,0.000000
46.000000,24856.883270,24707.774783,2774.320874,674.016854,14307.932771,-7354.595644,10582.522819,-1380.622552,18224.405435,17075.570473,-544.399088,14893.012034,15893.677282,23147.578317,-5579.330692,-7113.532080,-0.007750,-0.018250,1.010250,192.000000,0.000000,0.000000,0.000000,0.000000,0.000000,0.000000,0.000000,0.000000,0.000000,1770901825.830235,0.000000
48.000000,24853.865785,24715.128507,2765.961321,668.250104,14322.170832,-7354.819161,10572.062203,-1392.603087,18231.915621,17072.575339,-554.770297,14887.647615,15857.579214,23148.114759,-5580.582390,-7114.381446,-0.007750,-0.018250,1.010250,192.000000,0.000000,0.000000,0.000000,0.000000,0.000000,0.000000,0.000000,0.000000,0.000000,1770901825.830253,0.000000
50.000000,24856.302125,24709.361757,2773.918542,673.815688,14325.724760,-7337.965946,10579.281816,-1387.886868,18239.425807,17091.730784,-551.439887,14884.965406,15894.683110,23153.568584,-5574.592122,-7110.402836,-0.008875,-0.019125,1.007125,192.000000,127.500000,88.000000,127.500000,48.000000,15.500000,48.000000,0.000000,0.000000,0.000000,1770901825.830268,0.000000
52.000000,24854.134006,24707.283045,2772.219810,667.780717,14337.861757,-7344.939690,10574.163267,-1392.871307,18224.606600,17062.114723,-547.841257,14882.886694,15855.768723,23149.388808,-5558.431811,-7104.323161,-0.008875,-0.019125,1.007125,192.000000,0.000000,0.000000,0.000000,0.000000,0.000000,0.000000,0.000000,0.000000,0.000000,1770901825.830286,0.000000
54.000000,24855.497462,24717.095461,2769.671711,674.665055,14350.736362,-7335.663716,10572.129258,-1390.054988,18247.226566,17083.639453,-554.099745,14881.858514,15899.220514,23149.478215,-5556.442506,-7105.507804,-0.008875,-0.019125,1.007125,192.000000,0.000000,0.000000,0.000000,0.000000,0.000000,0.000000,0.000000,0.000000,0.000000,1770901825.830301,0.000000
56.000000,24852.681142,24706.836010,2778.143022,680.923543,14345.841330,-7323.996106,10580.131183,-1384.243534,18231.669752,17080.666671,-548.355347,14892.140316,15898.169982,23154.887337,-5548.015898,-7094.466042,-0.008875,-0.019125,1.007125,192.000000,0.000000,0.000000,0.000000,0.000000,0.000000,0.000000,0.000000,0.000000,0.000000,1770901825.830322,0.000000
58.000000,24851.451796,24715.508487,2770.744594,676.162622,14353.575033,-7334.032039,10573.179790,-1391.284334,18219.935086,17076.218674,-554.725594,14888.161706,15875.371203,23156.787235,-5550.519294,-7095.740091,-0.008875,-0.019125,1.007125,192.000000,0.000000,0.000000,0.000000,0.000000,0.000000,0.000000,0.000000,0.000000,0.000000,1770901825.830340,0.000000
60.000000,24856.637401,24720.358815,2778.455946,683.561049,14341.661554,-7322.789111,10583.618055,-1378.722653,18238.308220,17094.636511,-550.925797,14892.252075,15884.758936,23161.995192,-5557.046003,-7097.438824,-0.008438,-0.016563,1.006563,192.000000,127.500000,96.000000,127.500000,72.000000,15.500000,56.000000,0.000000,0.000000,0.000000,1770901825.830358,0.000000
62.000000,24866.360410,24727.779594,2776.623103,679.336569,14345.416647,-7331.014553,10581.293473,-1379.594371,18230.753330,17083.527694,-539.839332,14902.377415,15879.819200,23162.241061,-5553.894407,-7098.154080,-0.008438,-0.016563,1.006563,192.000000,0.000000,0.000000,0.000000,0.000000,0.000000,0.000000,0.000000,0.000000,0.000000,1770901825.830375,0.000000
64.000000,24862.672372,24728.137222,2778.567705,674.553296,14357.754810,-7340.581100,10578.723023,-1378.767357,18253.350944,17102.973712,-545.494323,14899.918723,15909.971703,23159.268279,-5560.711689,-7105.999542,-0.008438,-0.016563,1.006563,192.000000,0.000000,0.000000,0.000000,0.000000,0.000000,0.000000,0.000000,0.000000,0.000000,1770901825.830389,0.000000
66.000000,24862.381800,24717.900123,2785.675560,675.335607,14347.204786,-7345.051449,10587.328444,-1371.570095,18248.545319,17087.483953,-530.764524,14900.589275,15886.502372,23156.474311,-5557.023651,-7111.363961,-0.008438,-0.016563,1.006563,192.000000,0.000000,0.000000,0.000000,0.000000,0.000000,0.000000,0.000000,0.000000,0.000000,1770901825.830406,0.000000
68.000000,24848.747235,24705.919588,2773.359749,665.098508,14349.484664,-7356.048507,10575.392613,-1390.725540,18237.995295,17073.245892,-543.661480,14890.776860,15884.557770,23144.002038,-5562.499829,-7114.426150,-0.008438,-0.016563,1.006563,192.000000,0.000000,0.000000,0.000000,0.000000,0.000000,0.000000,0.000000,0.000000,0.000000,1770901825.830424,0.000000
70.000000,24849.730712,24706.970120,2777.807746,671.401700,14343.315583,-7349.454743,10581.896970,-1382.209525,18240.901022,17083.661805,-550.702280,14885.367737,15910.843421,23148.025352,-5565.673776,-7114.426150,-0.009219,-0.016281,1.006281,192.000000,127.500000,88.000000,127.500000,64.000000,15.500000,56.000000,0.000000,0.000000,0.000000,1770901825.830440,0.000000
72.000000,24854.134006,24709.026481,2773.158583,668.227752,14341.505091,-7353.098077,10578.521857,-1386.143432,18231.021551,17070.273110,-541.471009,14892.609703,15868.196293,23142.459767,-5564.243265,-7110.648705,-0.009219,-0.016281,1.006281,192.000000,0.000000,0.000000,0.000000,0.000000,0.000000,0.000000,0.000000,0.000000,0.000000,1770901825.830458,0.000000
74.000000,24853.150529,24711.619283,2775.416109,668.540677,14346.422475,-7353.299243,10576.621959,-1387.372778,18252.613336,17089.719127,-549.629396,14885.278330,15887.664662,23147.198337,-5567.685433,-7114.113225,-0.009219,-0.016281,1.006281,192.000000,0.000000,0.000000,0.000000,0.000000,0.000000,0.000000,0.000000,0.000000,0.000000,1770901826.309537,0.000000
76.000000,24856.749160,24705.897237,2781.384025,674.620351,14340.543966,-7349.544150,10583.863924,-1379.393206,18233.301429,17072.776505,-540.643995,14893.324958,15896.068918,23142.191546,-5557.940073,-7108.480586,-0.009219,-0.016281,1.006281,192.000000,0.000000,0.000000,0.000000,0.000000,0.000000,0.000000,0.000000,0.000000,0.000000,1770901826.309603,0.000000
78.000000,24854.536337,24708.110059,2769.828173,670.194706,14358.090086,-7353.165132,10571.279892,-1393.541860,18244.298487,17071.927139,-546.589559,14889.212238,15878.813372,23142.459767,-5554.453201,-7107.161833,-0.009219,-0.016281,1.006281,192.000000,0.000000,0.000000,0.000000,0.000000,0.000000,0.000000,0.000000,0.000000,0.000000,1770901826.309656,0.000000
80.000000,24859.476073,24708.177115,2782.367502,676.207325,14355.787856,-7338.211815,10581.069956,-1383.036540,18247.628897,17094.837677,-548.757678,14889.256941,15927.786044,23155.021448,-5552.977985,-7105.418397,-0.009219,-0.016281,1.006281,192.000000,0.000000,0.000000,0.000000,0.000000,0.000000,0.000000,0.000000,0.000000,0.000000,1770901826.309702,0.000000
82.000000,24854.290468,24708.154763,2777.763042,672.832212,14352.457446,-7339.530568,10577.337215,-1387.998627,18227.847603,17072.038898,-538.520579,14894.263732,15862.027211,23140.649276,-5547.345346,-7101.417434,-0.008000,-0.016000,1.004000,192.000000,127.500000,96.000000,127.500000,64.000000,15.500000,48.000000,0.000000,0.000000,0.000000,1770901826.309759,0.000000
84.000000,24851.094169,24708.043004,2771.683368,667.914828,14362.225158,-7336.557786,10570.944616,-1395.821738,18241.750388,17087.618063,-552.423364,14885.300682,15910.731663,23139.956372,-5556.107230,-7106.290115,-0.008000,-0.016000,1.004000,192.000000,0.000000,0.000000,0.000000,0.000000,0.000000,0.000000,0.000000,0.000000,0.000000,1770901826.309813,0.000000
86.000000,24852.055294,24701.181018,2779.707644,670.194706,14351.943356,-7332.154492,10579.505334,-1388.266848,18226.685313,17084.734688,-548.198885,14888.720499,15891.687976,23145.209032,-5550.943977,-7101.797414,-0.008000,-0.016000,1.004000,192.000000,0.000000,0.000000,0.000000,0.000000,0.000000,0.000000,0.000000,0.000000,0.000000,1770901826.309832,0.000000
88.000000,24844.925087,24702.522123,2769.269379,663.153906,14359.140618,-7341.028135,10568.709441,-1399.353313,18235.290734,17083.482991,-550.724632,14886.753546,15874.544188,23140.202241,-5555.369622,-7108.212365,-0.008000,-0.016000,1.004000,192.000000,0.000000,0.000000,0.000000,0.000000,0.000000,0.000000,0.000000,0.000000,0.000000,1770901826.309862,0.000000
90.000000,24840.901773,24697.448277,2770.364615,669.814726,14352.725667,-7335.708420,10575.839648,-1394.793558,18240.342228,17098.704529,-557.117231,14884.116040,15905.791927,23150.416988,-5559.236474,-7109.106434,-0.008000,-0.016000,1.004000,192.000000,0.000000,0.000000,0.000000,0.000000,0.000000,0.000000,0.000000,0.000000,0.000000,1770901826.309880,0.000000
92.000000,24835.984389,24690.630995,2768.576475,663.757403,14346.221309,-7347.018402,10573.112735,-1400.023866,18216.783490,17076.151618,-555.418498,14887.200581,15871.683165,23136.983590,-5556.174285,-7105.664266,-0.006000,-0.018000,1.000000,192.000000,127.500000,104.000000,127.500000,56.000000,15.500000,32.000000,0.000000,0.000000,0.000000,1770901826.309898,0.000000
94.000000,24828.854183,24688.574635,2764.821382,662.617464,14348.814112,-7352.606339,10570.654043,-1406.349409,18229.769853,17084.377060,-568.561324,14878.773973,15883.708404,23132.490889,-5561.672814,-7110.201670,-0.006000,-0.018000,1.000000,192.000000,0.000000,0.000000,0.000000,0.000000,0.000000,0.000000,0.000000,0.000000,0.000000,1770901826.309915,0.000000
96.000000,24832.072834,24684.685431,2768.710586,667.534848,14337.861757,-7347.040754,10579.482982,-1397.967505,18207.373405,17069.423743,-561.967559,14880.316243,15884.222494,23129.607514,-5555.034346,-7107.765330,-0.006000,-0.018000,1.000000,192.000000,0.000000,0.000000,0.000000,0.000000,0.000000,0.000000,0.000000,0.000000,0.000000,1770901826.309933,0.000000
98.000000,24838.443081,24694.877827,2759.121687,665.500839,14344.857853,-7351.756972,10569.581159,-1403.108406,18217.722263,17073.894092,-563.710995,14883.758412,15857.109828,23126.210049,-5559.750564,-7105.865432,-0.006000,-0.018000,1.000000,192.000000,0.000000,0.000000,0.000000,0.000000,0.000000,0.000000,0.000000,0.000000,0.000000,1770901826.309950,0.000000
100.000000,24841.594677,24698.342347,2766.654225,673.793337,14338.375847,-7345.654946,10577.694843,-1388.579773,18227.109996,17092.356633,-560.559399,14885.345386,15890.324520,23139.710503,-5567.908951,-7103.742016,-0.006000,-0.018000,1.000000,192.000000,0.000000,0.000000,0.000000,0.000000,0.000000,0.000000,0.000000,0.000000,0.000000,1770901826.309968,0.000000
102.000000,24842.868727,24700.242245,2765.849562,671.245238,14341.683905,-7345.140856,10577.404270,-1387.529241,18215.621199,17078.744421,-550.456411,14893.056738,15856.394572,23133.183793,-5562.924512,-7102.602077,-0.006000,-0.018000,1.004000,192.000000,127.500000,104.000000,127.500000,56.000000,15.500000,48.000000,0.000000,0.000000,0.000000,1770901826.309985,0.000000
104.000000,24844.455700,24706.120754,2763.949664,670.664092,14345.506054,-7343.665641,10575.616130,-1388.043331,18233.904926,17099.643302,-557.094879,14892.229723,15901.634503,23148.226517,-5570.054718,-7105.440748,-0.006000,-0.018000,1.004000,192.000000,0.000000,0.000000,0.000000,0.000000,0.000000,0.000000,0.000000,0.000000,0.000000,1770901826.310003,0.000000
106.000000,24851.831776,24705.785478,2768.218847,674.843869,14342.645030,-7337.205987,10582.813392,-1378.052101,18227.020589,17101.207924,-546.701318,14899.538743,15912.743320,23147.108930,-5566.903122,-7103.809071,-0.006000,-0.018000,1.004000,192.000000,0.000000,0.000000,0.000000,0.000000,0.000000,0.000000,0.000000,0.000000,0.000000,1770901826.310020,0.000000
108.000000,24852.949363,24708.691205,2771.303388,666.730185,14351.250452,-7343.352716,10573.716232,-1389.026807,18230.932144,17091.395508,-550.277597,14895.627188,15883.306072,23151.422817,-5563.304491,-7105.641914,-0.006000,-0.018000,1.004000,192.000000,0.000000,0.000000,0.000000,0.000000,0.000000,0.000000,0.000000,0.000000,0.000000,1770901826.310038,0.000000
110.000000,24848.590773,24700.711632,2776.623103,671.535810,14347.227138,-7339.262347,10580.041776,-1381.337807,18239.202289,17106.013549,-547.282463,14892.386185,15898.035872,23155.110855,-5560.622282,-7106.737150,-0.006000,-0.018000,1.004000,192.000000,0.000000,0.000000,0.000000,0.000000,0.000000,0.000000,0.000000,0.000000,0.000000,1770901826.310055,0.000000
112.000000,24845.305067,24693.201446,2771.437499,666.819592,14349.462312,-7342.816275,10576.689014,-1388.915049,18214.816536,17083.103011,-546.231931,14893.392014,15873.068973,23134.815471,-5551.100439,-7104.211402,-0.006000,-0.020000,1.004000,192.000000,127.500000,104.000000,127.500000,48.000000,15.500000,48.000000,0.000000,0.000000,0.000000,1770901826.310074,0.000000
114.000000,24834.397415,24682.539664,2765.335472,662.304540,14350.244623,-7345.699650,10568.620034,-1403.175462,18224.561897,17098.458659,-559.777088,14882.372604,15903.802622,23135.173098,-5552.955634,-7110.134615,-0.006000,-0.020000,1.004000,192.000000,0.000000,0.000000,0.000000,0.000000,0.000000,0.000000,0.000000,0.000000,0.000000,1770901826.310091,0.000000
116.000000,24826.931933,24667.407533,2767.257722,667.043110,14339.180510,-7340.648155,10574.140915,-1402.169633,18202.210152,17082.834790,-563.599236,14876.695261,15895.711290,23131.529764,-5541.690355,-7101.596248,-0.006000,-0.020000,1.004000,192.000000,0.000000,0.000000,0.000000,0.000000,0.000000,0.000000,0.000000,0.000000,0.000000,1770901826.310108,0.000000
118.000000,24822.483936,24665.082951,2758.071155,661.075194,14347.160083,-7345.498484,10563.657947,-1416.005363,18203.975940,17077.693889,-571.377644,14871.308490,15859.702630,23129.495755,-5542.629128,-7096.410644,-0.006000,-0.020000,1.004000,192.000000,0.000000,0.000000,0.000000,0.000000,0.000000,0.000000,0.000000,0.000000,0.000000,1770901826.310124,0.000000
120.000000,24826.149622,24667.228719,2765.827211,667.870124,14341.907423,-7341.944556,10572.442183,-1405.053008,18215.643551,17089.629720,-573.009321,14868.492170,15889.542209,23136.670665,-5550.116962,-7094.756615,-0.006000,-0.020000,1.004000,192.000000,0.000000,0.000000,0.000000,0.000000,0.000000,0.000000,0.000000,0.000000,0.000000,1770901826.310147,0.000000
122.000000,24839.068930,24673.084876,2765.201362,664.115031,14344.477873,-7347.152513,10572.464534,-1400.046217,18208.625103,17078.543255,-560.402937,14880.182133,15877.941653,23137.743549,-5548.664099,-7094.622504,-0.008000,-0.018000,1.002000,192.000000,127.500000,96.000000,127.500000,56.000000,15.500000,40.000000,0.000000,0.000000,0.000000,1770901826.310165,0.000000
124.000000,24849.618953,24686.384164,2769.783469,667.870124,14350.848121,-7346.414905,10574.453840,-1390.792595,18239.984601,17103.443098,-558.257170,14883.847819,15902.617979,23140.895145,-5560.644634,-7106.223059,-0.008000,-0.018000,1.002000,192.000000,0.000000,0.000000,0.000000,0.000000,0.000000,0.000000,0.000000,0.000000,0.000000,1770901826.310182,0.000000
126.000000,24851.228279,24694.095516,2775.907847,676.341435,14341.929775,-7335.931937,10585.026215,-1376.934514,18244.030266,17104.583037,-542.074507,14898.979950,15897.186505,23150.618154,-5558.834143,-7104.949010,-0.008000,-0.018000,1.002000,192.000000,0.000000,0.000000,0.000000,0.000000,0.000000,0.000000,0.000000,0.000000,0.000000,1770901826.310199,0.000000
128.000000,24852.502328,24695.458972,2772.845658,668.764194,14348.702353,-7347.867769,10575.325558,-1385.629342,18244.253784,17109.411014,-545.807248,14899.583447,15886.122392,23151.445168,-5564.109154,-7107.854737,-0.008000,-0.018000,1.002000,192.000000,0.000000,0.000000,0.000000,0.000000,0.000000,0.000000,0.000000,0.000000,0.000000,1770901826.310216,0.000000
130.000000,24857.509119,24692.687356,2774.633798,673.167488,14341.773312,-7346.549016,10582.254598,-1379.728482,18255.720229,17117.502346,-547.103649,14895.090746,15909.681131,23156.653125,-5564.645596,-7113.465025,-0.008000,-0.018000,1.002000,192.000000,0.000000,0.000000,0.000000,0.000000,0.000000,0.000000,0.000000,0.000000,0.000000,1770901826.310234,0.000000
132.000000,24853.128177,24688.664042,2765.626045,674.061558,14339.627545,-7340.022306,10579.080651,-1384.847031,18236.877708,17095.798802,-545.069640,14900.432813,15907.110680,23144.538479,-5563.125677,-7106.088949,-0.006000,-0.016000,1.004000,192.000000,127.500000,104.000000,127.500000,64.000000,15.500000,48.000000,0.000000,0.000000,0.000000,1770901826.310250,0.000000
134.000000,24842.913430,24683.254919,2767.213019,671.714624,14350.356382,-7337.921242,10572.352776,-1397.207546,18248.075932,17110.819174,-556.625492,14891.849743,15904.875506,23145.544308,-5566.098459,-7104.949010,-0.006000,-0.016000,1.004000,192.000000,0.000000,0.000000,0.000000,0.000000,0.000000,0.000000,0.000000,0.000000,0.000000,1770901826.310266,0.000000
136.000000,24841.974657,24672.347268,2768.911751,674.776813,14347.942394,-7328.757027,10575.929055,-1395.397055,18229.523984,17096.983444,-557.117231,14887.379394,15870.520874,23141.252773,-5550.496942,-7095.717740,-0.006000,-0.016000,1.004000,192.000000,0.000000,0.000000,0.000000,0.000000,0.000000,0.000000,0.000000,0.000000,0.000000,1770901826.310294,0.000000
138.000000,24829.167107,24673.017820,2759.680481,665.679653,14362.985118,-7330.612222,10562.562712,-1410.193909,18232.854394,17093.273055,-565.208562,14884.071336,15878.031060,23142.057436,-5542.539721,-7092.655551,-0.006000,-0.016000,1.004000,192.000000,0.000000,0.000000,0.000000,0.000000,0.000000,0.000000,0.000000,0.000000,0.000000,1770901826.310310,0.000000
140.000000,24821.969846,24656.946916,2765.626045,665.411432,14359.766467,-7328.980545,10567.971834,-1409.053970,18229.948667,17094.994139,-574.462184,14874.415383,15903.690863,23134.569601,-5534.627203,-7090.778004,-0.006000,-0.016000,1.004000,192.000000,0.000000,0.000000,0.000000,0.000000,0.000000,0.000000,0.000000,0.000000,0.000000,1770901826.310326,0.000000
142.000000,24825.121441,24658.220966,2764.866086,657.923598,14351.898653,-7338.077705,10567.502447,-1410.685648,18216.001179,17068.350860,-569.231876,14874.169513,15865.715249,23120.666816,-5525.708857,-7090.129803,-0.012000,-0.016000,1.010000,192.000000,127.500000,80.000000,127.500000,64.000000,15.500000,72.000000,0.000000,0.000000,0.000000,1770901826.310343,0.000000
144.000000,24833.033959,24668.301602,2767.727109,658.929427,14352.166873,-7351.019365,10568.329462,-1405.991781,18232.608525,17088.735651,-571.087071,14873.901293,15903.065014,23119.504526,-5538.471703,-7104.233754,-0.012000,-0.016000,1.010000,192.000000,0.000000,0.000000,0.000000,0.000000,0.000000,0.000000,0.000000,0.000000,0.000000,1770901826.310355,0.000000
146.000000,24845.327418,24677.331707,2773.739728,667.713662,14335.715990,-7344.246786,10579.885313,-1388.132738,18227.601734,17083.371232,-556.670196,14886.485325,15889.586912,23121.627941,-5543.702012,-7107.921792,-0.012000,-0.016000,1.010000,192.000000,0.000000,0.000000,0.000000,0.000000,0.000000,0.000000,0.000000,0.000000,0.000000,1770901826.310368,0.000000
148.000000,24854.871613,24693.357908,2764.910789,665.567895,14352.524501,-7356.048507,10571.123430,-1390.814947,18240.409284,17094.033014,-556.066699,14892.766165,15887.843476,23123.617247,-5555.414326,-7112.056865,-0.012000,-0.016000,1.010000,192.000000,0.000000,0.000000,0.000000,0.000000,0.000000,0.000000,0.000000,0.000000,0.000000,1770901826.310385,0.000000
150.000000,24866.718038,24698.476457,2772.219810,675.603828,14340.700429,-7350.460571,10582.120488,-1376.331017,18257.910700,17113.099052,-550.814039,14897.974121,15900.963950,23133.854346,-5562.812753,-7117.287173,-0.012000,-0.016000,1.010000,192.000000,0.000000,0.000000,0.000000,0.000000,0.000000,0.000000,0.000000,0.000000,0.000000,1770901826.310403,0.000000
152.000000,24862.471206,24693.313204,2767.928275,671.669921,14338.219385,-7354.796810,10579.818258,-1382.120118,18247.830063,17096.134078,-542.253320,14901.863325,15871.973738,23126.902953,-5563.326843,-7112.526251,-0.012000,-0.018000,1.010000,192.000000,127.500000,80.000000,127.500000,48.000000,15.500000,72.000000,0.000000,0.000000,0.000000,1770901826.310424,0.000000
154.000000,24857.822044,24694.453143,2767.503591,672.876915,14347.316545,-7350.527626,10575.124392,-1388.557421,18258.849473,17113.277866,-552.892751,14893.257903,15898.974645,23136.760072,-5567.461916,-7114.649667,-0.012000,-0.018000,1.010000,192.000000,0.000000,0.000000,0.000000,0.000000,0.000000,0.000000,0.000000,0.000000,0.000000,1770901826.310442,0.000000
156.000000,24856.391532,24684.998356,2771.169278,675.357959,14336.721818,-7347.063106,10580.265293,-1385.316418,18247.405380,17110.908581,-548.422402,14896.476554,15899.376976,23126.053587,-5560.644634,-7109.329952,-0.012000,-0.018000,1.010000,192.000000,0.000000,0.000000,0.000000,0.000000,0.000000,0.000000,0.000000,0.000000,0.000000,1770901826.310460,0.000000
158.000000,24851.854128,24680.572710,2757.825286,666.707834,14351.831597,-7351.667565,10566.854246,-1403.264869,18243.136197,17095.776450,-559.039481,14889.525162,15889.698671,23125.003055,-5557.671852,-7106.804205,-0.012000,-0.018000,1.010000,192.000000,0.000000,0.000000,0.000000,0.000000,0.000000,0.000000,0.000000,0.000000,0.000000,1770901826.310477,0.000000
160.000000,24848.188442,24671.542605,2770.834001,668.026587,14347.897690,-7339.441161,10569.961139,-1402.571965,18243.717342,17106.997026,-563.420422,14881.925569,15914.598514,23123.505488,-5553.223855,-7103.965533,-0.012000,-0.018000,1.010000,192.000000,0.000000,0.000000,0.000000,0.000000,0.000000,0.000000,0.000000,0.000000,0.000000,1770901826.310494,0.000000
162.000000,24842.667561,24664.032419,2762.541504,663.399775,14348.054152,-7330.276946,10563.948520,-1412.362029,18211.709644,17081.471334,-566.013225,14880.204484,15865.022345,23114.721252,-5538.248186,-7092.633199,-0.011000,-0.022000,1.012000,192.000000,127.500000,88.000000,127.500000,24.000000,15.500000,88.000000,0.000000,0.000000,0.000000,1770901826.310513,0.000000
164.000000,24837.593715,24657.528062,2762.541504,657.610674,14365.734382,-7331.394533,10557.153589,-1419.671049,18234.798996,17095.642340,-578.038463,14870.280310,15902.439165,23116.844668,-5536.482398,-7092.767309,-0.011000,-0.022000,1.012000,192.000000,0.000000,0.000000,0.000000,0.000000,0.000000,0.000000,0.000000,0.000000,0.000000,1770901826.310525,0.000000
166.000000,24839.359503,24652.498919,2766.006025,663.176258,14356.279594,-7325.024286,10563.456781,-1410.953869,18223.444310,17084.287653,-570.349463,14870.503827,15879.036889,23111.524953,-5524.725381,-7086.620580,-0.011000,-0.022000,1.012000,192.000000,0.000000,0.000000,0.000000,0.000000,0.000000,0.000000,0.000000,0.000000,0.000000,1770901826.310537,0.000000
168.000000,24839.538317,24655.337591,2762.474449,658.281226,14360.526426,-7320.419827,10555.030174,-1420.676878,18224.919525,17078.878531,-574.708053,14869.989737,15877.226398,23099.276197,-5531.565014,-7088.587533,-0.011000,-0.022000,1.012000,192.000000,0.000000,0.000000,0.000000,0.000000,0.000000,0.000000,0.000000,0.000000,0.000000,1770901826.310549,0.000000
170.000000,24848.344904,24662.736018,2772.577437,666.104337,14361.822827,-7316.932954,10564.596720,-1406.952906,18242.756217,17100.649130,-571.131774,14873.767182,15901.790965,23113.156630,-5534.470741,-7094.376635,-0.011000,-0.022000,1.012000,192.000000,0.000000,0.000000,0.000000,0.000000,0.000000,0.000000,0.000000,0.000000,0.000000,1770901826.310562,0.000000
172.000000,24853.932840,24665.664097,2768.576475,667.110165,14361.800475,-7324.197271,10566.161342,-1405.410636,18232.429711,17084.913502,-562.749870,14879.936264,15889.922189,23106.294645,-5527.586404,-7096.880030,-0.009500,-0.021000,1.010000,192.000000,127.500000,96.000000,127.500000,48.000000,15.500000,64.000000,0.000000,0.000000,0.000000,1770901826.310574,0.000000
174.000000,24863.767608,24677.421114,2771.750423,669.971188,14359.766467,-7325.493673,10565.982528,-1400.448549,18265.890272,17113.859011,-562.258132,14884.540723,15924.790910,23118.856325,-5542.919700,-7107.541812,-0.009500,-0.021000,1.010000,192.000000,0.000000,0.000000,0.000000,0.000000,0.000000,0.000000,0.000000,0.000000,0.000000,1770901826.310588,0.000000
176.000000,24864.080532,24675.677678,2775.080833,676.743767,14343.539100,-7316.195347,10574.699709,-1389.876174,18249.707609,17111.579133,-549.651748,14893.682586,15890.011595,23119.236305,-5544.305509,-7103.965533,-0.009500,-0.021000,1.010000,192.000000,0.000000,0.000000,0.000000,0.000000,0.000000,0.000000,0.000000,0.000000,0.000000,1770901826.310601,0.000000
178.000000,24864.192291,24680.483303,2766.564818,671.938142,14341.303926,-7327.840606,10566.004880,-1398.682761,18255.474359,17107.645226,-554.345614,14892.877924,15897.231209,23117.537572,-5555.727250,-7103.563202,-0.009500,-0.021000,1.010000,192.000000,0.000000,0.000000,0.000000,0.000000,0.000000,0.000000,0.000000,0.000000,0.000000,1770901826.310612,0.000000
180.000000,24854.245765,24672.615489,2770.610484,675.693235,14333.681981,-7334.546129,10572.017499,-1391.641962,18265.219720,17124.096110,-557.854838,14891.536819,15903.355587,23110.161496,-5560.488172,-7104.725493,-0.009500,-0.021000,1.010000,192.000000,0.000000,0.000000,0.000000,0.000000,0.000000,0.000000,0.000000,0.000000,0.000000,1770901826.310624,0.000000
182.000000,24846.802634,24666.312297,2765.916618,665.903171,14330.508033,-7344.626766,10567.971834,-1397.296953,18239.515214,17096.089375,-554.815001,14892.497944,15869.850322,23101.287854,-5558.320052,-7103.451443,-0.006750,-0.022500,1.007000,192.000000,127.500000,112.000000,127.500000,32.000000,15.500000,48.000000,0.000000,0.000000,0.000000,1770901826.310635,0.000000
184.000000,24841.080587,24664.300640,2762.876780,664.986749,14335.604231,-7349.678260,10563.099153,-1405.276526,18261.397572,17108.785165,-566.147335,14882.931397,15909.055282,23099.387956,-5559.839971,-7106.871260,-0.006750,-0.022500,1.007000,192.000000,0.000000,0.000000,0.000000,0.000000,0.000000,0.000000,0.000000,0.000000,0.000000,1770901826.310650,0.000000
186.000000,24835.515003,24651.247221,2763.815554,666.998406,14330.932716,-7344.872635,10568.709441,-1402.348447,18240.118711,17090.792011,-564.336844,14878.617511,15900.159287,23085.909854,-5550.698108,-7101.417434,-0.006750,-0.022500,1.007000,192.000000,0.000000,0.000000,0.000000,0.000000,0.000000,0.000000,0.000000,0.000000,0.000000,1770901826.310662,0.000000
188.000000,24823.020378,24647.067445,2756.819458,659.957607,14336.297135,-7352.472228,10554.985470,-1420.140436,18234.888403,17086.969863,-571.198830,14873.878941,15873.225435,23085.060487,-5549.178189,-7097.841155,-0.006750,-0.022500,1.007000,192.000000,0.000000,0.000000,0.000000,0.000000,0.000000,0.000000,0.000000,0.000000,0.000000,1770901826.310673,0.000000
190.000000,24812.984444,24638.886707,2760.820420,662.975092,14329.569260,-7344.894987,10562.115677,-1420.006325,18229.591039,17092.535447,-585.749815,14864.379449,15880.892084,23089.642595,-5546.071296,-7099.383426,-0.006750,-0.022500,1.007000,192.000000,0.000000,0.000000,0.000000,0.000000,0.000000,0.000000,0.000000,0.000000,0.000000,1770901826.310685,0.000000
192.000000,24813.923218,24637.657361,2759.188743,660.069366,14332.743208,-7343.240958,10561.199255,-1420.319250,18204.512382,17075.101087,-580.653617,14864.692374,15854.628784,23080.523083,-5537.599985,-7097.707045,-0.006375,-0.019250,1.006500,192.000000,127.500000,104.000000,127.500000,64.000000,15.500000,56.000000,0.000000,0.000000,0.000000,1770901826.310697,0.000000
194.000000,24814.191438,24639.803128,2758.674652,658.415336,14345.103722,-7346.079629,10558.897025,-1419.559290,18231.982676,17089.786183,-585.146318,14862.211330,15885.965930,23080.344269,-5543.120866,-7104.010237,-0.006375,-0.019250,1.006500,192.000000,0.000000,0.000000,0.000000,0.000000,0.000000,0.000000,0.000000,0.000000,0.000000,1770901826.790418,0.000000
196.000000,24822.171011,24641.568916,2766.475411,665.009101,14340.029876,-7342.749219,10568.821200,-1407.109369,18225.478318,17080.711374,-574.171612,14868.603929,15883.954273,23075.270423,-5537.398820,-7107.810033,-0.006375,-0.019250,1.006500,192.000000,0.000000,0.000000,0.000000,0.000000,0.000000,0.000000,0.000000,0.000000,0.000000,1770901826.790484,0.000000
198.000000,24826.686064,24651.090759,2758.764059,663.936217,14346.176606,-7345.386725,10561.109848,-1412.965526,18229.859260,17089.853238,-573.858687,14874.884769,15875.259444,23080.925415,-5547.546512,-7109.352304,-0.006375,-0.019250,1.006500,192.000000,0.000000,0.000000,0.000000,0.000000,0.000000,0.000000,0.000000,0.000000,0.000000,1770901826.790540,0.000000
200.000000,24828.653017,24648.475605,2766.833039,669.233581,14339.046399,-7334.188501,10569.379994,-1401.812005,18238.799958,17102.772546,-574.395129,14874.504790,15906.574238,23096.124601,-5551.636881,-7111.699237,-0.006375,-0.019250,1.006500,192.000000,0.000000,0.000000,0.000000,0.000000,0.000000,0.000000,0.000000,0.000000,0.000000,1770901826.790589,0.000000
202.000000,24839.784186,24658.086855,2763.413222,671.759328,14331.536213,-7340.514045,10568.843552,-1397.118139,18221.969095,17085.025261,-564.202734,14884.607778,15880.176828,23081.372450,-5548.261767,-7106.200708,-0.006188,-0.019625,1.003250,192.000000,127.500000,104.000000,127.500000,48.000000,15.500000,32.000000,0.000000,0.000000,0.000000,1770901826.790642,0.000000
204.000000,24838.756006,24663.026591,2764.374347,669.680616,14334.933678,-7342.704516,10564.999052,-1398.213374,18247.248917,17108.963979,-567.331978,14882.819639,15902.126241,23084.456990,-5560.063488,-7111.185147,-0.006188,-0.019625,1.003250,192.000000,0.000000,0.000000,0.000000,0.000000,0.000000,0.000000,0.000000,0.000000,0.000000,1770901826.790701,0.000000
206.000000,24842.041712,24657.639820,2765.983673,674.754462,14322.081425,-7342.324536,10572.755107,-1391.820775,18239.917545,17096.782279,-558.503039,14886.954711,15883.306072,23079.249034,-5556.598968,-7105.753673,-0.006188,-0.019625,1.003250,192.000000,0.000000,0.000000,0.000000,0.000000,0.000000,0.000000,0.000000,0.000000,0.000000,1770901826.790720,0.000000
208.000000,24829.390625,24648.565012,2758.451135,661.231656,14318.974533,-7350.058240,10561.020441,-1411.199738,18247.494787,17089.562665,-564.582713,14878.841028,15875.125334,23080.165455,-5563.885637,-7105.910135,-0.006188,-0.019625,1.003250,192.000000,0.000000,0.000000,0.000000,0.000000,0.000000,0.000000,0.000000,0.000000,0.000000,1770901826.790739,0.000000
210.000000,24821.545162,24639.892535,2761.222751,666.461964,14309.117414,-7350.907606,10565.021403,-1410.506834,18229.546336,17090.300273,-574.819812,14867.374583,15896.717119,23070.062467,-5561.851628,-7105.060769,-0.006188,-0.019625,1.003250,192.000000,0.000000,0.000000,0.000000,0.000000,0.000000,0.000000,0.000000,0.000000,0.000000,1770901826.790756,0.000000
212.000000,24809.743441,24632.337646,2749.421030,659.912903,14304.669417,-7355.243844,10559.411116,-1417.122950,18205.786432,17064.394601,-574.171612,14866.122885,15869.895025,23056.897289,-5552.575654,-7099.137556,-0.006188,-0.019625,1.003250,192.000000,0.000000,0.000000,0.000000,0.000000,0.000000,0.000000,0.000000,0.000000,0.000000,1770901826.790775,0.000000
214.000000,24801.160371,24626.257971,2757.445306,654.459078,14309.631504,-7356.719060,10554.001993,-1427.136532,18213.251914,17072.620043,-589.929591,14854.522330,15881.227360,23056.338496,-5555.011994,-7102.043283,-0.010000,-0.018000,1.008000,192.000000,127.500000,88.000000,127.500000,56.000000,15.500000,64.000000,0.000000,0.000000,0.000000,1770901826.790792,0.000000
216.000000,24807.463563,24617.831363,2763.949664,657.565970,14307.195164,-7348.270100,10562.316842,-1420.028677,18196.778679,17058.024354,-583.358179,14853.225929,15853.444142,23057.746656,-5539.455180,-7100.970399,-0.010000,-0.018000,1.008000,192.000000,0.000000,0.000000,0.000000,0.000000,0.000000,0.000000,0.000000,0.000000,0.000000,1770901826.790822,0.000000
218.000000,24813.096203,24625.788584,2757.288844,654.503781,14314.682998,-7355.847342,10554.963118,-1424.253157,18208.736862,17058.784313,-584.162841,14852.510673,15854.986412,23048.336571,-5538.739924,-7105.932487,-0.010000,-0.018000,1.008000,192.000000,0.000000,0.000000,0.000000,0.000000,0.000000,0.000000,0.000000,0.000000,0.000000,1770901826.790840,0.000000
220.000000,24815.689005,24627.532021,2767.682405,660.382290,14316.627600,-7353.411001,10564.082630,-1413.524319,18221.119728,17077.135095,-580.273638,14853.829426,15896.873581,23054.080970,-5543.254977,-7109.061731,-0.010000,-0.018000,1.008000,192.000000,0.000000,0.000000,0.000000,0.000000,0.000000,0.000000,0.000000,0.000000,0.000000,1770901826.790857,0.000000
222.000000,24827.468375,24640.563088,2765.022548,666.126688,14315.062978,-7353.433353,10567.301281,-1405.544747,18201.472545,17068.149694,-566.549667,14864.535912,15876.444087,23048.358923,-5547.077125,-7108.637048,-0.010000,-0.018000,1.008000,192.000000,0.000000,0.000000,0.000000,0.000000,0.000000,0.000000,0.000000,0.000000,0.000000,1770901826.790875,0.000000
224.000000,24838.957171,24656.209309,2766.117783,667.221924,14326.037684,-7351.444048,10564.775534,-1403.533090,18230.060426,17088.042747,-566.259094,14869.050964,15897.410023,23057.366676,-5559.750564,-7115.655496,-0.008000,-0.016000,1.000000,192.000000,127.500000,96.000000,127.500000,64.000000,15.500000,32.000000,0.000000,0.000000,0.000000,1770901826.790893,0.000000
226.000000,24842.086416,24655.047018,2772.420975,671.446403,14312.805451,-7344.179731,10571.749279,-1396.000552,18221.253839,17088.668595,-557.698376,14876.114115,15907.468308,23059.668906,-5554.408497,-7113.867356,-0.008000,-0.016000,1.000000,192.000000,0.000000,0.000000,0.000000,0.000000,0.000000,0.000000,0.000000,0.000000,0.000000,1770901826.790911,0.000000
228.000000,24841.728788,24661.886652,2764.016719,666.797241,14322.059074,-7355.087382,10563.389726,-1401.297915,18226.841775,17089.115630,-559.642978,14875.868246,15890.615093,23062.149949,-5561.002262,-7114.381446,-0.008000,-0.016000,1.000000,192.000000,0.000000,0.000000,0.000000,0.000000,0.000000,0.000000,0.000000,0.000000,0.000000,1770901826.790925,0.000000
230.000000,24835.671465,24656.656344,2769.559952,672.899267,14312.693693,-7350.818199,10569.067069,-1396.715808,18240.342228,17097.162258,-559.598274,14874.683604,15892.894971,23060.697086,-5563.371547,-7116.527214,-0.008000,-0.016000,1.000000,192.000000,0.000000,0.000000,0.000000,0.000000,0.000000,0.000000,0.000000,0.000000,0.000000,1770901826.790937,0.000000
232.000000,24826.641360,24645.122843,2761.133344,671.401700,14297.896838,-7346.213740,10564.552017,-1405.053008,18208.200420,17073.022374,-562.079318,14873.029575,15876.086459,23050.594097,-5563.215084,-7105.217231,-0.008000,-0.016000,1.000000,192.000000,0.000000,0.000000,0.000000,0.000000,0.000000,0.000000,0.000000,0.000000,0.000000,1770901826.790953,0.000000
234.000000,24821.522811,24645.681637,2755.701870,668.183049,14300.534344,-7339.709382,10557.354755,-1412.160863,18213.050748,17085.137020,-573.679873,14865.005298,15892.179715,23052.181071,-5570.837029,-7103.227926,-0.010000,-0.016000,1.000000,192.000000,127.500000,88.000000,127.500000,64.000000,15.500000,32.000000,0.000000,0.000000,0.000000,1770901826.790972,0.000000
236.000000,24813.990273,24632.516460,2757.110030,670.239409,14288.822030,-7335.283737,10561.154552,-1413.010229,18190.587245,17066.428610,-574.596295,14862.188978,15865.514084,23039.574687,-5559.907026,-7092.990827,-0.010000,-0.016000,1.000000,192.000000,0.000000,0.000000,0.000000,0.000000,0.000000,0.000000,0.000000,0.000000,0.000000,1770901826.790990,0.000000
238.000000,24811.844505,24636.539774,2749.264568,662.371595,14299.059129,-7349.432391,10552.392668,-1421.749761,18186.675690,17059.656031,-582.508812,14858.836217,15872.733697,23034.567897,-5556.867189,-7093.147289,-0.010000,-0.016000,1.000000,192.000000,0.000000,0.000000,0.000000,0.000000,0.000000,0.000000,0.000000,0.000000,0.000000,1770901826.791007,0.000000
240.000000,24814.929046,24637.702064,2757.110030,665.322025,14296.600437,-7351.153475,10561.556883,-1410.260965,18199.147963,17073.469409,-582.419405,14858.612699,15918.308904,23038.054769,-5555.503733,-7100.836289,-0.010000,-0.016000,1.000000,192.000000,0.000000,0.000000,0.000000,0.000000,0.000000,0.000000,0.000000,0.000000,0.000000,1770901826.791024,0.000000
242.000000,24815.890171,24635.332779,2763.122650,661.298711,14293.895876,-7363.402231,10561.735697,-1410.305668,18186.586283,17054.090447,-569.902428,14862.680717,15827.516118,23027.080062,-5546.384221,-7108.324123,-0.010000,-0.016000,1.000000,192.000000,0.000000,0.000000,0.000000,0.000000,0.000000,0.000000,0.000000,0.000000,0.000000,1770901826.791042,0.000000
244.000000,24823.221543,24648.520309,2762.005062,664.115031,14300.646103,-7366.553827,10560.372241,-1405.857671,18202.612484,17079.303214,-571.690568,14863.999470,15894.303130,23025.716606,-5558.431811,-7117.175414,-0.008000,-0.020000,1.010000,192.000000,127.500000,96.000000,127.500000,48.000000,15.500000,72.000000,0.000000,0.000000,0.000000,1770901826.791059,0.000000
246.000000,24825.881401,24649.660248,2770.655187,672.340473,14284.932826,-7361.100001,10571.011671,-1396.335828,18197.024548,17081.605444,-560.626454,14871.219083,15878.075764,23030.209307,-5558.767087,-7117.175414,-0.008000,-0.020000,1.010000,192.000000,0.000000,0.000000,0.000000,0.000000,0.000000,0.000000,0.000000,0.000000,0.000000,1770901826.791076,0.000000
248.000000,24832.162241,24662.512501,2765.447231,667.579552,14299.126184,-7366.553827,10565.580197,-1399.420369,18200.422013,17072.642395,-559.508867,14874.460086,15869.984432,23031.483356,-5565.919646,-7117.577746,-0.008000,-0.020000,1.010000,192.000000,0.000000,0.000000,0.000000,0.000000,0.000000,0.000000,0.000000,0.000000,0.000000,1770901826.791098,0.000000
250.000000,24830.731729,24661.260803,2770.185801,673.167488,14298.120355,-7358.931882,10570.363470,-1392.536031,18213.631894,17089.003872,-559.397108,14875.242397,15897.432375,23042.927449,-5569.004186,-7119.991734,-0.008000,-0.020000,1.010000,192.000000,0.000000,0.000000,0.000000,0.000000,0.000000,0.000000,0.000000,0.000000,0.000000,1770901826.791116,0.000000
252.000000,24831.894020,24658.153910,2765.603693,671.558162,14299.930847,-7353.165132,10567.636558,-1395.777034,18192.688309,17071.211883,-557.832486,14878.975139,15887.441145,23028.152946,-5561.292834,-7112.928583,-0.008000,-0.020000,1.010000,192.000000,0.000000,0.000000,0.000000,0.000000,0.000000,0.000000,0.000000,0.000000,0.000000,1770901826.791134,0.000000
254.000000,24824.897924,24655.047018,2760.440440,669.278284,14298.880315,-7353.947443,10560.953386,-1405.231822,18207.149888,17088.109802,-568.516620,14872.806057,15907.445956,23030.298713,-5570.658215,-7112.392141,-0.006000,-0.020000,1.006000,192.000000,127.500000,104.000000,127.500000,48.000000,15.500000,56.000000,0.000000,0.000000,0.000000,1770901826.791151,0.000000
0.000000,24817.812421,24642.261820,2761.982711,670.753499,14285.335158,-7345.431429,10566.071935,-1401.946116,18189.626120,17069.803723,-566.616722,14869.006261,15873.292491,23027.817670,-5565.114983,-7106.267763,-0.006000,-0.020000,1.006000,192.000000,0.000000,0.000000,0.000000,0.000000,0.000000,0.000000,0.000000,0.000000,0.000000,1770901826.791169,0.000000
2.000000,24804.110802,24635.086910,2750.270397,661.254008,14287.056242,-7348.247748,10553.331441,-1420.676878,18185.356937,17055.342144,-573.657521,14859.842045,15856.148703,23018.809917,-5566.344329,-7100.232792,-0.006000,-0.020000,1.006000,192.000000,0.000000,0.000000,0.000000,0.000000,0.000000,0.000000,0.000000,0.000000,0.000000,1770901826.791186,0.000000
4.000000,24793.158447,24628.247276,2749.711603,667.557200,14274.807486,-7332.467417,10558.002956,-1419.067552,18183.278225,17064.953395,-586.599181,14852.376563,15883.730755,23026.342455,-5569.115945,-7093.884897,-0.006000,-0.020000,1.006000,192.000000,0.000000,0.000000,0.000000,0.000000,0.000000,0.000000,0.000000,0.000000,0.000000,1770901826.791203,0.000000
6.000000,24789.202188,24623.285189,2747.297614,660.739918,14272.549960,-7339.172940,10555.343098,-1424.499026,18168.838998,17043.138092,-584.475766,14851.348382,15871.727869,23016.999426,-5560.778744,-7085.592399,-0.006000,-0.020000,1.006000,192.000000,0.000000,0.000000,0.000000,0.000000,0.000000,0.000000,0.000000,0.000000,0.000000,1770901826.791221,0.000000
8.000000,24792.174970,24625.118032,2750.113934,656.046052,14278.473172,-7346.705478,10549.598700,-1427.740029,18182.562969,17051.274127,-594.064664,14840.932469,15857.422752,23006.538809,-5560.219951,-7099.025798,-0.004000,-0.016000,1.004000,192.000000,127.500000,112.000000,127.500000,64.000000,15.500000,48.000000,0.000000,0.000000,0.000000,1770901826.791239,0.000000
10.000000,24804.021395,24629.208401,2758.697004,666.461964,14267.587872,-7339.016478,10561.579235,-1412.853767,18171.275338,17049.061304,-585.012208,14848.643821,15895.353662,23009.265722,-5557.381279,-7098.981094,-0.004000,-0.016000,1.004000,192.000000,0.000000,0.000000,0.000000,0.000000,0.000000,0.000000,0.000000,0.000000,0.000000,1770901826.791256,0.000000
12.000000,24815.107860,24641.568916,2755.925388,663.042148,14273.086402,-7354.327423,10559.321709,-1415.044238,18190.006100,17051.140016,-574.909219,14856.533987,15852.930051,23014.652492,-5567.886599,-7106.424225,-0.004000,-0.016000,1.004000,192.000000,0.000000,0.000000,0.000000,0.000000,0.000000,0.000000,0.000000,0.000000,0.000000,1770901826.791274,0.000000
14.000000,24820.338168,24642.619448,2765.089603,669.144174,14267.319652,-7360.988243,10569.961139,-1402.147281,18208.602751,17065.087505,-571.399995,14857.696278,15883.507238,23010.293902,-5576.357910,-7117.264821,-0.004000,-0.016000,1.004000,192.000000,0.000000,0.000000,0.000000,0.000000,0.000000,0.000000,0.000000,0.000000,0.000000,1770901826.791291,0.000000
16.000000,24829.167107,24646.463948,2762.317987,667.445441,14260.770590,-7367.716118,10570.005842,-1398.548651,18195.437574,17053.397543,-559.620626,14866.838141,15876.824066,23005.689443,-5576.067338,-7117.130711,-0.004000,-0.016000,1.004000,192.000000,0.000000,0.000000,0.000000,0.000000,0.000000,0.000000,0.000000,0.000000,0.000000,1770901826.791309,0.000000
18.000000,24827.848354,24648.989695,2762.094469,665.992578,14263.251634,-7372.789964,10566.943653,-1400.940287,18215.151812,17062.204130,-565.342673,14864.781781,15884.647177,23009.422184,-5585.320960,-7123.657420,-0.008000,-0.018000,1.006000,192.000000,127.500000,96.000000,127.500000,56.000000,15.500000,56.000000,0.000000,0.000000,0.000000,1770901826.791327,0.000000
20.000000,24827.356616,24641.792433,2766.676577,668.697139,14263.408096,-7368.207856,10572.822162,-1394.301819,18200.690234,17050.916499,-560.604103,14866.793438,15877.405212,23001.621425,-5574.256846,-7119.678810,-0.008000,-0.018000,1.006000,192.000000,0.000000,0.000000,0.000000,0.000000,0.000000,0.000000,0.000000,0.000000,0.000000,1770901826.791344,0.000000
22.000000,24819.667616,24636.159794,2754.226655,661.633988,14275.455687,-7362.128182,10560.305185,-1411.982049,18214.056577,17049.798912,-566.527315,14863.574787,15900.092232,23001.956702,-5571.440526,-7116.571917,-0.008000,-0.018000,1.006000,192.000000,0.000000,0.000000,0.000000,0.000000,0.000000,0.000000,0.000000,0.000000,0.000000,1770901826.791362,0.000000
24.000000,24813.275017,24619.172468,2760.932179,661.701043,14263.206931,-7358.149571,10562.003918,-1414.552500,18213.788356,17043.965106,-577.993760,14847.794455,15881.629691,22999.118030,-5571.351119,-7111.520423,-0.008000,-0.018000,1.006000,192.000000,0.000000,0.000000,0.000000,0.000000,0.000000,0.000000,0.000000,0.000000,0.000000,1770901826.791383,0.000000
26.000000,24798.232293,24602.609825,2751.119763,654.168505,14266.202064,-7364.229246,10553.622014,-1430.913977,18182.227693,17012.918533,-579.066644,14841.334801,15848.482054,22986.422239,-5562.991567,-7102.378559,-0.008000,-0.018000,1.006000,192.000000,0.000000,0.000000,0.000000,0.000000,0.000000,0.000000,0.000000,0.000000,0.000000,1770901826.791401,0.000000
28.000000,24790.476238,24606.834305,2743.319004,651.039261,14270.135971,-7362.038775,10546.827083,-1439.206474,18198.030376,17020.965161,-596.612763,14828.460196,15876.511142,22984.209416,-5567.573675,-7100.992751,-0.009000,-0.019000,1.007000,192.000000,127.500000,88.000000,127.500000,48.000000,15.500000,64.000000,0.000000,0.000000,0.000000,1770901826.791418,0.000000
30.000000,24785.089467,24599.167657,2754.092545,655.867238,14260.010631,-7352.136952,10555.343098,-1433.283261,18182.831190,17007.196487,-595.517528,14827.275554,15883.306072,22971.871253,-5554.967291,-7093.415510,-0.009000,-0.019000,1.007000,192.000000,0.000000,0.000000,0.000000,0.000000,0.000000,0.000000,0.000000,0.000000,0.000000,1770901826.791436,0.000000
32.000000,24786.050592,24603.347433,2748.124629,647.932368,14277.221474,-7352.248711,10546.447104,-1442.000442,18184.261702,17003.240228,-595.361065,14826.046208,15852.907700,22969.591376,-5548.775858,-7093.840193,-0.009000,-0.019000,1.007000,192.000000,0.000000,0.000000,0.000000,0.000000,0.000000,0.000000,0.000000,0.000000,0.000000,1770901826.791453,0.000000
34.000000,24793.359613,24607.683671,2756.573588,657.387156,14275.031003,-7334.903757,10554.739601,-1432.299785,18199.013853,17021.993342,-596.366894,14826.694408,15897.544133,22972.608861,-5546.160703,-7094.041359,-0.009000,-0.019000,1.007000,192.000000,0.000000,0.000000,0.000000,0.000000,0.000000,0.000000,0.000000,0.000000,0.000000,1770901826.791470,0.000000
36.000000,24803.529656,24614.925637,2754.338414,658.862371,14267.051431,-7342.011612,10556.997127,-1428.254119,18189.447306,17012.650313,-584.051083,14835.880975,15856.126351,22978.710887,-5544.372564,-7095.047187,-0.009000,-0.019000,1.007000,192.000000,0.000000,0.000000,0.000000,0.000000,0.000000,0.000000,0.000000,0.000000,0.000000,1770901826.791488,0.000000
38.000000,24815.867819,24631.622390,2753.086716,662.170429,14269.934806,-7343.017440,10556.751258,-1423.247328,18221.387949,17038.466577,-584.989856,14838.451426,15887.374090,22987.875103,-5561.896332,-7101.305676,-0.007500,-0.018500,1.006500,192.000000,127.500000,104.000000,127.500000,56.000000,15.500000,56.000000,0.000000,0.000000,0.000000,1770901826.791506,0.000000
40.000000,24828.474203,24635.466890,2760.060461,671.736976,14248.164207,-7328.555862,10567.100116,-1408.092845,18204.802955,17040.411179,-572.472879,14850.968403,15884.848343,22993.865370,-5564.735003,-7100.433958,-0.007500,-0.018500,1.006500,192.000000,0.000000,0.000000,0.000000,0.000000,0.000000,0.000000,0.000000,0.000000,0.000000,1770901826.791523,0.000000
42.000000,24828.027168,24637.992637,2754.807801,666.037281,14251.651079,-7338.010649,10557.757086,-1416.675915,18207.507516,17037.885432,-571.556457,14851.929528,15863.569482,22993.641853,-5567.663082,-7103.093815,-0.007500,-0.018500,1.006500,192.000000,0.000000,0.000000,0.000000,0.000000,0.000000,0.000000,0.000000,0.000000,0.000000,1770901826.791540,0.000000
44.000000,24828.653017,24633.656398,2762.385042,672.429880,14237.234203,-7327.728847,10565.088459,-1408.428122,18218.415167,17051.475293,-574.529239,14851.124865,15900.740433,22999.095678,-5574.793288,-7102.825594,-0.007500,-0.018500,1.006500,192.000000,0.000000,0.000000,0.000000,0.000000,0.000000,0.000000,0.000000,0.000000,0.000000,1770901826.791559,0.000000
46.000000,24820.516982,24627.822593,2756.484181,669.188877,14231.221584,-7337.362449,10562.540360,-1413.770189,18200.042033,17020.316961,-565.543838,14854.790551,15862.809522,22986.913977,-5572.513410,-7098.399949,-0.007500,-0.018500,1.006500,192.000000,0.000000,0.000000,0.000000,0.000000,0.000000,0.000000,0.000000,0.000000,0.000000,1770901826.791576,0.000000
48.000000,24805.384851,24618.770137,2749.577492,659.801145,14238.217680,-7348.784190,10553.018517,-1428.991727,18216.112937,17028.452996,-582.665274,14840.574842,15893.632578,22987.450419,-5579.598913,-7102.311504,-0.009750,-0.017250,1.006250,192.000000,127.500000,80.000000,127.500000,64.000000,15.500000,56.000000,0.000000,0.000000,0.000000,1770901826.791593,0.000000
50.000000,24795.304214,24608.018948,2746.202379,659.242351,14225.164261,-7350.706440,10555.521912,-1431.673936,18192.531847,17004.670740,-587.381493,14830.047170,15885.675357,22963.824625,-5570.792326,-7095.784795,-0.009750,-0.017250,1.006250,192.000000,0.000000,0.000000,0.000000,0.000000,0.000000,0.000000,0.000000,0.000000,0.000000,1770901826.791611,0.000000
52.000000,24790.565645,24604.420317,2745.598882,649.876970,14234.440235,-7364.810391,10545.150703,-1446.023756,18184.306405,16997.473478,-597.439778,14823.319295,15837.999086,22956.023867,-5566.724308,-7095.047187,-0.009750,-0.017250,1.006250,192.000000,0.000000,0.000000,0.000000,0.000000,0.000000,0.000000,0.000000,0.000000,0.000000,1770901826.791628,0.000000
54.000000,24797.427630,24606.253160,2755.120725,656.358976,14239.402323,-7354.483885,10552.035040,-1435.116104,18204.333568,17005.609513,-597.529185,14819.251277,15883.328424,22959.667201,-5560.443468,-7097.461176,-0.009750,-0.017250,1.006250,192.000000,0.000000,0.000000,0.000000,0.000000,0.000000,0.000000,0.000000,0.000000,0.000000,1770901826.791646,0.000000
56.000000,24803.596712,24610.477639,2752.729088,655.889589,14248.097151,-7351.354641,10552.303261,-1436.099581,18185.245178,16991.125583,-586.263905,14825.152138,15873.314842,22961.455341,-5546.317166,-7091.873240,-0.009750,-0.017250,1.006250,192.000000,0.000000,0.000000,0.000000,0.000000,0.000000,0.000000,0.000000,0.000000,0.000000,1770901826.791667,0.000000
58.000000,24811.285712,24623.620465,2757.177086,656.604845,14266.447933,-7353.433353,10550.850397,-1434.356145,18221.142080,17016.472461,-590.756606,14823.721626,15894.839572,22971.871253,-5547.725326,-7099.673998,-0.011875,-0.020625,1.005125,192.000000,127.500000,72.000000,127.500000,32.000000,15.500000,48.000000,0.000000,0.000000,0.000000,1770901827.270757,0.000000
60.000000,24822.998026,24626.548544,2763.390870,669.457098,14253.349811,-7338.971774,10562.853284,-1418.218186,18211.463775,17019.735815,-579.312513,14833.891670,15884.021328,22980.454323,-5545.646613,-7099.338722,-0.011875,-0.020625,1.005125,192.000000,0.000000,0.000000,0.000000,0.000000,0.000000,0.000000,0.000000,0.000000,0.000000,1770901827.270826,0.000000
62.000000,24828.295389,24631.063596,2755.456001,666.685482,14259.764762,-7352.539283,10555.588967,-1423.113218,18216.023530,17019.177022,-577.569077,14838.227908,15872.018441,22977.392134,-5560.778744,-7100.635123,-0.011875,-0.020625,1.005125,192.000000,0.000000,0.000000,0.000000,0.000000,0.000000,0.000000,0.000000,0.000000,0.000000,1770901827.270880,0.000000
64.000000,24829.927067,24633.544640,2762.720318,674.441537,14254.601509,-7348.359507,10564.417906,-1411.490311,18232.764987,17037.684266,-575.624475,14840.485435,15916.476061,22981.236634,-5571.015843,-7105.999542,-0.011875,-0.020625,1.005125,192.000000,0.000000,0.000000,0.000000,0.000000,0.000000,0.000000,0.000000,0.000000,0.000000,1770901827.270935,0.000000
66.000000,24830.105881,24629.476622,2759.322853,669.635912,14247.001916,-7344.984394,10562.741526,-1416.519453,18215.330626,17020.674589,-566.840239,14844.240528,15870.945557,22976.989803,-5571.798154,-7102.244449,-0.011875,-0.020625,1.005125,192.000000,0.000000,0.000000,0.000000,0.000000,0.000000,0.000000,0.000000,0.000000,0.000000,1770901827.270989,0.000000
68.000000,24828.004817,24632.471756,2753.556103,665.612598,14253.841550,-7351.645214,10557.555921,-1421.325078,18232.340304,17033.191566,-578.060815,14835.568051,15902.752090,22973.435876,-5583.041082,-7107.564164,-0.008938,-0.022312,1.003563,192.000000,127.500000,104.000000,127.500000,32.000000,15.500000,40.000000,0.000000,0.000000,0.000000,1770901827.271043,0.000000
70.000000,24827.401319,24622.324064,2758.562894,667.847773,14233.367352,-7346.996051,10564.328499,-1413.390209,18217.029359,17019.936981,-570.058891,14837.266783,15892.313825,22972.161826,-5580.805907,-7102.646780,-0.008938,-0.022312,1.003563,192.000000,0.000000,0.000000,0.000000,0.000000,0.000000,0.000000,0.000000,0.000000,0.000000,1770901827.271081,0.000000
72.000000,24821.925142,24613.785698,2742.693155,656.940121,14234.239070,-7359.468324,10551.230377,-1430.243424,18214.593019,17005.408347,-577.859649,14826.336780,15900.114584,22962.282355,-5582.258771,-7102.445615,-0.008938,-0.022312,1.003563,192.000000,0.000000,0.000000,0.000000,0.000000,0.000000,0.000000,0.000000,0.000000,0.000000,1770901827.271099,0.000000
74.000000,24815.621950,24607.013119,2754.427821,659.689386,14219.531622,-7355.109734,10557.421810,-1426.868311,18214.123632,17017.612400,-584.900449,14819.988885,15870.230302,22957.275564,-5581.834088,-7103.205574,-0.008938,-0.022312,1.003563,192.000000,0.000000,0.000000,0.000000,0.000000,0.000000,0.000000,0.000000,0.000000,0.000000,1770901827.271116,0.000000
76.000000,24815.376081,24606.811953,2749.376327,657.901246,14211.976732,-7360.027118,10555.991299,-1427.807084,18183.859370,17002.055586,-584.475766,14821.553507,15858.987374,22943.663352,-5575.285026,-7098.288190,-0.008938,-0.022312,1.003563,192.000000,0.000000,0.000000,0.000000,0.000000,0.000000,0.000000,0.000000,0.000000,0.000000,1770901827.271132,0.000000
78.000000,24818.482973,24615.059747,2750.024527,656.828363,14213.429596,-7363.961025,10552.504427,-1430.578700,18208.625103,17013.276161,-587.783824,14817.753710,15889.989244,22950.435931,-5580.113003,-7104.323161,-0.007469,-0.021156,1.007781,192.000000,127.500000,104.000000,127.500000,48.000000,15.500000,80.000000,0.000000,0.000000,0.000000,1770901827.271150,0.000000
80.000000,24828.496555,24616.132631,2758.473487,663.600941,14212.870802,-7361.614092,10563.725002,-1417.301764,18200.824344,17009.655179,-578.776071,14822.894612,15881.070898,22946.613782,-5571.172305,-7103.272629,-0.007469,-0.021156,1.007781,192.000000,0.000000,0.000000,0.000000,0.000000,0.000000,0.000000,0.000000,0.000000,0.000000,1770901827.271167,0.000000
82.000000,24828.340093,24620.357111,2755.567760,658.661206,14228.204099,-7368.543132,10557.757086,-1422.017982,18213.833060,17008.917571,-578.038463,14826.068559,15880.333290,22948.290163,-5567.998358,-7106.580687,-0.007469,-0.021156,1.007781,192.000000,0.000000,0.000000,0.000000,0.000000,0.000000,0.000000,0.000000,0.000000,0.000000,1770901827.271184,0.000000
84.000000,24825.769642,24614.702119,2761.558027,665.433784,14228.248802,-7357.479019,10563.814409,-1414.284279,18218.012836,17028.810624,-573.255190,14826.560298,15907.289494,22952.112311,-5572.200486,-7110.738112,-0.007469,-0.021156,1.007781,192.000000,0.000000,0.000000,0.000000,0.000000,0.000000,0.000000,0.000000,0.000000,0.000000,1770901827.271202,0.000000
86.000000,24829.971770,24614.366843,2758.808763,663.422127,14230.998067,-7358.283682,10563.859113,-1412.920822,18198.991501,17003.776670,-568.270751,14829.823652,15897.521782,22944.400960,-5568.378337,-7109.106434,-0.007469,-0.021156,1.007781,192.000000,0.000000,0.000000,0.000000,0.000000,0.000000,0.000000,0.000000,0.000000,0.000000,1770901827.271219,0.000000
88.000000,24832.497517,24619.507744,2755.120725,661.119897,14238.485901,-7355.512065,10559.724040,-1413.054933,18224.673656,17024.295571,-571.645864,14825.710932,15912.005712,22954.906279,-5580.582390,-7115.163757,-0.007469,-0.021156,1.007781,192.000000,0.000000,0.000000,0.000000,0.000000,0.000000,0.000000,0.000000,0.000000,0.000000,1770901827.271248,0.000000
90.000000,24837.057273,24618.144288,2759.345205,668.406566,14220.582154,-7352.919263,10568.195351,-1404.650677,18211.575533,17026.597801,-566.572018,14830.494205,15903.556753,22952.872271,-5580.671797,-7110.335780,-0.008000,-0.026000,1.016000,192.000000,127.500000,96.000000,127.500000,24.000000,15.500000,96.000000,0.000000,0.000000,0.000000,1770901827.271265,0.000000
92.000000,24830.016474,24615.618541,2746.783524,660.382290,14213.407244,-7363.938673,10557.466514,-1418.374648,18202.746594,17022.798004,-571.735271,14825.800338,15874.410078,22953.542823,-5587.198506,-7108.257068,-0.008000,-0.026000,1.016000,192.000000,0.000000,0.000000,0.000000,0.000000,0.000000,0.000000,0.000000,0.000000,0.000000,1770901827.271281,0.000000
94.000000,24821.701625,24600.955796,2745.822399,661.097546,14194.162392,-7368.721946,10560.908682,-1421.213319,18207.060481,17023.110929,-581.950019,14817.440786,15885.474191,22943.618648,-5598.016751,-7109.218193,-0.008000,-0.026000,1.016000,192.000000,0.000000,0.000000,0.000000,0.000000,0.000000,0.000000,0.000000,0.000000,0.000000,1770901827.271298,0.000000
96.000000,24815.979578,24598.005366,2746.135324,657.297749,14183.813534,-7378.333196,10558.874674,-1427.292994,18174.896321,16997.987568,-582.709978,14812.791623,15862.049563,22929.537049,-5592.451166,-7103.853775,-0.008000,-0.026000,1.016000,192.000000,0.000000,0.000000,0.000000,0.000000,0.000000,0.000000,0.000000,0.000000,0.000000,1770901827.271316,0.000000
98.000000,24814.057328,24600.419354,2743.408411,655.688424,14198.141002,-7379.808412,10553.331441,-1435.071401,18185.915731,17013.253810,-593.081187,14804.432071,15890.033947,22928.821794,-5595.647466,-7107.385350,-0.008000,-0.026000,1.016000,192.000000,0.000000,0.000000,0.000000,0.000000,0.000000,0.000000,0.000000,0.000000,0.000000,1770901827.271332,0.000000
100.000000,24816.694834,24593.624424,2750.873894,664.092680,14194.654130,-7368.118449,10562.138028,-1428.052953,18174.471638,17003.016711,-588.297914,14807.091928,15882.680223,22926.676026,-5586.371492,-7098.802280,-0.012000,-0.026000,1.018000,192.000000,127.500000,80.000000,127.500000,24.000000,15.500000,104.000000,0.000000,0.000000,0.000000,1770901827.271350,0.000000
102.000000,24812.604465,24595.032584,2742.916673,656.426031,14205.941761,-7380.166039,10551.140970,-1439.832323,18177.399716,16997.249961,-591.248344,14803.180373,15876.175866,22926.005474,-5586.505602,-7097.952914,-0.012000,-0.026000,1.018000,192.000000,0.000000,0.000000,0.000000,0.000000,0.000000,0.000000,0.000000,0.000000,0.000000,1770901827.271367,0.000000
104.000000,24814.504363,24591.165732,2751.924426,658.437688,14210.590924,-7374.734566,10555.700726,-1432.679764,18185.133420,17013.790251,-591.918897,14799.738204,15889.989244,22934.454433,-5585.991512,-7101.775062,-0.012000,-0.026000,1.018000,192.000000,0.000000,0.000000,0.000000,0.000000,0.000000,0.000000,0.000000,0.000000,0.000000,1770901827.271384,0.000000
106.000000,24818.550029,24592.618596,2755.165429,653.900284,14219.643381,-7376.321539,10556.214816,-1435.317270,18171.096524,16998.501658,-582.955847,14802.241600,15860.060258,22922.451546,-5572.267541,-7104.412568,-0.012000,-0.026000,1.018000,192.000000,0.000000,0.000000,0.000000,0.000000,0.000000,0.000000,0.000000,0.000000,0.000000,1770901827.271402,0.000000
108.000000,24823.042729,24603.034509,2751.790315,657.185990,14230.439273,-7368.856057,10554.605491,-1438.334756,18192.375385,17023.468557,-591.337751,14799.984074,15900.785136,22931.548706,-5578.034291,-7111.721589,-0.012000,-0.026000,1.018000,192.000000,0.000000,0.000000,0.000000,0.000000,0.000000,0.000000,0.000000,0.000000,0.000000,1770901827.271419,0.000000
110.000000,24831.670503,24604.397965,2760.015757,664.740880,14222.549107,-7357.568426,10565.423735,-1422.956756,18194.252931,17025.681380,-582.575867,14806.443728,15926.534346,22937.226050,-5575.620303,-7108.569993,-0.010000,-0.024000,1.012000,192.000000,127.500000,88.000000,127.500000,32.000000,15.500000,80.000000,0.000000,0.000000,0.000000,1770901827.271436,0.000000
112.000000,24835.939686,24612.198724,2755.523056,661.321063,14227.019456,-7351.578158,10556.237168,-1429.282299,18190.117859,17016.427757,-575.803289,14809.572972,15882.434354,22937.203698,-5579.442451,-7108.726455,-0.010000,-0.024000,1.012000,192.000000,0.000000,0.000000,0.000000,0.000000,0.000000,0.000000,0.000000,0.000000,0.000000,1770901827.271455,0.000000
114.000000,24841.259401,24612.757517,2758.831115,669.747671,14225.387779,-7342.592757,10564.462610,-1420.833340,18210.793222,17039.248888,-575.468013,14812.635161,15933.128111,22948.647791,-5585.343311,-7103.809071,-0.010000,-0.024000,1.012000,192.000000,0.000000,0.000000,0.000000,0.000000,0.000000,0.000000,0.000000,0.000000,0.000000,1770901827.271474,0.000000
116.000000,24842.175823,24606.454325,2753.578455,665.724357,14214.234258,-7346.884292,10561.132200,-1425.527206,18196.778679,17022.574487,-571.668216,14813.238658,15899.421680,22941.383474,-5585.209201,-7094.801318,-0.010000,-0.024000,1.012000,192.000000,0.000000,0.000000,0.000000,0.000000,0.000000,0.000000,0.000000,0.000000,0.000000,1770901827.271492,0.000000
118.000000,24834.039788,24600.508761,2745.665937,663.310368,14206.724072,-7352.382821,10553.152627,-1437.977128,18211.687292,17035.717313,-583.224068,14803.068614,15907.557715,22939.796500,-5597.815585,-7097.371769,-0.010000,-0.024000,1.012000,192.000000,0.000000,0.000000,0.000000,0.000000,0.000000,0.000000,0.000000,0.000000,0.000000,1770901827.271510,0.000000
120.000000,24826.440194,24589.981090,2748.750478,663.623293,14197.693968,-7352.695746,10559.813447,-1435.876064,18180.663071,17026.061359,-588.342618,14798.464155,15880.981491,22928.397111,-5592.182945,-7092.521440,-0.012000,-0.022000,1.006000,192.000000,127.500000,80.000000,127.500000,40.000000,15.500000,56.000000,0.000000,0.000000,0.000000,1770901827.271530,0.000000
122.000000,24819.779375,24585.577796,2736.300556,656.783659,14204.667712,-7358.708365,10547.587043,-1451.678747,18176.036260,17015.690150,-595.025789,14793.323254,15865.625842,22924.642017,-5591.914724,-7091.292094,-0.012000,-0.022000,1.006000,192.000000,0.000000,0.000000,0.000000,0.000000,0.000000,0.000000,0.000000,0.000000,0.000000,1770901827.271549,0.000000
124.000000,24811.017491,24577.598223,2743.989556,658.281226,14195.749366,-7354.036850,10553.979642,-1449.264759,18176.125667,17022.216859,-604.659391,14785.589550,15881.763802,22919.255247,-5589.791309,-7090.643894,-0.012000,-0.022000,1.006000,192.000000,0.000000,0.000000,0.000000,0.000000,0.000000,0.000000,0.000000,0.000000,0.000000,1770901827.271566,0.000000
126.000000,24814.414956,24579.229901,2743.497818,655.531961,14206.031168,-7359.580083,10555.588967,-1449.555331,18170.604786,17004.581333,-597.596240,14786.327158,15861.691935,22913.801421,-5577.788422,-7090.778004,-0.012000,-0.022000,1.006000,192.000000,0.000000,0.000000,0.000000,0.000000,0.000000,0.000000,0.000000,0.000000,0.000000,1770901827.271583,0.000000
128.000000,24819.645264,24592.395078,2744.168370,654.950816,14213.966038,-7367.760821,10552.325613,-1448.504799,18180.774829,17029.995266,-603.631211,14786.416565,15902.997959,22919.970503,-5578.436622,-7101.126862,-0.012000,-0.022000,1.006000,192.000000,0.000000,0.000000,0.000000,0.000000,0.000000,0.000000,0.000000,0.000000,0.000000,1770901827.271600,0.000000
130.000000,24831.134061,24593.311500,2748.079926,658.840020,14206.902886,-7363.469286,10563.814409,-1431.316308,18183.479391,17021.099272,-593.617629,14792.607998,15887.821125,22917.265942,-5571.060547,-7103.987885,-0.008000,-0.014000,1.006000,192.000000,127.500000,96.000000,127.500000,72.000000,15.500000,56.000000,0.000000,0.000000,0.000000,1770901827.271617,0.000000
132.000000,24830.463508,24598.407697,2748.571664,655.464906,14207.059348,-7361.122353,10557.555921,-1432.523302,18196.421051,17021.255734,-587.336789,14798.330045,15885.116563,22926.005474,-5577.788422,-7107.564164,-0.008000,-0.014000,1.006000,192.000000,0.000000,0.000000,0.000000,0.000000,0.000000,0.000000,0.000000,0.000000,0.000000,1770901827.271635,0.000000
134.000000,24833.346883,24602.542770,2755.813629,664.584418,14203.393662,-7355.109734,10566.071935,-1421.079209,18198.432708,17042.355781,-583.469937,14800.542867,15886.167095,22933.359198,-5584.404538,-7109.553469,-0.008000,-0.014000,1.006000,192.000000,0.000000,0.000000,0.000000,0.000000,0.000000,0.000000,0.000000,0.000000,0.000000,1770901827.271653,0.000000
136.000000,24831.648151,24597.759497,2750.516266,662.483354,14197.001063,-7361.502333,10564.999052,-1424.230805,18199.058556,17014.572563,-578.060815,14805.616713,15878.522799,22929.402939,-5581.878791,-7105.396045,-0.008000,-0.014000,1.006000,192.000000,0.000000,0.000000,0.000000,0.000000,0.000000,0.000000,0.000000,0.000000,0.000000,1770901827.271668,0.000000
138.000000,24816.404261,24594.876122,2742.067306,661.276360,14188.462697,-7364.966853,10557.533569,-1433.707945,18199.594998,17031.224612,-589.370798,14800.386405,15904.495526,22930.699340,-5595.781576,-7108.145309,-0.008000,-0.014000,1.006000,192.000000,0.000000,0.000000,0.000000,0.000000,0.000000,0.000000,0.000000,0.000000,0.000000,1770901827.271686,0.000000
140.000000,24815.934875,24585.734258,2744.391888,666.260799,14178.940854,-7355.959100,10563.970871,-1432.791523,18184.216998,17016.874792,-593.081187,14797.659492,15869.872674,22927.346579,-5594.328713,-7104.390216,-0.010000,-0.014000,1.010000,192.000000,127.500000,88.000000,127.500000,72.000000,15.500000,72.000000,0.000000,0.000000,0.000000,1770901827.271703,0.000000
142.000000,24809.497572,24583.454380,2734.020678,659.085889,14177.487991,-7361.100001,10551.543302,-1448.057765,18183.904074,17007.308246,-602.915955,14792.160963,15881.339119,22926.139584,-5597.994399,-7097.260010,-0.010000,-0.014000,1.010000,192.000000,0.000000,0.000000,0.000000,0.000000,0.000000,0.000000,0.000000,0.000000,0.000000,1770901827.271718,0.000000
144.000000,24807.150639,24575.295994,2737.574606,659.331758,14175.163409,-7360.071821,10555.097229,-1443.140381,18187.234484,17011.018635,-607.252193,14784.695480,15878.969834,22924.865535,-5595.647466,-7096.477699,-0.010000,-0.014000,1.010000,192.000000,0.000000,0.000000,0.000000,0.000000,0.000000,0.000000,0.000000,0.000000,0.000000,1770901827.271730,0.000000
146.000000,24806.055403,24573.060819,2737.731068,655.062575,14177.935025,-7365.883275,10555.208988,-1443.475657,18188.642644,16982.676623,-600.993705,14782.482658,15851.745409,22912.214448,-5584.628056,-7092.342626,-0.010000,-0.014000,1.010000,192.000000,0.000000,0.000000,0.000000,0.000000,0.000000,0.000000,0.000000,0.000000,0.000000,1770901827.271742,0.000000
148.000000,24801.272130,24575.653622,2735.987632,650.927502,14187.881552,-7368.945464,10551.208025,-1447.230750,18186.519228,17000.870943,-606.313420,14778.727565,15875.639424,22913.466145,-5584.650407,-7100.568068,-0.010000,-0.014000,1.010000,192.000000,0.000000,0.000000,0.000000,0.000000,0.000000,0.000000,0.000000,0.000000,0.000000,1770901827.271760,0.000000
150.000000,24807.910598,24565.640040,2740.681498,653.207380,14192.128383,-7369.414850,10561.914511,-1438.424163,18192.040109,16986.319958,-603.340638,14777.699384,15889.206933,22908.213485,-5577.050814,-7097.863507,-0.004000,-0.016000,1.010000,192.000000,127.500000,112.000000,127.500000,64.000000,15.500000,72.000000,0.000000,0.000000,0.000000,1770901827.271775,0.000000
152.000000,24812.291540,24579.274604,2741.508513,650.189894,14203.795994,-7374.958083,10555.767781,-1440.704041,18201.249027,16983.548341,-602.960658,14778.101716,15872.443124,22913.287331,-5580.917666,-7105.641914,-0.004000,-0.016000,1.010000,192.000000,0.000000,0.000000,0.000000,0.000000,0.000000,0.000000,0.000000,0.000000,0.000000,1770901827.271795,0.000000
154.000000,24820.025244,24589.310537,2747.096449,658.996482,14199.839735,-7365.168019,10563.345023,-1429.997555,18200.265551,17007.844687,-597.126853,14780.068669,15868.039831,22922.675064,-5587.176155,-7113.912060,-0.004000,-0.016000,1.010000,192.000000,0.000000,0.000000,0.000000,0.000000,0.000000,0.000000,0.000000,0.000000,0.000000,1770901827.271808,0.000000
156.000000,24826.931933,24590.182256,2746.716469,661.991616,14202.566648,-7362.418754,10563.702651,-1429.282299,18208.826269,17000.870943,-588.722597,14790.909265,15893.945503,22922.853878,-5589.031349,-7106.781853,-0.004000,-0.016000,1.010000,192.000000,0.000000,0.000000,0.000000,0.000000,0.000000,0.000000,0.000000,0.000000,0.000000,1770901827.271825,0.000000
158.000000,24828.094224,24596.038413,2750.426859,660.963435,14200.510287,-7363.491638,10558.986432,-1429.081133,18215.196516,17016.360702,-590.309571,14788.361167,15877.315805,22932.554535,-5595.401596,-7109.911097,-0.004000,-0.016000,1.010000,192.000000,0.000000,0.000000,0.000000,0.000000,0.000000,0.000000,0.000000,0.000000,0.000000,1770901827.271839,0.000000
160.000000,24834.844450,24587.276529,2751.387984,666.216095,14202.745462,-7353.366298,10567.703613,-1422.017982,18218.258705,17003.575504,-580.497155,14791.646873,15887.463497,22934.834413,-5589.523088,-7103.093815,-0.004000,-0.019000,1.013000,192.000000,127.500000,112.000000,127.500000,40.000000,15.500000,96.000000,0.000000,0.000000,0.000000,1770901827.271855,0.000000
162.000000,24818.348863,24584.482561,2740.949719,660.963435,14196.486973,-7356.204969,10553.867883,-1441.262834,18215.464737,16999.909818,-588.253211,14788.405870,15895.688939,22931.414596,-5595.334541,-7097.125899,-0.004000,-0.019000,1.013000,192.000000,0.000000,0.000000,0.000000,0.000000,0.000000,0.000000,0.000000,0.000000,0.000000,1770901827.271868,0.000000
164.000000,24812.358595,24575.921843,2740.010946,658.974130,14193.268322,-7361.927016,10555.924243,-1444.414430,18198.544466,17001.340330,-602.312458,14776.961777,15880.802677,22925.670198,-5594.395768,-7098.511708,-0.004000,-0.019000,1.013000,192.000000,0.000000,0.000000,0.000000,0.000000,0.000000,0.000000,0.000000,0.000000,0.000000,1770901827.271884,0.000000
166.000000,24808.469392,24570.110389,2738.491027,653.743822,14188.954435,-7369.750127,10554.404325,-1450.650567,18204.981769,16976.619300,-600.278449,14771.016213,15868.240996,22904.883075,-5586.460899,-7093.706083,-0.004000,-0.019000,1.013000,192.000000,0.000000,0.000000,0.000000,0.000000,0.000000,0.000000,0.000000,0.000000,0.000000,1770901827.271899,0.000000
168.000000,24801.629758,24569.775113,2734.959452,648.938197,14186.406337,-7376.008615,10548.525816,-1456.685538,18203.059519,16982.743678,-612.594260,14763.081344,15912.922134,22911.722709,-5586.505602,-7100.702179,-0.004000,-0.019000,1.013000,192.000000,0.000000,0.000000,0.000000,0.000000,0.000000,0.000000,0.000000,0.000000,0.000000,1770901827.271914,0.000000
170.000000,24812.157430,24569.417485,2743.162542,654.883761,14189.312063,-7371.985301,10559.187598,-1444.481485,18190.296673,16980.486152,-606.425179,14765.070649,15867.391630,22899.026918,-5583.465765,-7099.517536,-0.003000,-0.017500,1.012500,192.000000,127.500000,120.000000,127.500000,64.000000,15.500000,80.000000,0.000000,0.000000,0.000000,1770901827.271928,0.000000
172.000000,24811.352767,24576.726505,2742.559045,655.062575,14203.483069,-7371.404156,10552.437371,-1448.728317,18206.188763,16980.732021,-604.771150,14768.356355,15867.659851,22903.609026,-5577.989588,-7097.997617,-0.003000,-0.017500,1.012500,192.000000,0.000000,0.000000,0.000000,0.000000,0.000000,0.000000,0.000000,0.000000,0.000000,1770901827.271944,0.000000
174.000000,24822.953322,24585.622500,2745.643585,661.365767,14202.276075,-7368.878409,10561.243959,-1436.814837,18205.406452,16998.524010,-599.093807,14772.603187,15875.348851,22913.309683,-5583.264599,-7104.010237,-0.003000,-0.017500,1.012500,192.000000,0.000000,0.000000,0.000000,0.000000,0.000000,0.000000,0.000000,0.000000,0.000000,1770901827.271960,0.000000
176.000000,24827.758947,24587.611805,2744.794219,663.064499,14206.925238,-7369.995996,10563.054450,-1435.831360,18221.186783,16988.108097,-592.812966,14782.035623,15876.958177,22907.967616,-5585.209201,-7101.484490,-0.003000,-0.017500,1.012500,192.000000,0.000000,0.000000,0.000000,0.000000,0.000000,0.000000,0.000000,0.000000,0.000000,1770901827.271974,0.000000
178.000000,24827.647189,24597.558331,2743.229597,663.310368,14192.977749,-7363.022251,10558.807618,-1438.245349,18221.678522,17003.150821,-598.132682,14782.169733,15887.351738,22915.835430,-5597.457957,-7110.045208,-0.003000,-0.017500,1.012500,192.000000,0.000000,0.000000,0.000000,0.000000,0.000000,0.000000,0.000000,0.000000,0.000000,1770901827.751690,0.000000
180.000000,24825.456718,24592.149209,2745.285957,665.299674,14194.989406,-7365.346833,10568.552979,-1429.438761,18212.335493,17003.173173,-590.689551,14783.533190,15887.374090,22919.411709,-5594.887506,-7108.011199,-0.004500,-0.018750,1.009250,192.000000,127.500000,104.000000,127.500000,48.000000,15.500000,56.000000,0.000000,0.000000,0.000000,1770901827.751770,0.000000
182.000000,24820.941665,24592.819761,2738.312213,659.734089,14181.868932,-7375.695691,10556.527741,-1439.631157,18214.950647,16998.635769,-596.903336,14781.409774,15894.057261,22913.108517,-5600.251925,-7107.340647,-0.004500,-0.018750,1.009250,192.000000,0.000000,0.000000,0.000000,0.000000,0.000000,0.000000,0.000000,0.000000,0.000000,1770901827.751826,0.000000
184.000000,24819.980540,24583.700250,2736.702888,658.437688,14174.336395,-7374.466345,10561.020441,-1439.027660,18202.947760,17007.218839,-601.463092,14775.620672,15876.041755,22908.302892,-5609.214975,-7109.173490,-0.004500,-0.018750,1.009250,192.000000,0.000000,0.000000,0.000000,0.000000,0.000000,0.000000,0.000000,0.000000,0.000000,1770901827.751897,0.000000
186.000000,24813.699700,24571.853825,2728.835074,655.599017,14176.079831,-7375.852153,10556.550092,-1447.208398,18218.370464,16983.168362,-601.753664,14770.569178,15873.314842,22899.317491,-5608.879698,-7098.467004,-0.004500,-0.018750,1.009250,192.000000,0.000000,0.000000,0.000000,0.000000,0.000000,0.000000,0.000000,0.000000,0.000000,1770901827.751949,0.000000
188.000000,24804.133153,24571.406790,2728.544501,653.721470,14158.086676,-7375.494525,10548.101133,-1454.539770,18199.505591,16988.801001,-615.187063,14760.175617,15843.609374,22899.004567,-5609.684361,-7101.417434,-0.004500,-0.018750,1.009250,192.000000,0.000000,0.000000,0.000000,0.000000,0.000000,0.000000,0.000000,0.000000,0.000000,1770901827.752014,0.000000
190.000000,24808.000005,24563.874252,2730.176178,655.889589,14165.999194,-7364.229246,10556.706554,-1449.018890,18184.038184,16980.955539,-614.494159,14760.466189,15838.267307,22903.787840,-5601.883602,-7094.063710,-0.005250,-0.018375,1.006625,192.000000,127.500000,104.000000,127.500000,56.000000,15.500000,48.000000,0.000000,0.000000,0.000000,1770901827.752030,0.000000
192.000000,24803.686119,24571.563252,2728.075114,654.660243,14168.904921,-7367.514952,10547.721153,-1454.204494,18200.913751,16979.681489,-617.645755,14760.354431,15865.089400,22896.724689,-5597.972047,-7093.370806,-0.005250,-0.018375,1.006625,192.000000,0.000000,0.000000,0.000000,0.000000,0.000000,0.000000,0.000000,0.000000,0.000000,1770901827.752042,0.000000
194.000000,24813.386776,24579.520473,2740.860312,659.979959,14189.021491,-7365.078612,10559.142895,-1439.295881,18194.878780,16992.913722,-609.397961,14761.159094,15879.327462,22905.374814,-5589.388977,-7097.170603,-0.005250,-0.018375,1.006625,192.000000,0.000000,0.000000,0.000000,0.000000,0.000000,0.000000,0.000000,0.000000,0.000000,1770901827.752055,0.000000
196.000000,24826.887229,24595.859599,2748.079926,664.673825,14203.460718,-7362.597568,10564.015575,-1429.125837,18226.707664,16989.873885,-595.003437,14772.044393,15876.265273,22910.716881,-5578.481326,-7093.460213,-0.005250,-0.018375,1.006625,192.000000,0.000000,0.000000,0.000000,0.000000,0.000000,0.000000,0.000000,0.000000,0.000000,1770901827.752067,0.000000
198.000000,24831.446985,24607.929541,2749.443382,666.327854,14202.723110,-7353.053373,10560.774572,-1426.398924,18235.670714,17008.068205,-590.823661,14779.554579,15882.926092,22921.333959,-5589.634846,-7105.261934,-0.005250,-0.018375,1.006625,192.000000,0.000000,0.000000,0.000000,0.000000,0.000000,0.000000,0.000000,0.000000,0.000000,1770901827.752079,0.000000
200.000000,24840.655904,24605.426145,2751.164466,671.424052,14206.455851,-7352.919263,10572.308072,-1416.407694,18246.310144,17012.605609,-578.686664,14785.857771,15899.421680,22931.325189,-5590.931248,-7102.915001,-0.004625,-0.019188,1.007313,192.000000,127.500000,112.000000,127.500000,48.000000,15.500000,64.000000,0.000000,0.000000,0.000000,1770901827.752092,0.000000
202.000000,24833.816270,24607.571913,2751.611501,668.697139,14204.578305,-7367.202028,10563.948520,-1426.130703,18252.747447,17010.839821,-582.933495,14786.081289,15891.196238,22928.374759,-5594.261658,-7106.021894,-0.004625,-0.019188,1.007313,192.000000,0.000000,0.000000,0.000000,0.000000,0.000000,0.000000,0.000000,0.000000,0.000000,1770901827.752104,0.000000
204.000000,24831.581096,24597.424221,2751.008004,667.981883,14202.745462,-7370.219513,10567.994185,-1425.728372,18242.286830,17020.987513,-587.873231,14781.275664,15888.983415,22922.205677,-5596.429777,-7109.978153,-0.004625,-0.019188,1.007313,192.000000,0.000000,0.000000,0.000000,0.000000,0.000000,0.000000,0.000000,0.000000,0.000000,1770901827.752116,0.000000
206.000000,24827.043692,24590.405773,2744.704812,662.215133,14205.897058,-7371.091231,10563.210912,-1434.892587,18248.455912,17002.614379,-587.359141,14777.744088,15893.073784,22910.739232,-5593.568753,-7103.429091,-0.004625,-0.019188,1.007313,192.000000,0.000000,0.000000,0.000000,0.000000,0.000000,0.000000,0.000000,0.000000,0.000000,1770901827.752128,0.000000
208.000000,24809.899904,24585.309575,2735.451190,658.929427,14188.641511,-7365.682109,10552.012688,-1447.566026,18234.664885,17012.315036,-602.781844,14769.161018,15895.979511,22914.695491,-5600.475442,-7106.915964,-0.004625,-0.019188,1.007313,192.000000,0.000000,0.000000,0.000000,0.000000,0.000000,0.000000,0.000000,0.000000,0.000000,1770901827.752140,0.000000
210.000000,24813.744404,24581.040392,2738.602786,661.633988,14183.813534,-7362.105830,10561.065145,-1442.179256,18225.835946,17001.697958,-606.067551,14762.410791,15882.389651,22912.102689,-5600.229573,-7098.064673,-0.007313,-0.018594,1.009656,192.000000,127.500000,88.000000,127.500000,56.000000,15.500000,80.000000,0.000000,0.000000,0.000000,1770901827.752152,0.000000
212.000000,24800.534523,24577.240595,2730.354992,655.755479,14180.751345,-7367.067917,10548.123485,-1455.210323,18228.473452,16987.929283,-608.325077,14758.767457,15861.602528,22902.111459,-5599.246097,-7094.689559,-0.007313,-0.018594,1.009656,192.000000,0.000000,0.000000,0.000000,0.000000,0.000000,0.000000,0.000000,0.000000,0.000000,1770901827.752164,0.000000
214.000000,24803.194380,24575.117180,2730.913786,661.388118,14178.315005,-7363.312824,10554.292566,-1449.778849,18204.691196,17001.317978,-616.706981,14754.744143,15868.688031,22900.211561,-5598.933172,-7095.002484,-0.007313,-0.018594,1.009656,192.000000,0.000000,0.000000,0.000000,0.000000,0.000000,0.000000,0.000000,0.000000,0.000000,1770901827.752176,0.000000
216.000000,24812.135078,24579.855750,2732.523111,665.746709,14178.650281,-7346.169036,10554.940767,-1446.515494,18217.610504,16992.042004,-611.074342,14762.500198,15865.111752,22893.707203,-5593.747567,-7083.960722,-0.007313,-0.018594,1.009656,192.000000,0.000000,0.000000,0.000000,0.000000,0.000000,0.000000,0.000000,0.000000,0.000000,1770901827.752200,0.000000
218.000000,24813.409127,24591.076325,2727.739838,670.261761,14174.716374,-7337.965946,10550.291604,-1447.454267,18224.628952,17013.969065,-614.449455,14767.439934,15893.364357,22908.437003,-5601.950658,-7083.625446,-0.007313,-0.018594,1.009656,192.000000,0.000000,0.000000,0.000000,0.000000,0.000000,0.000000,0.000000,0.000000,0.000000,1770901827.752212,0.000000
220.000000,24824.450889,24588.662337,2743.743687,670.865258,14182.181857,-7344.693821,10562.786229,-1433.529131,18225.232449,17016.673627,-603.228879,14772.200855,15858.517988,22916.908314,-5604.722274,-7080.898533,-0.007313,-0.018594,1.009656,192.000000,0.000000,0.000000,0.000000,0.000000,0.000000,0.000000,0.000000,0.000000,0.000000,1770901827.752224,0.000000
222.000000,24826.462546,24598.519456,2738.356917,666.730185,14177.644453,-7358.529551,10555.052525,-1436.144285,18236.788301,17008.694054,-599.183214,14775.240693,15870.587930,22911.789764,-5604.990495,-7092.052053,-0.002000,-0.018000,1.008000,192.000000,127.500000,120.000000,127.500000,56.000000,15.500000,64.000000,0.000000,0.000000,0.000000,1770901827.752237,0.000000
224.000000,24827.557782,24593.825590,2741.597920,667.490145,14173.934063,-7364.139839,10563.166209,-1429.036430,18228.808728,17027.871850,-597.484481,14776.872370,15883.753107,22917.221238,-5611.986591,-7100.568068,-0.002000,-0.018000,1.008000,192.000000,0.000000,0.000000,0.000000,0.000000,0.000000,0.000000,0.000000,0.000000,0.000000,1770901827.752251,0.000000
226.000000,24825.769642,24587.991785,2739.787428,667.221924,14180.170200,-7371.046528,10562.115677,-1430.779866,18237.592964,17010.348083,-595.159900,14777.207646,15866.318746,22910.269846,-5610.220803,-7102.065635,-0.002000,-0.018000,1.008000,192.000000,0.000000,0.000000,0.000000,0.000000,0.000000,0.000000,0.000000,0.000000,0.000000,1770901827.752267,0.000000
228.000000,24819.265284,24594.764363,2738.111048,663.265665,14185.512267,-7370.621845,10555.320746,-1438.915901,18234.597830,17021.054568,-600.792539,14772.782001,15896.761822,22915.656616,-5614.087655,-7109.218193,-0.002000,-0.018000,1.008000,192.000000,0.000000,0.000000,0.000000,0.000000,0.000000,0.000000,0.000000,0.000000,0.000000,1770901827.752284,0.000000
230.000000,24817.611255,24580.548654,2740.390925,661.991616,14194.251799,-7373.952255,10562.450953,-1435.853712,18232.161490,17015.019597,-598.624420,14769.071611,15870.744392,22908.213485,-5607.113911,-7108.301772,-0.002000,-0.018000,1.008000,192.000000,0.000000,0.000000,0.000000,0.000000,0.000000,0.000000,0.000000,0.000000,0.000000,1770901827.752301,0.000000
