Sample_index,EXG Channel 0,EXG Channel 1,EXG Channel 2,EXG Channel 3,EXG Channel 4,EXG Channel 5,EXG Channel 6,EXG Channel 7,EXG Channel 8,EXG Channel 9,EXG Channel 10,EXG Channel 11,EXG Channel 12,EXG Channel 13,EXG Channel 14,EXG Channel 15,Accel Channel 0,Accel Channel 1,Accel Channel 2,Not Used,Digital Channel 0 (D11),Digital Channel 1 (D12),Digital Channel 2 (D13),Digital Channel 3 (D17),Not Used,Digital Channel 4 (D18),Analog Channel 0,Analog Channel 1,Analog Channel 2,Timestamp,Marker Channel
72.000000,-19703.554476,-14763.237806,-6612.182452,-8927.577308,2523.646059,-2566.270836,-8062.296577,-5273.603532,-973.597285,-18269.600662,-11955.970461,1422.286203,-988.327085,26566.277631,-25652.873594,-14782.125030,0.002000,-0.014500,1.012000,192.000000,0.000000,0.000000,0.000000,0.000000,0.000000,0.000000,0.000000,0.000000,0.000000,1770884800.821427,101.000000
74.000000,-19646.959859,-14709.772433,-6576.397309,-8875.475392,2566.516705,-2552.636272,-8029.931251,-5224.161473,-958.174581,-18180.171332,-11885.115431,1487.687407,-916.198005,26562.164910,-25561.030276,-14712.253477,0.002000,-0.014500,1.012000,192.000000,0.000000,0.000000,0.000000,0.000000,0.000000,0.000000,0.000000,0.000000,0.000000,1770884800.821554,0.000000
76.000000,-19724.632171,-14784.471963,-6624.654725,-8940.317802,2500.646114,-2541.974490,-8071.997234,-5285.561715,-970.155116,-18223.399606,-11922.353437,1459.345395,-954.128916,26598.531198,-25616.641416,-14743.635326,0.002000,-0.014500,1.012000,192.000000,0.000000,0.000000,0.000000,0.000000,0.000000,0.000000,0.000000,0.000000,0.000000,1770884800.821629,0.000000
78.000000,-19640.254335,-14705.994988,-6575.302073,-8877.151773,2562.269874,-2570.964702,-8029.998306,-5224.206176,-963.114317,-18231.513289,-11921.973458,1452.617520,-956.028814,26558.610983,-25618.809535,-14753.671259,0.002000,-0.014500,1.012000,192.000000,0.000000,0.000000,0.000000,0.000000,0.000000,0.000000,0.000000,0.000000,0.000000,1770884800.821700,0.000000
80.000000,-19693.518542,-14757.851035,-6603.599382,-8916.960230,2517.141702,-2545.617824,-8057.178027,-5259.276063,-962.175544,-18181.400678,-11873.470172,1487.866221,-908.777226,26566.232928,-25563.824244,-14707.269038,0.002000,-0.014500,1.012000,192.000000,0.000000,0.000000,127.500000,72.000000,15.500000,56.000000,0.000000,0.000000,0.000000,1770884800.821749,0.000000
82.000000,-19692.468010,-14755.682916,-6606.147481,-8925.118616,2518.393400,-2567.299016,-8056.619234,-5264.662834,-965.617712,-18262.358697,-11943.386429,1428.790561,-985.309599,26580.158064,-25648.805576,-14784.293149,0.002000,-0.014500,1.012000,192.000000,0.000000,0.000000,0.000000,0.000000,0.000000,0.000000,0.000000,0.000000,0.000000,1770884800.821774,0.000000
84.000000,-19646.736341,-14712.856974,-6574.855039,-8883.074985,2565.756746,-2557.553656,-8033.149902,-5226.240185,-960.655625,-18190.095507,-11880.488620,1480.512497,-919.662526,26549.312657,-25564.852424,-14717.975523,0.002000,-0.014500,1.012000,192.000000,0.000000,0.000000,0.000000,0.000000,0.000000,0.000000,0.000000,0.000000,0.000000,1770884800.821827,0.000000
86.000000,-19725.481537,-14786.058937,-6622.061923,-8942.262404,2501.651943,-2553.530342,-8074.724147,-5288.489793,-965.997692,-18233.703760,-11919.894745,1449.309462,-944.674128,26580.113361,-25615.434422,-14753.313631,0.002000,-0.014500,1.012000,192.000000,0.000000,0.000000,0.000000,0.000000,0.000000,0.000000,0.000000,0.000000,0.000000,1770884800.821880,0.000000
88.000000,-19645.842272,-14707.425500,-6575.436184,-8884.840773,2565.890856,-2572.283455,-8035.072152,-5233.280985,-968.232866,-18233.569650,-11924.365094,1443.699174,-958.934541,26542.853003,-25615.747346,-14756.845207,0.002000,-0.014500,1.012000,192.000000,0.000000,0.000000,0.000000,0.000000,0.000000,0.000000,0.000000,0.000000,0.000000,1770884800.821930,0.000000
90.000000,-19699.106479,-14757.649870,-6599.576068,-8921.274116,2529.166940,-2541.505103,-8059.659071,-5264.372261,-966.891762,-18189.380251,-11878.275797,1478.478489,-913.471092,26572.603175,-25562.840767,-14713.549878,0.002000,-0.014500,1.012000,192.000000,0.000000,0.000000,0.000000,0.000000,0.000000,0.000000,0.000000,0.000000,0.000000,1770884800.821972,0.000000
92.000000,-19705.946112,-14761.136742,-6608.628524,-8924.805692,2526.954118,-2568.371900,-8061.536617,-5275.369319,-969.551619,-18270.874711,-11952.617699,1420.073380,-983.610867,26562.343724,-25642.345922,-14780.158076,-0.002000,-0.014000,1.004000,192.000000,127.500000,120.000000,127.500000,72.000000,15.500000,48.000000,0.000000,0.000000,0.000000,1770884800.821994,0.000000
94.000000,-19643.674152,-14704.698587,-6572.642216,-8877.643511,2563.409813,-2545.215493,-8031.898204,-5224.764970,-963.829573,-18185.736917,-11884.578989,1479.529021,-910.900642,26553.604192,-25565.008886,-14711.493517,-0.002000,-0.014000,1.004000,192.000000,0.000000,0.000000,0.000000,0.000000,0.000000,0.000000,0.000000,0.000000,0.000000,1770884800.822018,0.000000
96.000000,-19729.773072,-14787.780021,-6627.247528,-8945.145779,2498.880327,-2546.646005,-8075.349996,-5287.260447,-973.485526,-18233.055560,-11923.918059,1448.728317,-962.264951,26572.022029,-25615.993216,-14749.156207,-0.002000,-0.014000,1.004000,192.000000,0.000000,0.000000,0.000000,0.000000,0.000000,0.000000,0.000000,0.000000,0.000000,1770884800.822042,0.000000
98.000000,-19650.849062,-14708.677198,-6576.531419,-8885.734843,2558.157153,-2568.796583,-8034.423951,-5230.509368,-973.954913,-18238.956420,-11930.668286,1441.374593,-962.734337,26545.244640,-25618.764832,-14758.879216,-0.002000,-0.014000,1.004000,192.000000,0.000000,0.000000,0.000000,0.000000,0.000000,0.000000,0.000000,0.000000,0.000000,1770884800.822065,0.000000
100.000000,-19698.547685,-14755.571157,-6603.219402,-8918.569555,2522.617879,-2543.762629,-8060.128458,-5264.774592,-967.048224,-18183.904074,-11881.114469,1484.044073,-920.042505,26580.403934,-25566.640564,-14716.880288,-0.002000,-0.014000,1.004000,192.000000,0.000000,0.000000,0.000000,0.000000,0.000000,0.000000,0.000000,0.000000,0.000000,1770884800.822108,0.000000
102.000000,-19694.613778,-14751.324326,-6599.978399,-8921.363523,2527.199987,-2564.728566,-8057.155676,-5267.210933,-966.891762,-18260.034115,-11949.488455,1431.361011,-977.844116,26568.378695,-25648.269135,-14783.354376,-0.002000,-0.012000,1.006000,192.000000,127.500000,120.000000,127.500000,80.000000,15.500000,56.000000,0.000000,0.000000,0.000000,1770884800.822130,0.000000
104.000000,-19641.662495,-14705.212677,-6574.117431,-8880.370424,2570.696482,-2551.965720,-8033.082847,-5228.698877,-961.572046,-18183.144114,-11881.874428,1484.625218,-908.285488,26555.101759,-25560.851462,-14717.304971,-0.002000,-0.012000,1.006000,192.000000,0.000000,0.000000,0.000000,0.000000,0.000000,0.000000,0.000000,0.000000,0.000000,1770884800.822155,0.000000
106.000000,-19727.046159,-14780.403945,-6623.648897,-8945.793980,2508.648039,-2541.728621,-8076.266417,-5291.954314,-965.640064,-18232.407359,-11921.861699,1447.476619,-959.582741,26575.598309,-25612.059309,-14752.151341,-0.002000,-0.012000,1.006000,192.000000,0.000000,0.000000,0.000000,0.000000,0.000000,0.000000,0.000000,0.000000,0.000000,1770884800.822177,0.000000
108.000000,-19649.575013,-14708.073700,-6576.173791,-8882.002101,2569.601246,-2556.257255,-8034.736876,-5237.237243,-960.946198,-18231.848566,-11927.159062,1439.809971,-948.540979,26560.108550,-25609.801782,-14750.162035,-0.002000,-0.012000,1.006000,192.000000,0.000000,0.000000,0.000000,0.000000,0.000000,0.000000,0.000000,0.000000,0.000000,1770884800.822194,0.000000
110.000000,-19694.546723,-14753.872425,-6602.794719,-8916.736712,2528.451685,-2531.290356,-8061.424859,-5269.647273,-965.215381,-18180.104277,-11884.266065,1481.093643,-914.320459,26577.699372,-25564.807721,-14704.922104,-0.002000,-0.012000,1.006000,192.000000,0.000000,0.000000,0.000000,0.000000,0.000000,0.000000,0.000000,0.000000,0.000000,1770884800.822218,0.000000
112.000000,-19699.128830,-14758.566291,-6608.628524,-8923.062256,2529.122237,-2560.437031,-8061.804838,-5278.722081,-970.669206,-18263.900967,-11954.450542,1421.570947,-980.928657,26577.341745,-25642.032998,-14772.871408,-0.002000,-0.012000,1.006000,192.000000,0.000000,0.000000,127.500000,72.000000,15.500000,64.000000,0.000000,0.000000,0.000000,1770884800.822265,0.000000
114.000000,-19652.972478,-14709.213639,-6579.660664,-8883.812592,2564.795621,-2549.194103,-8036.815588,-5234.264461,-970.579799,-18191.503667,-11893.519687,1473.806974,-923.730543,26541.020160,-25562.773712,-14706.531430,-0.002000,-0.012000,1.006000,192.000000,0.000000,0.000000,0.000000,0.000000,0.000000,0.000000,0.000000,0.000000,0.000000,1770884800.822285,0.000000
116.000000,-19733.572869,-14791.021024,-6634.400086,-8950.309032,2501.830757,-2547.920054,-8077.272246,-5296.357607,-978.805241,-18238.397627,-11929.818920,1443.073326,-966.824706,26585.209559,-25615.613236,-14747.904509,-0.002000,-0.012000,1.006000,192.000000,0.000000,0.000000,0.000000,0.000000,0.000000,0.000000,0.000000,0.000000,0.000000,1770884800.822309,0.000000
118.000000,-19653.195995,-14714.198078,-6581.761728,-8895.010816,2559.587665,-2565.980263,-8035.720353,-5236.924319,-974.603113,-18243.985563,-11932.612888,1437.708907,-972.658512,26541.422491,-25620.687082,-14758.767457,-0.002000,-0.012000,1.006000,192.000000,0.000000,0.000000,0.000000,0.000000,0.000000,0.000000,0.000000,0.000000,0.000000,1770884800.822332,0.000000
120.000000,-19694.278502,-14756.621689,-6601.006580,-8925.722113,2521.992030,-2535.917167,-8058.027394,-5260.840685,-966.623541,-18197.315120,-11880.913303,1472.130593,-915.214528,26570.479759,-25560.985572,-14713.371064,-0.002000,-0.012000,1.006000,192.000000,0.000000,0.000000,0.000000,0.000000,0.000000,0.000000,0.000000,0.000000,0.000000,1770884800.822350,0.000000
122.000000,-19695.507848,-14755.191178,-6605.432225,-8922.838738,2525.031868,-2557.196028,-8058.362670,-5263.165267,-968.501087,-18268.192502,-11944.548719,1423.359087,-984.951971,26572.804340,-25644.916373,-14778.794620,-0.002000,-0.012000,1.006000,192.000000,0.000000,0.000000,127.500000,72.000000,15.500000,56.000000,0.000000,0.000000,0.000000,1770884800.822366,0.000000
124.000000,-19639.963763,-14694.975578,-6570.295283,-8871.832057,2573.646912,-2541.013365,-8028.992478,-5213.119711,-963.337834,-18177.422068,-11874.431297,1486.748634,-915.639212,26557.247526,-25561.924346,-14714.041616,-0.002000,-0.012000,1.006000,192.000000,0.000000,0.000000,0.000000,0.000000,0.000000,0.000000,0.000000,0.000000,0.000000,1770884800.822383,0.000000
126.000000,-19717.300799,-14765.428277,-6617.993905,-8937.836759,2508.446873,-2534.039621,-8069.493838,-5273.491773,-957.124049,-18219.331589,-11907.154251,1462.072308,-954.464192,26597.838294,-25611.411108,-14747.435122,-0.002000,-0.012000,1.006000,192.000000,0.000000,0.000000,0.000000,0.000000,0.000000,0.000000,0.000000,0.000000,0.000000,1770884800.822402,0.000000
128.000000,-19633.593516,-14690.974616,-6571.189352,-8880.392776,2563.588627,-2559.475906,-8026.645544,-5214.639630,-960.856791,-18226.059464,-11914.798548,1457.400794,-960.610921,26566.836425,-25612.260474,-14761.740239,-0.002000,-0.012000,1.006000,192.000000,0.000000,0.000000,0.000000,0.000000,0.000000,0.000000,0.000000,0.000000,0.000000,1770884800.822426,0.000000
130.000000,-19683.504961,-14742.942422,-6601.699484,-8918.994238,2525.188330,-2528.719905,-8051.232463,-5248.569578,-955.112392,-18174.046954,-11865.848227,1496.851623,-907.726694,26587.511788,-25561.834939,-14717.014398,-0.002000,-0.012000,1.006000,192.000000,0.000000,0.000000,0.000000,0.000000,0.000000,0.000000,0.000000,0.000000,0.000000,1770884800.822446,0.000000
132.000000,-19693.831467,-14749.670297,-6606.862737,-8925.789169,2522.059086,-2559.855885,-8054.004080,-5259.812505,-970.378634,-18255.742580,-11942.447655,1434.445552,-995.099663,26573.899576,-25650.392550,-14783.644948,-0.002000,-0.012000,1.006000,192.000000,0.000000,0.000000,127.500000,96.000000,15.500000,96.000000,0.000000,0.000000,0.000000,1770884800.822463,0.000000
134.000000,-19635.761635,-14695.936703,-6570.474097,-8880.191610,2568.416604,-2546.355432,-8028.947774,-5217.567708,-965.796526,-18184.239350,-11876.889989,1486.167489,-920.914223,26559.840329,-25563.064285,-14712.074663,-0.002000,-0.012000,1.006000,192.000000,0.000000,0.000000,0.000000,0.000000,0.000000,0.000000,0.000000,0.000000,0.000000,1770884800.822487,0.000000
136.000000,-19715.736176,-14774.324271,-6620.542004,-8944.944614,2509.787978,-2530.999783,-8071.594902,-5280.934904,-970.825669,-18226.573554,-11916.944315,1455.858523,-954.263026,26584.002564,-25611.075832,-14749.044448,-0.002000,-0.012000,1.006000,192.000000,0.000000,0.000000,0.000000,0.000000,0.000000,0.000000,0.000000,0.000000,0.000000,1770884800.822510,0.000000
138.000000,-19643.830615,-14693.746232,-6576.240847,-8887.522982,2573.021063,-2552.658624,-8031.562928,-5227.178958,-963.248427,-18227.825252,-11920.453539,1452.148134,-959.426279,26563.304849,-25610.829963,-14750.318497,-0.002000,-0.012000,1.006000,192.000000,0.000000,0.000000,0.000000,0.000000,0.000000,0.000000,0.000000,0.000000,0.000000,1770884800.822534,0.000000
140.000000,-19692.535066,-14741.891890,-6601.766539,-8922.458759,2537.213568,-2522.483769,-8055.836923,-5258.471401,-966.981169,-18176.595053,-11876.711175,1487.776814,-911.817063,26583.756695,-25559.420950,-14710.219468,-0.002000,-0.012000,1.006000,192.000000,0.000000,0.000000,0.000000,0.000000,0.000000,0.000000,0.000000,0.000000,0.000000,1770884800.822558,0.000000
142.000000,-19690.881037,-14742.674201,-6603.465271,-8930.348924,2535.984222,-2548.747068,-8056.596882,-5265.825124,-966.712948,-18257.106037,-11942.917042,1433.372668,-989.064692,26579.331050,-25641.585963,-14775.978300,-0.002000,-0.012000,1.006000,192.000000,0.000000,0.000000,127.500000,104.000000,15.500000,80.000000,0.000000,0.000000,0.000000,1770884800.822582,0.000000
144.000000,-19640.701370,-14690.773450,-6567.858942,-8880.057499,2569.824764,-2538.845246,-8029.260698,-5225.591984,-959.940369,-18174.114010,-11878.141687,1491.934239,-911.034752,26565.875300,-25561.052628,-14713.549878,-0.002000,-0.012000,1.006000,192.000000,0.000000,0.000000,0.000000,0.000000,0.000000,0.000000,0.000000,0.000000,0.000000,1770884800.822606,0.000000
146.000000,-19708.605970,-14765.093001,-6612.495376,-8946.308070,2514.683010,-2527.021173,-8068.532713,-5281.404290,-952.117259,-18221.902039,-11912.965705,1458.853657,-952.877218,26594.194960,-25607.186628,-14746.518701,-0.002000,-0.012000,1.006000,192.000000,0.000000,0.000000,0.000000,0.000000,0.000000,0.000000,0.000000,0.000000,0.000000,1770884800.822635,0.000000
148.000000,-19631.783024,-14689.007662,-6567.054280,-8887.053595,2573.155173,-2555.117316,-8027.651373,-5222.730961,-955.827648,-18226.394740,-11915.178527,1451.209361,-952.564293,26567.104646,-25610.964073,-14757.582814,-0.002000,-0.012000,1.006000,192.000000,0.000000,0.000000,0.000000,0.000000,0.000000,0.000000,0.000000,0.000000,0.000000,1770884800.822660,0.000000
150.000000,-19680.286310,-14735.320477,-6594.613981,-8922.436407,2533.793751,-2521.165016,-8051.947719,-5251.765877,-954.620654,-18173.555216,-11861.467285,1496.069312,-909.827758,26582.929681,-25557.901032,-14710.398282,-0.002000,-0.012000,1.006000,192.000000,0.000000,0.000000,0.000000,0.000000,0.000000,0.000000,0.000000,0.000000,0.000000,1770884800.822682,0.000000
152.000000,-19689.562284,-14744.998782,-6600.380731,-8923.621049,2527.199987,-2561.711080,-8053.624100,-5260.416002,-962.533171,-18253.932089,-11935.965650,1433.864407,-984.504936,26573.340782,-25640.915411,-14780.560408,-0.004000,-0.006000,1.008000,192.000000,127.500000,112.000000,127.500000,104.000000,15.500000,64.000000,0.000000,0.000000,0.000000,1770884800.822704,0.000000
154.000000,-19627.960876,-14684.582017,-6561.354585,-8878.783450,2578.474889,-2528.719905,-8022.354009,-5212.449159,-950.351471,-18178.316138,-11867.636367,1493.163585,-913.180520,26578.235814,-25558.012790,-14716.790881,-0.004000,-0.006000,1.008000,192.000000,0.000000,0.000000,0.000000,0.000000,0.000000,0.000000,0.000000,0.000000,0.000000,1770884800.822727,0.000000
156.000000,-19721.346464,-14773.296091,-6614.283516,-8946.911567,2513.319554,-2523.266080,-8069.024452,-5278.565619,-956.498200,-18221.499708,-11905.053187,1463.726337,-959.605093,26594.239663,-25602.693928,-14746.004611,-0.004000,-0.006000,1.008000,192.000000,0.000000,0.000000,0.000000,0.000000,0.000000,0.000000,0.000000,0.000000,0.000000,1770884800.822751,0.000000
158.000000,-19641.953068,-14695.355558,-6570.407041,-8881.376252,2580.218325,-2538.509970,-8029.484216,-5224.452045,-959.605093,-18225.724188,-11916.720798,1454.293901,-957.816953,26571.105608,-25608.460678,-14749.558538,-0.004000,-0.006000,1.008000,192.000000,0.000000,0.000000,0.000000,0.000000,0.000000,0.000000,0.000000,0.000000,0.000000,1770884800.822783,0.000000
160.000000,-19689.763449,-14737.354486,-6597.609114,-8915.529718,2541.527455,-2512.023152,-8054.853446,-5254.671604,-963.404890,-18168.637832,-11872.620806,1495.264649,-911.615898,26588.159989,-25551.642543,-14694.483840,-0.004000,-0.006000,1.008000,192.000000,0.000000,0.000000,0.000000,0.000000,0.000000,0.000000,0.000000,0.000000,0.000000,1770884800.822813,0.000000
162.000000,-19692.982101,-14738.427369,-6600.537193,-8914.412131,2537.995879,-2545.975452,-8054.294652,-5259.387822,-964.477773,-18247.427731,-11940.815978,1442.492180,-983.454404,26590.953957,-25636.266248,-14768.691631,0.001000,-0.009000,1.010000,192.000000,0.000000,24.000000,127.500000,80.000000,15.500000,80.000000,0.000000,0.000000,0.000000,1770884800.822840,0.000000
164.000000,-19637.840347,-14687.286578,-6565.847285,-8882.270322,2576.060900,-2526.954118,-8028.098408,-5216.517176,-956.073517,-18172.728201,-11876.107678,1496.516347,-916.801502,26578.302870,-25557.275183,-14711.068834,0.001000,-0.009000,1.010000,192.000000,0.000000,0.000000,0.000000,0.000000,0.000000,0.000000,0.000000,0.000000,0.000000,1770884800.822863,0.000000
166.000000,-19712.673987,-14763.729544,-6612.204803,-8947.716230,2509.698571,-2526.752952,-8069.158562,-5275.302264,-957.481677,-18222.259667,-11908.316542,1465.156849,-957.526381,26596.273672,-25604.191494,-14745.199948,0.001000,-0.009000,1.010000,192.000000,0.000000,0.000000,0.000000,0.000000,0.000000,0.000000,0.000000,0.000000,0.000000,1770884800.822887,0.000000
168.000000,-19628.229097,-14682.480953,-6563.522704,-8884.281979,2580.240676,-2541.616862,-8025.505605,-5215.556051,-952.519590,-18219.443347,-11911.535193,1461.893494,-950.127953,26571.843215,-25607.566608,-14756.308765,0.001000,-0.009000,1.010000,192.000000,0.000000,0.000000,0.000000,0.000000,0.000000,0.000000,0.000000,0.000000,0.000000,1770884800.822909,0.000000
170.000000,-19680.442772,-14732.615916,-6590.613018,-8919.396570,2539.784019,-2510.391475,-8051.545388,-5248.837799,-941.656642,-18161.373515,-11858.315689,1505.010009,-900.171804,26592.473876,-25551.329619,-14704.408014,0.001000,-0.009000,1.010000,192.000000,0.000000,0.000000,0.000000,0.000000,0.000000,0.000000,0.000000,0.000000,0.000000,1770884800.822932,0.000000
172.000000,-19687.148295,-14741.780131,-6598.212611,-8927.890233,2532.050315,-2547.607130,-8054.138190,-5260.348947,-955.626482,-18249.037057,-11939.072542,1440.547578,-984.884916,26591.311585,-25638.233201,-14778.101716,0.001500,-0.011500,1.010000,192.000000,0.000000,8.000000,127.500000,72.000000,15.500000,72.000000,0.000000,0.000000,0.000000,1770884800.822952,0.000000
174.000000,-19639.226155,-14688.024186,-6565.556713,-8880.795107,2580.151269,-2531.491522,-8026.243213,-5215.913679,-956.386442,-18175.633928,-11876.554713,1493.320047,-914.521624,26574.279556,-25553.006000,-14714.823927,0.001500,-0.011500,1.010000,192.000000,0.000000,0.000000,0.000000,0.000000,0.000000,0.000000,0.000000,0.000000,0.000000,1770884800.822974,0.000000
176.000000,-19720.005360,-14763.081344,-6614.507033,-8941.390686,2512.827815,-2523.690763,-8066.364594,-5275.011691,-964.187201,-18214.369501,-11911.311675,1468.442555,-961.125012,26593.859684,-25604.616178,-14750.027925,0.001500,-0.011500,1.010000,192.000000,0.000000,0.000000,0.000000,0.000000,0.000000,0.000000,0.000000,0.000000,0.000000,1770884800.822996,0.000000
178.000000,-19645.685809,-14694.640302,-6573.022195,-8884.907828,2577.402005,-2543.963795,-8027.651373,-5223.490920,-964.433070,-18223.623124,-11919.894745,1463.011082,-970.065709,26565.428265,-25611.835791,-14760.399134,0.001500,-0.011500,1.010000,192.000000,0.000000,0.000000,0.000000,0.000000,0.000000,0.000000,0.000000,0.000000,0.000000,1770884800.823057,0.000000
180.000000,-19692.155086,-14737.935631,-6599.665475,-8917.273154,2544.120257,-2509.966792,-8051.947719,-5254.962177,-965.505953,-18167.207321,-11874.185428,1498.528004,-915.639212,26593.457352,-25553.900069,-14704.944456,0.001500,-0.011500,1.010000,192.000000,0.000000,0.000000,0.000000,0.000000,0.000000,0.000000,0.000000,0.000000,0.000000,1770884800.823239,0.000000
182.000000,-19693.540894,-14740.059047,-6603.778196,-8919.821253,2538.778190,-2541.058068,-8052.685327,-5263.075860,-967.607017,-18249.260574,-11946.381563,1442.447477,-995.859622,26609.394146,-25636.668579,-14771.105620,0.003750,-0.011750,1.009000,192.000000,0.000000,24.000000,127.500000,80.000000,15.500000,64.000000,0.000000,0.000000,0.000000,1770884800.823282,0.000000
184.000000,-19636.543946,-14687.934779,-6568.529495,-8878.045842,2581.872354,-2515.755894,-8023.471597,-5215.824272,-959.940369,-18171.901187,-11878.946349,1497.544527,-918.835511,26577.967593,-25557.476349,-14706.464375,0.003750,-0.011750,1.009000,192.000000,0.000000,0.000000,0.000000,0.000000,0.000000,0.000000,0.000000,0.000000,0.000000,1770884800.823306,0.000000
186.000000,-19724.229839,-14773.139629,-6622.263088,-8943.625861,2509.542109,-2531.893853,-8068.890341,-5282.253657,-969.082233,-18224.226621,-11911.423434,1466.319140,-958.062823,26613.663329,-25608.147753,-14743.031829,0.003750,-0.011750,1.009000,192.000000,0.000000,0.000000,0.000000,0.000000,0.000000,0.000000,0.000000,0.000000,0.000000,1770884800.823330,0.000000
188.000000,-19644.367056,-14694.059157,-6574.698576,-8884.214924,2579.212496,-2553.351528,-8029.573623,-5226.418999,-967.450555,-18229.099301,-11919.313600,1455.411488,-966.847058,26569.898614,-25610.092355,-14759.482713,0.003750,-0.011750,1.009000,192.000000,0.000000,0.000000,0.000000,0.000000,0.000000,0.000000,0.000000,0.000000,0.000000,1770884800.823354,0.000000
190.000000,-19687.908255,-14741.176634,-6601.766539,-8923.352828,2549.059993,-2522.081437,-8053.914673,-5257.018537,-965.237733,-18180.372498,-11872.240826,1490.213155,-919.908395,26576.335916,-25555.844671,-14714.958038,0.003750,-0.011750,1.009000,192.000000,0.000000,0.000000,0.000000,0.000000,0.000000,0.000000,0.000000,0.000000,0.000000,1770884800.823379,0.000000
192.000000,-19694.591426,-14749.335021,-6601.319504,-8927.040866,2533.927862,-2550.334042,-8054.182894,-5265.154572,-968.165811,-18261.956365,-11942.000621,1430.489293,-991.165756,26590.059887,-25638.702588,-14782.817934,0.005875,-0.011875,1.006500,192.000000,0.000000,32.000000,127.500000,80.000000,15.500000,48.000000,0.000000,0.000000,0.000000,1770884801.303206,0.000000
194.000000,-19640.433149,-14688.761793,-6568.462440,-8882.024453,2585.694502,-2526.976469,-8023.762169,-5216.316011,-958.800430,-18178.249082,-11873.716041,1492.828309,-915.996840,26578.280518,-25561.656125,-14725.105730,0.005875,-0.011875,1.006500,192.000000,0.000000,0.000000,0.000000,0.000000,0.000000,0.000000,0.000000,0.000000,0.000000,1770884801.303285,0.000000
196.000000,-19717.725482,-14767.439934,-6616.250469,-8945.481055,2516.091170,-2525.925937,-8066.655167,-5278.252694,-961.840267,-18223.198440,-11905.746091,1464.910980,-960.968549,26603.359175,-25604.392660,-14756.331117,0.005875,-0.011875,1.006500,192.000000,0.000000,0.000000,0.000000,0.000000,0.000000,0.000000,0.000000,0.000000,0.000000,1770884801.303337,0.000000
198.000000,-19643.852966,-14690.818154,-6574.296245,-8882.672654,2578.385482,-2549.059993,-8027.338448,-5224.384990,-960.365052,-18219.644513,-11915.133824,1462.496991,-962.890799,26575.061867,-25609.622968,-14759.460361,0.005875,-0.011875,1.006500,192.000000,0.000000,0.000000,0.000000,0.000000,0.000000,0.000000,0.000000,0.000000,0.000000,1770884801.303390,0.000000
200.000000,-19685.427211,-14731.543032,-6594.077539,-8915.105035,2548.925882,-2508.983315,-8046.136266,-5248.211950,-957.302863,-18174.136361,-11869.558617,1497.477472,-919.774284,26589.165817,-25550.971991,-14710.599448,0.005875,-0.011875,1.006500,192.000000,0.000000,0.000000,0.000000,0.000000,0.000000,0.000000,0.000000,0.000000,0.000000,1770884801.303452,0.000000
202.000000,-19691.171609,-14736.996858,-6602.057112,-8917.429616,2538.487618,-2543.963795,-8050.293690,-5257.733793,-969.775137,-18249.506444,-11940.815978,1445.442610,-994.004428,26605.393184,-25637.450890,-14782.192085,0.006938,-0.012938,1.004250,192.000000,0.000000,32.000000,127.500000,72.000000,15.500000,40.000000,0.000000,0.000000,0.000000,1770884801.303505,0.000000
204.000000,-19637.862699,-14677.809438,-6567.389556,-8871.116802,2591.573011,-2514.101865,-8022.845748,-5213.812615,-954.240674,-18161.127646,-11871.324405,1508.452178,-910.699476,26578.593442,-25552.849537,-14716.880288,0.006938,-0.012938,1.004250,192.000000,0.000000,0.000000,0.000000,0.000000,0.000000,0.000000,0.000000,0.000000,0.000000,1770884801.303529,0.000000
206.000000,-19720.519450,-14764.288338,-6619.737341,-8934.931032,2529.144589,-2514.280679,-8069.784411,-5284.108851,-963.963683,-18212.536658,-11918.106606,1470.431861,-952.586645,26604.454411,-25602.336300,-14746.921032,0.006938,-0.012938,1.004250,192.000000,0.000000,0.000000,0.000000,0.000000,0.000000,0.000000,0.000000,0.000000,0.000000,1770884801.303550,0.000000
208.000000,-19641.707199,-14688.426517,-6572.262236,-8875.385985,2592.757653,-2529.546920,-8027.830187,-5224.921432,-959.247465,-18213.564839,-11922.755769,1467.883762,-965.975340,26584.628413,-25601.509285,-14749.424428,0.006938,-0.012938,1.004250,192.000000,0.000000,0.000000,0.000000,0.000000,0.000000,0.000000,0.000000,0.000000,0.000000,1770884801.303573,0.000000
210.000000,-19688.869380,-14730.827776,-6596.245658,-8914.143910,2561.487563,-2495.885193,-8054.182894,-5256.571502,-958.800430,-18166.268547,-11875.794754,1503.825367,-906.340886,26592.473876,-25549.005037,-14703.581000,0.006938,-0.012938,1.004250,192.000000,0.000000,0.000000,0.000000,0.000000,0.000000,0.000000,0.000000,0.000000,0.000000,1770884801.303592,0.000000
212.000000,-19696.916008,-14743.411808,-6607.935620,-8918.591907,2543.472057,-2531.066839,-8056.775696,-5269.066127,-962.756689,-18246.153682,-11947.655612,1443.229788,-993.512689,26604.744983,-25636.869745,-14767.931672,0.006469,-0.014469,1.003125,192.000000,0.000000,24.000000,127.500000,64.000000,15.500000,40.000000,0.000000,0.000000,0.000000,1770884801.303608,0.000000
214.000000,-19640.924888,-14684.380851,-6570.518800,-8866.512342,2593.115281,-2508.692742,-8024.857405,-5218.640592,-967.897590,-18173.331699,-11883.774326,1492.269515,-918.209662,26576.782951,-25556.269354,-14703.782166,0.006469,-0.014469,1.003125,192.000000,0.000000,0.000000,0.000000,0.000000,0.000000,0.000000,0.000000,0.000000,0.000000,1770884801.303624,0.000000
216.000000,-19712.294008,-14753.984184,-6620.094969,-8924.626878,2511.710228,-2506.658734,-8064.554103,-5274.765822,-965.103622,-18199.662054,-11915.759673,1477.137384,-967.115279,26615.786745,-25607.432497,-14732.012419,0.006469,-0.014469,1.003125,192.000000,0.000000,0.000000,0.000000,0.000000,0.000000,0.000000,0.000000,0.000000,0.000000,1770884801.303640,0.000000
218.000000,-19633.884088,-14679.441116,-6574.452707,-8872.837886,2571.925827,-2539.627557,-8023.493948,-5220.942822,-963.561352,-18204.445327,-11922.934583,1470.968303,-969.037529,26602.755678,-25619.278922,-14748.306840,0.006469,-0.014469,1.003125,192.000000,0.000000,0.000000,0.000000,0.000000,0.000000,0.000000,0.000000,0.000000,0.000000,1770884801.303658,0.000000
220.000000,-19684.376679,-14728.771416,-6593.250524,-8914.367427,2540.029888,-2520.494464,-8047.924405,-5251.452953,-955.604131,-18154.042143,-11868.128105,1509.301544,-918.254366,26607.471896,-25558.325715,-14709.504212,0.006469,-0.014469,1.003125,192.000000,0.000000,0.000000,0.000000,0.000000,0.000000,0.000000,0.000000,0.000000,0.000000,1770884801.303680,0.000000
222.000000,-19696.446621,-14744.238823,-6601.543021,-8929.745427,2536.408906,-2550.848132,-8053.937024,-5266.562732,-965.841230,-18250.109941,-11942.604118,1442.089849,-987.164794,26592.630338,-25636.132137,-14787.377690,0.006469,-0.014469,1.003125,192.000000,0.000000,0.000000,0.000000,0.000000,0.000000,0.000000,0.000000,0.000000,0.000000,1770884801.303701,0.000000
224.000000,-19640.880184,-14686.616026,-6563.209780,-8877.867028,2597.764444,-2526.283565,-8024.097445,-5219.154682,-967.785831,-18182.630024,-11880.019233,1487.709759,-918.544938,26538.717930,-25556.917555,-14726.022151,0.002000,-0.016000,1.010000,192.000000,0.000000,8.000000,127.500000,64.000000,15.500000,72.000000,0.000000,0.000000,0.000000,1770884801.303723,0.000000
226.000000,-19717.747833,-14767.976376,-6616.473987,-8941.435390,2534.531359,-2517.007591,-8069.315025,-5283.170078,-964.343663,-18219.085719,-11914.485623,1464.866276,-958.465154,26606.019033,-25598.022413,-14756.420524,0.002000,-0.016000,1.010000,192.000000,0.000000,0.000000,0.000000,0.000000,0.000000,0.000000,0.000000,0.000000,0.000000,1770884801.303745,0.000000
228.000000,-19639.717894,-14690.840505,-6565.310844,-8880.437479,2602.033627,-2529.524568,-8023.829225,-5222.127464,-954.888875,-18223.757234,-11918.151309,1458.965416,-943.578892,26577.073524,-25597.262454,-14764.824780,0.002000,-0.016000,1.010000,192.000000,0.000000,0.000000,0.000000,0.000000,0.000000,0.000000,0.000000,0.000000,0.000000,1770884801.303766,0.000000
230.000000,-19681.068621,-14732.034770,-6595.731568,-8910.478224,2559.542961,-2504.960001,-8050.293690,-5252.414078,-953.905398,-18166.648527,-11867.390498,1499.936163,-898.026037,26593.770277,-25544.892316,-14708.878363,0.002000,-0.016000,1.010000,192.000000,0.000000,0.000000,0.000000,0.000000,0.000000,0.000000,0.000000,0.000000,0.000000,1770884801.303787,0.000000
232.000000,-19689.450525,-14732.124177,-6602.817071,-8922.190538,2551.675147,-2523.914280,-8053.467638,-5260.885389,-961.840267,-18246.488958,-11942.738228,1440.569930,-983.812032,26594.753754,-25636.020379,-14779.398117,0.002000,-0.016000,1.010000,192.000000,0.000000,0.000000,0.000000,0.000000,0.000000,0.000000,0.000000,0.000000,0.000000,1770884801.303813,0.000000
234.000000,-19633.928792,-14675.149581,-6568.753012,-8874.938950,2593.383502,-2508.916260,-8025.527957,-5215.712513,-952.184314,-18167.900225,-11872.419640,1493.498861,-915.616860,26564.713009,-25553.050703,-14712.544049,0.002000,-0.018000,1.016000,192.000000,0.000000,8.000000,127.500000,56.000000,15.500000,96.000000,0.000000,0.000000,0.000000,1770884801.303835,0.000000
236.000000,-19719.155993,-14760.399134,-6623.268917,-8939.379029,2534.888987,-2506.166995,-8072.399565,-5282.633636,-962.734337,-18209.250952,-11912.272800,1466.117974,-948.786849,26606.019033,-25600.726974,-14748.999745,0.002000,-0.018000,1.016000,192.000000,0.000000,0.000000,0.000000,0.000000,0.000000,0.000000,0.000000,0.000000,0.000000,1770884801.303856,0.000000
238.000000,-19634.018199,-14682.659767,-6577.894876,-8877.151773,2599.887860,-2526.015344,-8031.048838,-5223.580327,-960.365052,-18215.889420,-11922.018161,1460.597093,-958.152230,26570.323297,-25603.900922,-14753.134817,0.002000,-0.018000,1.016000,192.000000,0.000000,0.000000,0.000000,0.000000,0.000000,0.000000,0.000000,0.000000,0.000000,1770884801.303877,0.000000
240.000000,-19681.627414,-14724.770454,-6601.095986,-8910.679389,2560.727604,-2496.108710,-8054.898149,-5251.967043,-962.086137,-18161.686440,-11868.552788,1502.417207,-912.062932,26604.566169,-25544.937020,-14706.039692,0.002000,-0.018000,1.016000,192.000000,0.000000,0.000000,0.000000,0.000000,0.000000,0.000000,0.000000,0.000000,0.000000,1770884801.303916,0.000000
242.000000,-19687.997662,-14737.935631,-6608.807338,-8925.677410,2547.428316,-2526.305917,-8058.966167,-5263.187619,-967.070576,-18241.079836,-11940.346592,1439.653509,-977.955875,26595.424306,-25636.199193,-14777.431163,0.002000,-0.018000,1.016000,192.000000,0.000000,0.000000,0.000000,0.000000,0.000000,0.000000,0.000000,0.000000,0.000000,1770884801.303939,0.000000
244.000000,-19630.732492,-14681.184552,-6570.809373,-8874.916598,2593.472909,-2515.666487,-8025.215033,-5214.393760,-960.745032,-18172.839960,-11876.912341,1490.302562,-921.495369,26562.030800,-25555.084712,-14717.774358,0.002000,-0.008000,1.012000,192.000000,0.000000,8.000000,127.500000,96.000000,15.500000,80.000000,0.000000,0.000000,0.000000,1770884801.303961,0.000000
246.000000,-19715.646769,-14758.610995,-6619.133844,-8936.115675,2528.675202,-2508.536280,-8066.632815,-5277.448032,-969.909247,-18208.714510,-11913.479795,1464.307483,-959.135706,26610.645844,-25605.957282,-14752.106637,0.002000,-0.008000,1.012000,192.000000,0.000000,0.000000,0.000000,0.000000,0.000000,0.000000,0.000000,0.000000,0.000000,1770884801.303984,0.000000
248.000000,-19639.673190,-14679.955206,-6569.758841,-8878.045842,2588.153194,-2530.418638,-8025.527957,-5219.981697,-957.906360,-18213.743653,-11916.430225,1459.255989,-951.178485,26585.030745,-25607.253683,-14765.987070,0.002000,-0.008000,1.012000,192.000000,0.000000,0.000000,0.000000,0.000000,0.000000,0.000000,0.000000,0.000000,0.000000,1770884801.304008,0.000000
250.000000,-19675.726554,-14719.696608,-6593.742263,-8908.824195,2556.301958,-2494.857013,-8049.176103,-5247.384935,-957.392270,-18152.879852,-11864.998861,1505.278230,-905.715037,26602.398050,-25549.452072,-14715.449776,0.002000,-0.008000,1.012000,192.000000,0.000000,0.000000,0.000000,0.000000,0.000000,0.000000,0.000000,0.000000,0.000000,1770884801.304031,0.000000
252.000000,-19691.059851,-14731.386570,-6604.202879,-8920.983544,2549.328214,-2523.310783,-8056.462771,-5261.488886,-957.705195,-18237.838833,-11935.183339,1441.754573,-979.989884,26595.133733,-25636.310951,-14782.303844,0.002000,-0.008000,1.012000,192.000000,0.000000,0.000000,0.000000,0.000000,0.000000,0.000000,0.000000,0.000000,0.000000,1770884801.304055,0.000000
254.000000,-19634.979324,-14677.720031,-6570.407041,-8868.546351,2595.886898,-2514.258327,-8027.204338,-5217.098322,-957.056994,-18166.536768,-11875.235960,1493.431806,-923.417619,26581.387410,-25556.001133,-14721.641209,0.004000,-0.010000,1.010000,192.000000,0.000000,16.000000,127.500000,88.000000,15.500000,72.000000,0.000000,0.000000,0.000000,1770884801.304079,0.000000
0.000000,-19714.484479,-14761.159094,-6616.921022,-8935.959212,2526.864711,-2513.811292,-8070.879647,-5279.817317,-964.455422,-18207.954551,-11911.915173,1467.973169,-958.442802,26605.728460,-25605.823172,-14754.006535,0.004000,-0.010000,1.010000,192.000000,0.000000,0.000000,0.000000,0.000000,0.000000,0.000000,0.000000,0.000000,0.000000,1770884801.304103,0.000000
2.000000,-19642.377751,-14685.744308,-6572.932788,-8880.102203,2580.106566,-2535.760705,-8029.283050,-5223.446217,-960.990901,-18214.280094,-11920.900574,1458.786602,-965.751823,26574.570128,-25613.914503,-14768.289300,0.004000,-0.010000,1.010000,192.000000,0.000000,0.000000,0.000000,0.000000,0.000000,0.000000,0.000000,0.000000,0.000000,1770884801.304127,0.000000
4.000000,-19681.023917,-14720.635381,-6598.369074,-8909.718264,2549.551731,-2505.429388,-8051.746553,-5249.910682,-960.789735,-18159.183044,-11868.530437,1499.243259,-916.265060,26594.530236,-25556.694038,-14714.667465,0.004000,-0.010000,1.010000,192.000000,0.000000,0.000000,0.000000,0.000000,0.000000,0.000000,0.000000,0.000000,0.000000,1770884801.304148,0.000000
6.000000,-19691.015147,-14730.693666,-6605.387521,-8916.915526,2536.140685,-2531.089190,-8053.288824,-5256.638558,-964.768346,-18240.342228,-11938.714914,1442.492180,-991.523384,26604.588521,-25642.681198,-14787.757669,0.004000,-0.010000,1.010000,192.000000,0.000000,0.000000,0.000000,0.000000,0.000000,0.000000,0.000000,0.000000,0.000000,1770884801.304167,0.000000
8.000000,-19634.308771,-14670.746287,-6570.764669,-8866.177066,2583.749900,-2520.539167,-8022.979858,-5209.834005,-961.683805,-18163.586338,-11873.224303,1500.919640,-927.887968,26576.782951,-25560.337372,-14721.820023,0.004000,-0.008000,1.012000,192.000000,0.000000,16.000000,127.500000,96.000000,15.500000,80.000000,0.000000,0.000000,0.000000,1770884801.304199,0.000000
10.000000,-19718.708958,-14756.755800,-6620.542004,-8935.802750,2524.204853,-2510.123254,-8068.264493,-5278.699729,-966.668244,-18206.926370,-11912.406911,1469.470736,-956.408793,26613.462164,-25606.493724,-14755.638213,0.004000,-0.008000,1.012000,192.000000,0.000000,0.000000,0.000000,0.000000,0.000000,0.000000,0.000000,0.000000,0.000000,1770884801.304221,0.000000
12.000000,-19631.112472,-14673.204979,-6571.457573,-8870.088621,2585.538040,-2530.709211,-8026.489082,-5218.171205,-962.108488,-18208.356882,-11920.721760,1464.709814,-963.941331,26571.642050,-25612.662806,-14764.668317,0.004000,-0.008000,1.012000,192.000000,0.000000,0.000000,0.000000,0.000000,0.000000,0.000000,0.000000,0.000000,0.000000,1770884801.304245,0.000000
14.000000,-19673.647842,-14711.895849,-6595.217478,-8904.175032,2548.836475,-2502.903641,-8048.527902,-5244.278043,-952.005500,-18147.314268,-11862.204893,1514.844777,-911.168863,26585.008393,-25554.660029,-14712.387587,0.004000,-0.008000,1.012000,192.000000,0.000000,0.000000,0.000000,0.000000,0.000000,0.000000,0.000000,0.000000,0.000000,1770884801.304265,0.000000
16.000000,-19687.975310,-14724.234012,-6607.689751,-8916.289677,2545.036679,-2530.910376,-8053.311176,-5258.471401,-962.332006,-18232.966153,-11936.077408,1450.404698,-992.708026,26564.020105,-25638.322608,-14786.662434,0.004000,-0.008000,1.012000,192.000000,0.000000,0.000000,0.000000,0.000000,0.000000,0.000000,0.000000,0.000000,0.000000,1770884801.304293,0.000000
18.000000,-19634.755806,-14675.350747,-6573.044547,-8865.707679,2586.543868,-2517.544033,-8023.471597,-5216.159548,-962.019081,-18160.881777,-11875.817105,1498.349190,-926.949194,26563.349553,-25560.180910,-14720.277753,0.004000,-0.008000,1.012000,192.000000,0.000000,0.000000,127.500000,72.000000,15.500000,80.000000,0.000000,0.000000,0.000000,1770884801.304316,0.000000
20.000000,-19713.635112,-14751.592547,-6619.223251,-8936.160378,2532.899682,-2501.763702,-8067.325719,-5276.732776,-964.701291,-18205.898190,-11908.964742,1468.196686,-948.563331,26588.092934,-25601.151657,-14747.591585,0.004000,-0.008000,1.012000,192.000000,0.000000,0.000000,0.000000,0.000000,0.000000,0.000000,0.000000,0.000000,0.000000,1770884801.304338,0.000000
22.000000,-19630.844251,-14674.367270,-6572.463402,-8871.072098,2595.551621,-2520.427408,-8025.662068,-5217.724170,-959.470982,-18204.355920,-11913.636257,1466.207381,-961.907323,26555.101759,-25600.838733,-14757.560463,0.004000,-0.008000,1.012000,192.000000,0.000000,0.000000,0.000000,0.000000,0.000000,0.000000,0.000000,0.000000,0.000000,1770884801.304360,0.000000
24.000000,-19677.380583,-14717.886116,-6595.686864,-8905.113805,2556.391365,-2495.482861,-8048.214978,-5247.384935,-952.385479,-18148.789483,-11860.774381,1509.033323,-903.971601,26572.558471,-25547.239250,-14702.351654,0.004000,-0.008000,1.012000,192.000000,0.000000,0.000000,0.000000,0.000000,0.000000,0.000000,0.000000,0.000000,0.000000,1770884801.304383,0.000000
26.000000,-19684.309624,-14721.663561,-6607.510937,-8908.868898,2550.356394,-2527.915243,-8048.997289,-5253.643424,-966.310616,-18232.072083,-11933.529309,1451.768154,-987.097739,26576.224157,-25631.594733,-14777.073536,0.004000,-0.008000,1.012000,192.000000,0.000000,0.000000,0.000000,0.000000,0.000000,0.000000,0.000000,0.000000,0.000000,1770884801.304404,0.000000
28.000000,-19625.144556,-14661.939700,-6566.763707,-8863.159581,2596.602153,-2514.146568,-8017.771902,-5205.341304,-959.582741,-18158.803065,-11867.099925,1502.908945,-923.037639,26542.204802,-25554.771787,-14717.953171,0.002000,-0.012000,1.012000,192.000000,0.000000,8.000000,127.500000,80.000000,15.500000,80.000000,0.000000,0.000000,0.000000,1770884801.304434,0.000000
30.000000,-19708.605970,-14745.356410,-6617.926850,-8930.415980,2537.280624,-2506.077588,-8058.966167,-5266.115697,-959.493334,-18191.503667,-11896.000731,1480.221925,-953.793639,26577.811131,-25592.278015,-14744.194119,0.002000,-0.012000,1.012000,192.000000,0.000000,0.000000,0.000000,0.000000,0.000000,0.000000,0.000000,0.000000,0.000000,1770884801.304459,0.000000
32.000000,-19626.753882,-14670.612177,-6572.552809,-8871.228560,2597.160947,-2526.998821,-8018.889489,-5208.470548,-953.994805,-18205.987597,-11906.036664,1468.151983,-956.028814,26548.306829,-25604.057384,-14756.129951,0.002000,-0.012000,1.012000,192.000000,0.000000,0.000000,0.000000,0.000000,0.000000,0.000000,0.000000,0.000000,0.000000,1770884801.304480,0.000000
34.000000,-19662.159045,-14702.150488,-6589.361321,-8897.491860,2555.564351,-2496.041655,-8038.089638,-5227.693048,-946.596378,-18144.095617,-11848.615032,1519.136312,-908.598412,26565.428265,-25547.127491,-14708.073700,0.002000,-0.012000,1.012000,192.000000,0.000000,0.000000,0.000000,0.000000,0.000000,0.000000,0.000000,0.000000,0.000000,1770884801.304503,0.000000
36.000000,-19671.233853,-14716.634419,-6594.256353,-8909.047712,2559.297092,-2516.068818,-8042.358821,-5242.802828,-953.167791,-18225.835946,-11919.179490,1458.518381,-977.218268,26571.820864,-25629.046634,-14773.430201,0.002000,-0.012000,1.012000,192.000000,0.000000,0.000000,0.000000,0.000000,0.000000,0.000000,0.000000,0.000000,0.000000,1770884801.304524,0.000000
38.000000,-19615.801527,-14659.145732,-6559.655852,-8862.556084,2600.737226,-2502.121330,-8013.681533,-5198.635781,-940.226131,-18153.416294,-11853.040678,1506.976963,-905.580927,26534.716968,-25548.334485,-14711.135889,0.002000,-0.013000,1.012000,192.000000,0.000000,8.000000,127.500000,72.000000,15.500000,80.000000,0.000000,0.000000,0.000000,1770884801.304546,0.000000
40.000000,-19698.972368,-14742.830663,-6615.602269,-8924.582174,2540.566330,-2498.902678,-8059.234388,-5267.054470,-942.349546,-18190.028452,-11887.887047,1483.150003,-942.461305,26573.698410,-25591.160427,-14742.718904,0.002000,-0.013000,1.012000,192.000000,0.000000,0.000000,0.000000,0.000000,0.000000,0.000000,0.000000,0.000000,0.000000,1770884801.304577,0.000000
42.000000,-19612.001730,-14651.792008,-6566.406079,-8858.890397,2601.832462,-2511.844338,-8015.804948,-5202.860260,-949.256235,-18193.582379,-11903.533268,1476.936218,-957.638139,26555.369980,-25603.565646,-14745.758742,0.002000,-0.013000,1.012000,192.000000,0.000000,0.000000,0.000000,0.000000,0.000000,0.000000,0.000000,0.000000,0.000000,1770884801.304600,0.000000
44.000000,-19661.488493,-14711.225296,-6589.204858,-8901.559878,2583.369921,-2479.344902,-8042.090600,-5236.432581,-936.359279,-18133.657352,-11843.608242,1522.310260,-898.830700,26566.367038,-25537.337427,-14697.121346,0.002000,-0.013000,1.012000,192.000000,0.000000,0.000000,0.000000,0.000000,0.000000,0.000000,0.000000,0.000000,0.000000,1770884801.304622,0.000000
46.000000,-19671.435019,-14723.585811,-6593.094062,-8906.544317,2564.773269,-2514.526548,-8044.102257,-5248.055488,-943.131857,-18232.317952,-11918.911269,1451.499933,-974.491355,26565.920003,-25621.514096,-14769.786867,0.002000,-0.013000,1.012000,192.000000,0.000000,0.000000,0.000000,0.000000,0.000000,0.000000,0.000000,0.000000,0.000000,1770884801.304644,0.000000
48.000000,-19617.768481,-14669.427534,-6558.135934,-8861.438496,2600.267839,-2510.324420,-8014.173271,-5202.010894,-934.571139,-18161.775847,-11852.705402,1504.093588,-898.562479,26544.887012,-25543.350046,-14713.639285,-0.001000,-0.012500,1.013000,192.000000,127.500000,112.000000,127.500000,80.000000,15.500000,88.000000,0.000000,0.000000,0.000000,1770884801.304667,0.000000
50.000000,-19704.001511,-14748.172730,-6614.529385,-8931.444160,2531.625632,-2503.417731,-8060.217865,-5268.328520,-946.529322,-18208.111013,-11892.089175,1470.789489,-939.980261,26563.528367,-25593.485009,-14744.797617,-0.001000,-0.012500,1.013000,192.000000,0.000000,0.000000,0.000000,0.000000,0.000000,0.000000,0.000000,0.000000,0.000000,1770884801.304690,0.000000
52.000000,-19625.435129,-14670.723935,-6568.127163,-8867.518171,2595.015180,-2518.929841,-8017.168405,-5211.599792,-945.322328,-18209.139193,-11905.075539,1466.319140,-948.853904,26542.517727,-25599.475276,-14757.985146,-0.001000,-0.012500,1.013000,192.000000,0.000000,0.000000,0.000000,0.000000,0.000000,0.000000,0.000000,0.000000,0.000000,1770884801.304713,0.000000
54.000000,-19673.245510,-14713.169898,-6593.161117,-8900.084662,2565.488525,-2481.714187,-8041.487103,-5242.445200,-947.781020,-18154.198605,-11859.030945,1507.088722,-912.934651,26541.847174,-25541.248982,-14702.552820,-0.001000,-0.012500,1.013000,192.000000,0.000000,0.000000,0.000000,0.000000,0.000000,0.000000,0.000000,0.000000,0.000000,1770884801.304737,0.000000
56.000000,-19676.419458,-14716.545012,-6598.994923,-8899.458814,2559.453554,-2508.849205,-8043.722277,-5250.782400,-952.385479,-18230.775682,-11925.192109,1452.773983,-973.574933,26560.153253,-25623.481050,-14769.138666,-0.001000,-0.012500,1.013000,192.000000,0.000000,0.000000,0.000000,0.000000,0.000000,0.000000,0.000000,0.000000,0.000000,1770884801.304761,0.000000
58.000000,-19619.377806,-14662.297328,-6561.712213,-8855.671746,2609.879090,-2491.370140,-8016.900184,-5204.290772,-946.685785,-18152.298707,-11859.589739,1515.157701,-907.302011,26537.376825,-25544.825261,-14704.989160,-0.001500,-0.010250,1.014500,192.000000,127.500000,120.000000,127.500000,96.000000,15.500000,96.000000,0.000000,0.000000,0.000000,1770884801.783229,0.000000
60.000000,-19701.766336,-14745.244651,-6609.455539,-8929.588965,2535.268967,-2482.250629,-8061.134286,-5269.200238,-945.814067,-18195.594036,-11889.876353,1480.557201,-932.447723,26570.233890,-25590.333413,-14738.181500,-0.001500,-0.010250,1.014500,192.000000,0.000000,0.000000,0.000000,0.000000,0.000000,0.000000,0.000000,0.000000,0.000000,1770884801.783295,0.000000
62.000000,-19624.071672,-14668.332299,-6565.981396,-8867.786392,2595.976305,-2511.173786,-8015.134396,-5213.075008,-945.612901,-18211.575533,-11902.505088,1464.218076,-951.603168,26525.552753,-25600.279939,-14754.788846,-0.001500,-0.010250,1.014500,192.000000,0.000000,0.000000,0.000000,0.000000,0.000000,0.000000,0.000000,0.000000,0.000000,1770884801.783352,0.000000
64.000000,-19660.773237,-14706.643189,-6588.176678,-8896.106052,2566.896685,-2484.038768,-8036.502664,-5238.064258,-941.053145,-18148.856538,-11849.084419,1512.944879,-895.612049,26562.366076,-25539.125566,-14699.401224,-0.001500,-0.010250,1.014500,192.000000,0.000000,0.000000,0.000000,0.000000,0.000000,0.000000,0.000000,0.000000,0.000000,1770884801.783409,0.000000
66.000000,-19670.742115,-14718.400206,-6599.464309,-8914.143910,2559.654720,-2509.542109,-8046.382135,-5253.263444,-951.714927,-18236.542432,-11924.275687,1445.509666,-969.663378,26552.151329,-25621.737614,-14769.540998,-0.001500,-0.010250,1.014500,192.000000,0.000000,0.000000,0.000000,0.000000,0.000000,0.000000,0.000000,0.000000,0.000000,1770884801.783464,0.000000
68.000000,-19612.225248,-14660.486836,-6558.359451,-8858.622176,2608.917965,-2499.349713,-8014.754416,-5201.876784,-941.924863,-18161.977012,-11857.041640,1498.528004,-910.386552,26532.079462,-25545.339351,-14709.548916,0.001250,-0.012125,1.012250,192.000000,0.000000,16.000000,127.500000,72.000000,15.500000,72.000000,0.000000,0.000000,0.000000,1770884801.783514,0.000000
70.000000,-19691.640996,-14732.437102,-6609.388484,-8920.067122,2548.612958,-2482.138870,-8057.379193,-5261.086555,-940.159075,-18190.296673,-11881.717966,1485.340474,-930.458418,26562.723704,-25582.465599,-14731.654791,0.001250,-0.012125,1.012250,192.000000,0.000000,0.000000,0.000000,0.000000,0.000000,0.000000,0.000000,0.000000,0.000000,1770884801.783568,0.000000
72.000000,-19615.600361,-14658.966918,-6563.522704,-8866.467639,2603.464139,-2497.472167,-8017.794254,-5205.855394,-941.902511,-18206.568743,-11896.023082,1475.058672,-950.217360,26532.258276,-25591.585111,-14745.289355,0.001250,-0.012125,1.012250,192.000000,0.000000,0.000000,0.000000,0.000000,0.000000,0.000000,0.000000,0.000000,0.000000,1770884801.783592,0.000000
74.000000,-19660.348554,-14705.413843,-6584.645103,-8889.691101,2567.097851,-2485.335169,-8037.150864,-5231.001107,-932.179503,-18143.358009,-11841.216605,1519.069257,-884.950266,26553.805358,-25534.632866,-14699.043596,0.001250,-0.012125,1.012250,192.000000,0.000000,0.000000,0.000000,0.000000,0.000000,0.000000,0.000000,0.000000,0.000000,1770884801.783607,0.000000
76.000000,-19672.262033,-14719.383683,-6597.944391,-8906.611372,2560.325272,-2510.346772,-8043.074077,-5247.094363,-941.366069,-18232.630877,-11915.804376,1455.478544,-961.348529,26550.184375,-25619.323625,-14771.753820,0.001250,-0.012125,1.012250,192.000000,0.000000,0.000000,0.000000,0.000000,0.000000,0.000000,0.000000,0.000000,0.000000,1770884801.783625,0.000000
78.000000,-19617.254390,-14666.231235,-6557.957120,-8861.706717,2615.154101,-2496.712207,-8011.491062,-5199.753368,-939.644985,-18165.396829,-11855.052335,1503.847719,-911.280621,26525.552753,-25540.041988,-14705.994988,0.002625,-0.012063,1.010125,192.000000,0.000000,16.000000,127.500000,80.000000,15.500000,64.000000,0.000000,0.000000,0.000000,1770884801.783648,0.000000
80.000000,-19706.393147,-14751.234919,-6610.416664,-8930.013648,2546.310728,-2482.831774,-8060.620196,-5269.870790,-946.819895,-18207.619275,-11888.736414,1472.175297,-939.443819,26549.849099,-25583.024392,-14739.142625,0.002625,-0.012063,1.010125,192.000000,0.000000,0.000000,0.000000,0.000000,0.000000,0.000000,0.000000,0.000000,0.000000,1770884801.783664,0.000000
82.000000,-19633.526460,-14676.602444,-6565.802582,-8867.317005,2602.972401,-2514.861824,-8019.202413,-5215.667810,-948.809200,-18216.738786,-11906.751920,1464.329835,-951.424354,26522.378805,-25595.653128,-14752.441913,0.002625,-0.012063,1.010125,192.000000,0.000000,0.000000,0.000000,0.000000,0.000000,0.000000,0.000000,0.000000,0.000000,1770884801.783679,0.000000
84.000000,-19669.892749,-14710.398282,-6586.343835,-8893.401491,2566.114374,-2480.708358,-8039.296632,-5236.298470,-932.246558,-18156.187911,-11850.000840,1514.330687,-894.270944,26546.563392,-25535.169308,-14704.385663,0.002625,-0.012063,1.010125,192.000000,0.000000,0.000000,0.000000,0.000000,0.000000,0.000000,0.000000,0.000000,0.000000,1770884801.783694,0.000000
86.000000,-19671.435019,-14718.288448,-6592.267047,-8905.627895,2553.396231,-2502.188385,-8041.487103,-5245.350927,-940.673165,-18237.190632,-11915.826728,1457.132573,-964.343663,26536.616866,-25619.725957,-14773.184332,0.002625,-0.012063,1.010125,192.000000,0.000000,0.000000,0.000000,0.000000,0.000000,0.000000,0.000000,0.000000,0.000000,1770884801.783709,0.000000
88.000000,-19621.098890,-14667.706450,-6558.694727,-8859.292729,2595.819842,-2496.242821,-8011.803986,-5198.278153,-935.889892,-18163.563986,-11848.458570,1504.540623,-897.914278,26502.709270,-25542.098348,-14712.611105,0.003313,-0.012031,1.012062,192.000000,0.000000,16.000000,127.500000,80.000000,15.500000,88.000000,0.000000,0.000000,0.000000,1770884801.783724,0.000000
90.000000,-19700.760508,-14752.486617,-6613.344742,-8925.208023,2537.213568,-2491.124271,-8055.546350,-5263.232322,-945.814067,-18210.077966,-11884.713100,1475.930390,-946.417564,26555.817015,-25590.646337,-14740.304916,0.003313,-0.012031,1.012062,192.000000,0.000000,0.000000,0.000000,0.000000,0.000000,0.000000,0.000000,0.000000,0.000000,1770884801.783739,0.000000
92.000000,-19625.658646,-14671.662709,-6560.393460,-8866.400584,2590.701293,-2513.118388,-8015.134396,-5209.610487,-939.980261,-18216.045882,-11896.045434,1467.146154,-959.627445,26512.342872,-25597.687137,-14755.727620,0.003313,-0.012031,1.012062,192.000000,0.000000,0.000000,0.000000,0.000000,0.000000,0.000000,0.000000,0.000000,0.000000,1770884801.783754,0.000000
94.000000,-19672.150275,-14721.037712,-6580.420623,-8896.173107,2564.102717,-2486.877440,-8038.022582,-5241.193502,-932.112447,-18161.261757,-11842.289489,1506.887556,-889.085339,26537.756805,-25531.973008,-14700.585866,0.003313,-0.012031,1.012062,192.000000,0.000000,0.000000,0.000000,0.000000,0.000000,0.000000,0.000000,0.000000,0.000000,1770884801.783769,0.000000
96.000000,-19684.354327,-14733.733503,-6593.362283,-8908.310104,2553.396231,-2504.289449,-8042.001193,-5255.811543,-942.595415,-18250.691086,-11918.084254,1439.564102,-956.766421,26533.398215,-25618.116631,-14770.390364,0.003313,-0.012031,1.012062,192.000000,0.000000,0.000000,0.000000,0.000000,0.000000,0.000000,0.000000,0.000000,0.000000,1770884801.783784,0.000000
98.000000,-19626.977399,-14673.920235,-6561.533399,-8857.482238,2602.123034,-2494.566440,-8012.161614,-5204.536641,-940.673165,-18171.454152,-11857.041640,1496.315181,-900.797653,26508.297206,-25543.886488,-14709.392453,0.003313,-0.012031,1.012062,192.000000,0.000000,0.000000,0.000000,0.000000,0.000000,0.000000,0.000000,0.000000,0.000000,1770884801.783799,0.000000
100.000000,-19699.017072,-14749.245614,-6612.405969,-8920.491805,2540.186350,-2491.593658,-8055.300481,-5262.852342,-945.769363,-18212.089623,-11890.569257,1477.942047,-946.998709,26541.802471,-25585.706602,-14737.779169,0.004000,-0.016000,1.012000,192.000000,0.000000,16.000000,127.500000,64.000000,15.500000,80.000000,0.000000,0.000000,0.000000,1770884801.783814,0.000000
102.000000,-19623.781100,-14677.094183,-6564.796754,-8868.971034,2594.031703,-2514.504196,-8015.290858,-5209.766949,-941.835456,-18218.772795,-11898.258257,1466.453250,-952.251369,26518.176677,-25600.659919,-14761.919053,0.004000,-0.016000,1.012000,192.000000,0.000000,0.000000,0.000000,0.000000,0.000000,0.000000,0.000000,0.000000,0.000000,1770884801.783829,0.000000
104.000000,-19667.478760,-14713.214602,-6585.047434,-8896.687197,2562.024005,-2483.211754,-8036.368553,-5235.180883,-933.565311,-18163.742800,-11841.998916,1506.306411,-895.008551,26531.721834,-25532.911781,-14705.570305,0.004000,-0.016000,1.012000,192.000000,0.000000,0.000000,0.000000,0.000000,0.000000,0.000000,0.000000,0.000000,0.000000,1770884801.783849,0.000000
106.000000,-19675.257167,-14723.809329,-6590.434204,-8906.901945,2559.654720,-2508.804501,-8041.621213,-5248.927206,-936.940424,-18245.349019,-11914.843251,1446.135515,-963.091965,26523.585799,-25619.256570,-14772.580835,0.004000,-0.016000,1.012000,192.000000,0.000000,0.000000,0.000000,0.000000,0.000000,0.000000,0.000000,0.000000,0.000000,1770884801.783863,0.000000
108.000000,-19623.512879,-14671.930930,-6557.823009,-8861.930235,2602.860642,-2486.966847,-8016.028466,-5207.554127,-926.636270,-18169.777771,-11855.074686,1496.739864,-892.393397,26512.678148,-25539.349084,-14712.365235,0.004000,-0.016000,1.012000,192.000000,0.000000,0.000000,0.000000,0.000000,0.000000,0.000000,0.000000,0.000000,0.000000,1770884801.783878,0.000000
110.000000,-19708.248342,-14748.820931,-6609.880222,-8919.173052,2538.018231,-2489.649056,-8057.870931,-5266.048642,-936.001651,-18209.340359,-11891.664492,1473.628160,-932.358316,26557.962782,-25587.561797,-14737.108616,0.002000,-0.016000,1.012000,192.000000,0.000000,8.000000,127.500000,64.000000,15.500000,80.000000,0.000000,0.000000,0.000000,1770884801.783894,0.000000
112.000000,-19622.216478,-14671.305081,-6563.522704,-8861.304386,2598.569107,-2507.664562,-8014.508547,-5204.648400,-937.096886,-18212.737824,-11897.766518,1471.035358,-951.334948,26519.428375,-25593.842637,-14753.738314,0.002000,-0.016000,1.012000,192.000000,0.000000,0.000000,0.000000,0.000000,0.000000,0.000000,0.000000,0.000000,0.000000,1770884801.783909,0.000000
114.000000,-19660.393257,-14704.296256,-6582.208762,-8890.696930,2561.711080,-2480.596600,-8031.406466,-5221.099284,-932.470075,-18153.103370,-11839.875500,1520.924451,-897.847223,26543.612962,-25534.789328,-14699.602389,0.002000,-0.016000,1.012000,192.000000,0.000000,0.000000,0.000000,0.000000,0.000000,0.000000,0.000000,0.000000,0.000000,1770884801.783924,0.000000
116.000000,-19675.078353,-14719.763663,-6599.464309,-8906.566668,2553.485638,-2512.649001,-8043.275242,-5242.624014,-933.811180,-18238.598792,-11908.428300,1458.384270,-968.992826,26545.825785,-25623.548105,-14770.747992,0.002000,-0.016000,1.012000,192.000000,0.000000,0.000000,0.000000,0.000000,0.000000,0.000000,0.000000,0.000000,0.000000,1770884801.783939,0.000000
118.000000,-19616.270914,-14664.778371,-6556.861884,-8856.655223,2599.150252,-2496.041655,-8010.999323,-5197.674656,-930.637232,-18165.530940,-11849.665564,1506.842852,-898.338961,26500.116467,-25543.975895,-14713.102843,0.002000,-0.016000,1.012000,192.000000,0.000000,0.000000,0.000000,0.000000,0.000000,0.000000,0.000000,0.000000,0.000000,1770884801.783954,0.000000
120.000000,-19706.728423,-14752.017230,-6609.142615,-8923.352828,2537.772362,-2481.334207,-8056.194551,-5266.048642,-937.879197,-18202.836001,-11883.707271,1476.936218,-930.078439,26558.208651,-25584.320794,-14742.964774,0.004000,-0.010000,1.008000,192.000000,0.000000,16.000000,127.500000,88.000000,15.500000,64.000000,0.000000,0.000000,0.000000,1770884801.783969,0.000000
122.000000,-19630.352513,-14681.072793,-6566.674300,-8864.992424,2591.058921,-2502.255440,-8018.800082,-5215.019609,-944.830590,-18216.001179,-11900.761652,1466.654416,-938.885026,26529.017273,-25598.558855,-14752.576024,0.004000,-0.010000,1.008000,192.000000,0.000000,0.000000,0.000000,0.000000,0.000000,0.000000,0.000000,0.000000,0.000000,1770884801.783984,0.000000
124.000000,-19682.253263,-14724.770454,-6591.954123,-8902.722168,2566.069670,-2475.031015,-8040.637736,-5244.412153,-947.311634,-18166.983803,-11855.074686,1502.551318,-898.741293,26529.866639,-25536.979799,-14706.933761,0.004000,-0.010000,1.008000,192.000000,0.000000,0.000000,0.000000,0.000000,0.000000,0.000000,0.000000,0.000000,0.000000,1770884801.783999,0.000000
126.000000,-19687.125944,-14732.124177,-6604.560507,-8906.969000,2558.559484,-2508.983315,-8045.353954,-5253.263444,-949.837381,-18247.025400,-11925.572088,1444.906169,-969.641026,26533.331160,-25623.413995,-14775.575969,0.004000,-0.010000,1.008000,192.000000,0.000000,0.000000,0.000000,0.000000,0.000000,0.000000,0.000000,0.000000,0.000000,1770884801.784014,0.000000
128.000000,-19624.630466,-14671.260377,-6565.266140,-8851.536673,2603.173566,-2492.711245,-8011.938097,-5198.412263,-939.108543,-18171.901187,-11857.086343,1503.579498,-909.358371,26517.372014,-25547.440415,-14715.159203,0.004000,-0.010000,1.008000,192.000000,0.000000,0.000000,0.000000,0.000000,0.000000,0.000000,0.000000,0.000000,0.000000,1770884801.784030,0.000000
130.000000,-19704.023862,-14748.463303,-6614.059998,-8916.826119,2539.493446,-2483.502326,-8053.311176,-5259.521933,-938.661508,-18203.037167,-11886.143611,1484.155832,-927.105657,26550.676113,-25588.299404,-14743.143587,0.004000,-0.010000,1.014000,192.000000,0.000000,16.000000,127.500000,88.000000,15.500000,88.000000,0.000000,0.000000,0.000000,1770884801.784045,0.000000
132.000000,-19632.006542,-14674.389622,-6570.809373,-8859.963281,2594.992828,-2504.088283,-8013.681533,-5206.436539,-947.244578,-18215.196516,-11902.572143,1473.605808,-946.015232,26521.909418,-25601.129305,-14753.604204,0.004000,-0.010000,1.014000,192.000000,0.000000,0.000000,0.000000,0.000000,0.000000,0.000000,0.000000,0.000000,0.000000,1770884801.784061,0.000000
134.000000,-19662.248452,-14704.028035,-6581.940541,-8893.334436,2574.764499,-2463.363405,-8033.172254,-5225.212005,-935.621671,-18155.293841,-11844.636422,1521.751466,-887.945400,26534.091119,-25536.331598,-14701.256418,0.004000,-0.010000,1.014000,192.000000,0.000000,0.000000,0.000000,0.000000,0.000000,0.000000,0.000000,0.000000,0.000000,1770884801.784075,0.000000
136.000000,-19676.687679,-14719.741311,-6593.049358,-8909.472395,2578.005502,-2485.268114,-8039.453094,-5244.702726,-931.464247,-18233.323781,-11912.518670,1459.524209,-953.883046,26545.758730,-25618.071928,-14770.345660,0.004000,-0.010000,1.014000,192.000000,0.000000,0.000000,0.000000,0.000000,0.000000,0.000000,0.000000,0.000000,0.000000,1770884801.784103,0.000000
138.000000,-19623.289361,-14667.952319,-6555.654890,-8856.118781,2614.774122,-2488.978504,-8008.048893,-5197.317028,-926.658622,-18167.341431,-11851.856035,1503.154815,-895.701456,26530.067805,-25536.488061,-14707.917238,0.004000,-0.010000,1.014000,192.000000,0.000000,0.000000,0.000000,0.000000,0.000000,0.000000,0.000000,0.000000,0.000000,1770884801.784118,0.000000
140.000000,-19705.879057,-14753.715963,-6607.577992,-8922.704628,2541.035717,-2476.081547,-8052.595920,-5261.265369,-941.299014,-18206.412280,-11884.891914,1478.009102,-934.325270,26551.927811,-25588.321756,-14744.171768,0.002000,-0.008000,1.014000,192.000000,0.000000,8.000000,127.500000,96.000000,15.500000,88.000000,0.000000,0.000000,0.000000,1770884801.784133,0.000000
142.000000,-19631.917135,-14680.826924,-6564.282663,-8866.110011,2600.446653,-2514.213623,-8016.184928,-5212.091531,-937.812142,-18218.549278,-11896.715986,1467.012044,-937.968604,26518.310787,-25594.624948,-14755.347640,0.002000,-0.008000,1.014000,192.000000,0.000000,0.000000,0.000000,0.000000,0.000000,0.000000,0.000000,0.000000,0.000000,1770884801.784150,0.000000
144.000000,-19663.142522,-14710.197116,-6583.393405,-8893.535601,2563.543923,-2478.942571,-8036.055629,-5234.622089,-936.783962,-18162.222882,-11844.368201,1511.067332,-892.549860,26528.838459,-25538.142090,-14706.933761,0.002000,-0.008000,1.014000,192.000000,0.000000,0.000000,0.000000,0.000000,0.000000,0.000000,0.000000,0.000000,0.000000,1770884801.784167,0.000000
146.000000,-19684.600196,-14726.558593,-6592.378806,-8909.248878,2557.799525,-2505.496443,-8042.671745,-5249.508351,-932.224206,-18241.929202,-11912.161042,1454.003329,-961.102660,26539.097910,-25619.547143,-14779.599283,0.002000,-0.008000,1.014000,192.000000,0.000000,0.000000,0.000000,0.000000,0.000000,0.000000,0.000000,0.000000,0.000000,1770884801.784185,0.000000
148.000000,-19624.116376,-14668.175837,-6552.950329,-8859.560950,2616.763427,-2486.989199,-8009.591163,-5197.875821,-935.196988,-18168.950757,-11854.940576,1505.077065,-900.015342,26530.224267,-25539.416139,-14721.372988,0.002000,-0.008000,1.014000,192.000000,0.000000,0.000000,0.000000,0.000000,0.000000,0.000000,0.000000,0.000000,0.000000,1770884801.784200,0.000000
150.000000,-19700.648749,-14747.748047,-6606.572164,-8922.168186,2535.783057,-2479.546068,-8052.417106,-5257.443220,-938.348584,-18200.533772,-11883.595512,1487.039207,-932.961814,26564.981230,-25582.152674,-14746.786922,0.002000,-0.014000,1.010000,192.000000,0.000000,8.000000,127.500000,72.000000,15.500000,72.000000,0.000000,0.000000,0.000000,1770884801.784216,0.000000
152.000000,-19627.379731,-14670.813342,-6571.792850,-8858.219845,2592.847060,-2497.315705,-8012.251021,-5200.155699,-936.269872,-18216.448214,-11898.504126,1476.712701,-946.909302,26512.521686,-25601.285768,-14760.019155,0.002000,-0.014000,1.010000,192.000000,0.000000,0.000000,0.000000,0.000000,0.000000,0.000000,0.000000,0.000000,0.000000,1770884801.784231,0.000000
154.000000,-19658.761580,-14700.250590,-6591.551792,-8883.276151,2552.479810,-2472.304102,-8033.976917,-5221.971002,-932.939462,-18145.324963,-11840.836625,1529.082838,-903.792787,26563.483663,-25551.106101,-14701.278770,0.002000,-0.014000,1.010000,192.000000,0.000000,0.000000,0.000000,0.000000,0.000000,0.000000,0.000000,0.000000,0.000000,1770884801.784246,0.000000
156.000000,-19668.506940,-14709.548916,-6596.044492,-8892.686235,2545.439010,-2498.969734,-8039.453094,-5236.052601,-931.218377,-18220.717397,-11906.975437,1467.883762,-958.956892,26558.722741,-25629.985408,-14775.397155,0.002000,-0.014000,1.010000,192.000000,0.000000,0.000000,0.000000,0.000000,0.000000,0.000000,0.000000,0.000000,0.000000,1770884801.784262,0.000000
158.000000,-19613.812222,-14655.122418,-6557.398326,-8847.513359,2610.661401,-2480.931876,-8008.115948,-5191.863202,-924.803427,-18151.069361,-11841.797750,1518.577518,-896.394360,26539.388482,-25545.540517,-14705.458546,0.002000,-0.014000,1.010000,192.000000,0.000000,0.000000,0.000000,0.000000,0.000000,0.000000,0.000000,0.000000,0.000000,1770884801.784277,0.000000
160.000000,-19705.074394,-14749.759704,-6612.696542,-8915.797939,2549.797600,-2480.060158,-8055.300481,-5259.097249,-937.275700,-18202.411318,-11878.655777,1479.506669,-937.990956,26554.744131,-25586.153637,-14737.376837,0.006000,-0.008000,1.014000,192.000000,0.000000,24.000000,127.500000,96.000000,15.500000,88.000000,0.000000,0.000000,0.000000,1770884801.784292,0.000000
162.000000,-19629.369036,-14678.882322,-6562.919207,-8857.526941,2609.297944,-2500.891984,-8012.094559,-5202.256763,-932.380668,-18220.717397,-11886.478887,1468.822535,-934.414677,26530.671302,-25593.999099,-14750.631422,0.006000,-0.008000,1.014000,192.000000,0.000000,0.000000,0.000000,0.000000,0.000000,0.000000,0.000000,0.000000,0.000000,1770884801.784308,0.000000
164.000000,-19669.289251,-14716.410901,-6585.226248,-8899.056482,2589.829575,-2471.879419,-8035.876815,-5230.822293,-931.441895,-18166.179140,-11839.629631,1512.542547,-884.480880,26536.169831,-25532.934133,-14697.501325,0.006000,-0.008000,1.014000,192.000000,0.000000,0.000000,0.000000,0.000000,0.000000,0.000000,0.000000,0.000000,0.000000,1770884801.784323,0.000000
166.000000,-19680.331013,-14728.369084,-6592.356454,-8911.886384,2571.478793,-2499.215603,-8044.035202,-5246.736735,-936.962776,-18249.439388,-11912.205745,1451.030547,-952.273721,26532.951180,-25612.081660,-14773.720774,0.006000,-0.008000,1.014000,192.000000,0.000000,0.000000,0.000000,0.000000,0.000000,0.000000,0.000000,0.000000,0.000000,1770884801.784343,0.000000
168.000000,-19616.583838,-14665.359517,-6553.375012,-8855.559987,2609.901441,-2493.784129,-8012.362780,-5197.026455,-933.475904,-18174.806914,-11857.086343,1500.651419,-899.925935,26510.688843,-25541.584258,-14719.651904,0.006000,-0.008000,1.014000,192.000000,0.000000,0.000000,0.000000,0.000000,0.000000,0.000000,0.000000,0.000000,0.000000,1770884801.784368,0.000000
170.000000,-19697.944188,-14734.404055,-6601.431263,-8919.731846,2550.557560,-2470.068928,-8052.953548,-5252.883464,-932.045392,-18202.768946,-11879.661605,1487.329780,-924.557558,26550.251430,-25583.493779,-14748.418599,0.006000,-0.009000,1.013000,192.000000,0.000000,24.000000,127.500000,88.000000,15.500000,80.000000,0.000000,0.000000,0.000000,1770884801.784390,0.000000
172.000000,-19621.344760,-14663.303156,-6560.393460,-8864.835961,2605.140520,-2496.421635,-8016.497852,-5199.798071,-933.788828,-18210.547353,-11895.173716,1480.333684,-943.400078,26543.724721,-25595.317852,-14763.304861,0.006000,-0.009000,1.013000,192.000000,0.000000,0.000000,0.000000,0.000000,0.000000,0.000000,0.000000,0.000000,0.000000,1770884801.784411,0.000000
174.000000,-19659.901519,-14700.608218,-6585.494469,-8891.546296,2583.526383,-2462.625797,-8037.173216,-5227.044848,-930.771343,-18151.002306,-11841.708343,1526.847664,-885.106729,26548.083311,-25533.604685,-14712.566401,0.006000,-0.009000,1.013000,192.000000,0.000000,0.000000,0.000000,0.000000,0.000000,0.000000,0.000000,0.000000,0.000000,1770884801.784431,0.000000
176.000000,-19681.180380,-14720.970657,-6602.191222,-8900.665808,2566.427298,-2493.761777,-8044.951623,-5247.027307,-937.432162,-18230.060426,-11917.167833,1462.899323,-959.023948,26550.072616,-25623.190477,-14774.391326,0.006000,-0.009000,1.013000,192.000000,0.000000,0.000000,0.000000,0.000000,0.000000,0.000000,0.000000,0.000000,0.000000,1770884801.784452,0.000000
178.000000,-19623.289361,-14661.090334,-6564.550884,-8850.732011,2617.344572,-2469.867762,-8015.246155,-5200.513327,-938.236825,-18163.586338,-11857.980413,1512.363733,-898.741293,26535.320465,-25541.584258,-14713.773395,0.006000,-0.009000,1.013000,192.000000,0.000000,0.000000,0.000000,0.000000,0.000000,0.000000,0.000000,0.000000,0.000000,1770884802.263566,0.000000
180.000000,-19705.588484,-14741.467207,-6617.546870,-8912.042846,2549.976414,-2462.648149,-8060.955472,-5265.176924,-943.489485,-18196.979844,-11892.491507,1487.910925,-941.500180,26571.597346,-25584.812532,-14738.583832,0.004000,-0.008500,1.014500,192.000000,0.000000,8.000000,127.500000,96.000000,15.500000,96.000000,0.000000,0.000000,0.000000,1770884802.263654,0.000000
182.000000,-19628.206745,-14664.554854,-6568.261274,-8853.369517,2604.715837,-2487.726806,-8019.202413,-5209.476377,-937.543921,-18208.289827,-11903.376806,1479.596076,-942.617767,26536.505107,-25593.641471,-14749.759704,0.004000,-0.008500,1.014500,192.000000,0.000000,0.000000,0.000000,0.000000,0.000000,0.000000,0.000000,0.000000,0.000000,1770884802.263732,0.000000
184.000000,-19665.914138,-14704.698587,-6585.919152,-8885.399566,2580.933581,-2454.579169,-8039.855425,-5232.185749,-930.681936,-18147.515434,-11844.368201,1525.841835,-890.225278,26558.275707,-25534.409348,-14699.825907,0.004000,-0.008500,1.014500,192.000000,0.000000,0.000000,0.000000,0.000000,0.000000,0.000000,0.000000,0.000000,0.000000,1770884802.263805,0.000000
186.000000,-19681.560359,-14718.154337,-6594.099890,-8906.298447,2568.148383,-2490.073739,-8046.493893,-5247.742563,-940.874331,-18237.816481,-11919.268896,1462.117012,-960.052128,26563.103683,-25619.904771,-14776.268873,0.004000,-0.008500,1.014500,192.000000,0.000000,0.000000,0.000000,0.000000,0.000000,0.000000,0.000000,0.000000,0.000000,1770884802.263891,0.000000
188.000000,-19623.915210,-14656.709392,-6556.638367,-8853.503627,2608.381523,-2482.049463,-8013.659181,-5197.428786,-931.643061,-18160.680611,-11851.498407,1514.487149,-898.003685,26533.062939,-25541.718369,-14715.203907,0.004000,-0.008500,1.014500,192.000000,0.000000,0.000000,0.000000,0.000000,0.000000,0.000000,0.000000,0.000000,0.000000,1770884802.263969,0.000000
190.000000,-19706.706072,-14744.887024,-6609.053208,-8923.844567,2545.282548,-2470.583018,-8056.887455,-5258.694918,-939.376764,-18205.093527,-11884.556637,1486.234544,-943.042450,26571.373829,-25588.344108,-14747.144550,0.003000,-0.008250,1.012250,192.000000,0.000000,8.000000,127.500000,96.000000,15.500000,72.000000,0.000000,0.000000,0.000000,1770884802.264043,0.000000
192.000000,-19626.642123,-14666.052421,-6561.600454,-8861.125572,2602.257145,-2502.121330,-8014.530899,-5201.787377,-937.342755,-18215.598847,-11894.592571,1475.036320,-946.641081,26532.280628,-25601.218712,-14763.416620,0.003000,-0.008250,1.012250,192.000000,0.000000,0.000000,0.000000,0.000000,0.000000,0.000000,0.000000,0.000000,0.000000,1770884802.264069,0.000000
194.000000,-19665.310641,-14699.445927,-6579.079518,-8890.987502,2573.870429,-2464.682158,-8031.384114,-5223.133293,-933.185331,-18149.683553,-11837.036829,1524.165454,-896.573174,26549.826747,-25540.913706,-14719.674256,0.003000,-0.008250,1.012250,192.000000,0.000000,0.000000,0.000000,0.000000,0.000000,0.000000,0.000000,0.000000,0.000000,1770884802.264095,0.000000
196.000000,-19676.888845,-14715.807404,-6592.334103,-8898.698854,2561.711080,-2498.902678,-8039.900129,-5238.824217,-936.247520,-18234.173147,-11904.986132,1466.944989,-952.541942,26543.925887,-25627.861992,-14788.137649,0.003000,-0.008250,1.012250,192.000000,0.000000,0.000000,0.000000,0.000000,0.000000,0.000000,0.000000,0.000000,0.000000,1770884802.264119,0.000000
198.000000,-19616.405024,-14656.396467,-6553.062088,-8849.726182,2621.859625,-2479.434309,-8007.400692,-5191.393815,-932.358316,-18163.966318,-11847.810369,1516.498806,-903.233993,26525.239828,-25545.473462,-14729.039637,0.003000,-0.008250,1.012250,192.000000,0.000000,0.000000,0.000000,0.000000,0.000000,0.000000,0.000000,0.000000,0.000000,1770884802.264143,0.000000
200.000000,-19704.247380,-14739.924936,-6606.706274,-8913.965096,2557.061917,-2468.861934,-8053.780562,-5259.633691,-938.192122,-18196.465754,-11881.114469,1494.527041,-931.687764,26583.108495,-25583.672593,-14751.637250,0.003500,-0.007125,1.012125,192.000000,0.000000,16.000000,127.500000,104.000000,15.500000,80.000000,0.000000,0.000000,0.000000,1770884802.264176,0.000000
202.000000,-19637.058036,-14675.037822,-6569.423565,-8860.030336,2609.834386,-2488.263248,-8017.548384,-5211.599792,-941.813104,-18214.525964,-11906.818975,1479.529021,-954.039509,26526.938561,-25594.244968,-14759.683878,0.003500,-0.007125,1.012125,192.000000,0.000000,0.000000,0.000000,0.000000,0.000000,0.000000,0.000000,0.000000,0.000000,1770884802.264194,0.000000
204.000000,-19679.928682,-14711.046482,-6594.099890,-8885.801898,2579.592476,-2459.474201,-8038.626079,-5236.834912,-947.803372,-18158.512492,-11857.175750,1519.851568,-899.076569,26550.564355,-25535.683398,-14704.050386,0.003500,-0.007125,1.012125,192.000000,0.000000,0.000000,0.000000,0.000000,0.000000,0.000000,0.000000,0.000000,0.000000,1770884802.264211,0.000000
206.000000,-19694.658481,-14730.872480,-6607.354475,-8898.184764,2562.359281,-2490.274905,-8046.672707,-5253.017575,-946.194046,-18237.682371,-11929.260126,1462.541695,-971.339759,26551.994866,-25621.804669,-14773.765477,0.003500,-0.007125,1.012125,192.000000,0.000000,0.000000,0.000000,0.000000,0.000000,0.000000,0.000000,0.000000,0.000000,1770884802.264229,0.000000
208.000000,-19627.267972,-14667.885264,-6560.326405,-8847.915691,2605.319334,-2471.834716,-8012.116910,-5201.049769,-943.914168,-18168.280204,-11863.881274,1512.833120,-911.459435,26530.268971,-25545.920497,-14714.645113,0.003500,-0.007125,1.012125,192.000000,0.000000,0.000000,0.000000,0.000000,0.000000,0.000000,0.000000,0.000000,0.000000,1770884802.264252,0.000000
210.000000,-19719.759490,-14756.264061,-6615.736379,-8920.670619,2534.933690,-2470.784184,-8063.190647,-5275.056395,-949.189180,-18202.523077,-11892.245637,1484.245239,-933.677069,26579.353402,-25588.098238,-14741.735428,0.002750,-0.008563,1.015062,192.000000,0.000000,8.000000,127.500000,88.000000,15.500000,104.000000,0.000000,0.000000,0.000000,1770884802.264283,0.000000
212.000000,-19642.690676,-14680.089316,-6569.915303,-8861.684365,2598.323238,-2502.769530,-8022.711637,-5222.172168,-944.785886,-18223.019627,-11911.266972,1463.659282,-955.402965,26527.564410,-25603.185666,-14756.934614,0.002750,-0.008563,1.015062,192.000000,0.000000,0.000000,0.000000,0.000000,0.000000,0.000000,0.000000,0.000000,0.000000,1770884802.264311,0.000000
214.000000,-19672.865531,-14710.308875,-6591.350626,-8886.964188,2564.102717,-2468.928989,-8041.375344,-5240.321784,-939.175599,-18159.987707,-11854.091210,1516.342344,-903.301049,26545.937544,-25538.119738,-14704.855049,0.002750,-0.008563,1.015062,192.000000,0.000000,0.000000,0.000000,0.000000,0.000000,0.000000,0.000000,0.000000,0.000000,1770884802.264335,0.000000
216.000000,-19691.752755,-14725.552765,-6603.666437,-8907.080758,2556.525476,-2501.383722,-8047.991460,-5256.415040,-941.142552,-18235.983638,-11924.342742,1458.741898,-972.636160,26552.128977,-25627.392605,-14780.940387,0.002750,-0.008563,1.015062,192.000000,0.000000,0.000000,0.000000,0.000000,0.000000,0.000000,0.000000,0.000000,0.000000,1770884802.264360,0.000000
218.000000,-19623.669341,-14659.905691,-6559.365280,-8848.809761,2605.609906,-2479.635475,-8010.708751,-5198.456967,-935.174636,-18166.469713,-11860.215588,1510.553242,-901.043522,26548.239773,-25550.368494,-14724.725750,0.002750,-0.008563,1.015062,192.000000,0.000000,0.000000,0.000000,0.000000,0.000000,0.000000,0.000000,0.000000,0.000000,1770884802.264384,0.000000
220.000000,-19708.360101,-14744.328230,-6608.427359,-8915.708532,2552.770382,-2474.673387,-8056.730992,-5264.595779,-932.268909,-18198.008024,-11884.467230,1492.202460,-929.452590,26560.399122,-25584.052573,-14753.827721,0.003375,-0.010281,1.015531,192.000000,0.000000,16.000000,127.500000,80.000000,15.500000,96.000000,0.000000,0.000000,0.000000,1770884802.264408,0.000000
222.000000,-19633.749978,-14673.629662,-6562.315710,-8857.392831,2605.654610,-2495.348751,-8015.536727,-5208.671714,-930.257252,-18214.503612,-11898.817050,1479.238448,-929.050258,26532.459442,-25592.747401,-14766.054126,0.003375,-0.010281,1.015531,192.000000,0.000000,0.000000,0.000000,0.000000,0.000000,0.000000,0.000000,0.000000,0.000000,1770884802.264433,0.000000
224.000000,-19672.843179,-14712.655808,-6589.070748,-8887.634741,2589.203726,-2467.587884,-8039.855425,-5238.444238,-935.532264,-18157.126684,-11845.955175,1518.979850,-891.588735,26558.454521,-25532.665912,-14707.581962,0.003375,-0.010281,1.015531,192.000000,0.000000,0.000000,0.000000,0.000000,0.000000,0.000000,0.000000,0.000000,0.000000,1770884802.264458,0.000000
226.000000,-19687.014185,-14723.250535,-6599.598420,-8902.051616,2567.746051,-2494.097053,-8048.259681,-5254.872770,-940.203779,-18241.906851,-11921.839347,1453.489238,-965.416547,26554.632372,-25619.100108,-14777.364108,0.003375,-0.010281,1.015531,192.000000,0.000000,0.000000,0.000000,0.000000,0.000000,0.000000,0.000000,0.000000,0.000000,1770884802.264480,0.000000
228.000000,-19624.317542,-14663.906653,-6564.394422,-8847.468656,2618.663325,-2479.881344,-8014.463844,-5206.660057,-931.643061,-18162.915786,-11855.722887,1508.832158,-893.510985,26549.670285,-25542.165404,-14709.034825,0.003375,-0.010281,1.015531,192.000000,0.000000,0.000000,0.000000,0.000000,0.000000,0.000000,0.000000,0.000000,0.000000,1770884802.264524,0.000000
230.000000,-19722.732272,-14756.644041,-6621.301963,-8919.195404,2554.603226,-2474.271056,-8060.553141,-5275.816354,-941.008442,-18215.688254,-11894.190239,1476.645646,-939.063840,26560.577936,-25587.360631,-14738.695590,0.003375,-0.010281,1.015531,192.000000,0.000000,0.000000,0.000000,0.000000,0.000000,0.000000,0.000000,0.000000,0.000000,1770884802.264542,0.000000
232.000000,-19648.591536,-14686.146639,-6573.580989,-8863.785429,2602.637124,-2508.223356,-8020.655277,-5223.647383,-952.921921,-18231.893269,-11913.926830,1462.474640,-956.632311,26540.662532,-25597.463619,-14755.995841,0.006000,-0.016000,1.012000,192.000000,0.000000,24.000000,127.500000,64.000000,15.500000,80.000000,0.000000,0.000000,0.000000,1770884802.264567,0.000000
234.000000,-19685.270749,-14720.456567,-6586.768518,-8891.278075,2579.748938,-2466.716166,-8038.447265,-5245.462685,-945.568197,-18169.621309,-11858.718021,1507.289887,-894.114482,26552.196032,-25533.224706,-14700.876439,0.006000,-0.016000,1.012000,192.000000,0.000000,0.000000,0.000000,0.000000,0.000000,0.000000,0.000000,0.000000,0.000000,1770884802.264589,0.000000
236.000000,-19694.993758,-14732.213584,-6595.150422,-8908.377160,2572.194048,-2484.664617,-8045.063382,-5259.499581,-943.645947,-18253.596813,-11926.823786,1447.431916,-960.543866,26552.441901,-25612.640454,-14773.810181,0.006000,-0.016000,1.012000,192.000000,0.000000,0.000000,0.000000,0.000000,0.000000,0.000000,0.000000,0.000000,0.000000,1770884802.264607,0.000000
238.000000,-19636.588649,-14672.534427,-6564.729698,-8849.390906,2607.219232,-2483.681140,-8017.101349,-5212.940897,-936.716907,-18177.355013,-11865.155323,1496.941030,-903.681028,26522.244695,-25540.466671,-14707.917238,0.006000,-0.016000,1.012000,192.000000,0.000000,0.000000,0.000000,0.000000,0.000000,0.000000,0.000000,0.000000,0.000000,1770884802.264624,0.000000
240.000000,-19697.787726,-14735.387532,-6611.288382,-8916.401436,2544.053202,-2473.868725,-8057.110972,-5265.959235,-940.092020,-18204.847658,-11890.390443,1477.450308,-939.063840,26577.006468,-25590.534579,-14741.131930,0.006000,-0.016000,1.012000,192.000000,0.000000,0.000000,0.000000,0.000000,0.000000,0.000000,0.000000,0.000000,0.000000,1770884802.264641,0.000000
242.000000,-19634.576992,-14672.824999,-6574.005672,-8854.218883,2605.587555,-2494.834661,-8017.101349,-5215.041961,-927.507988,-18210.882629,-11897.386539,1473.918733,-938.683860,26543.031817,-25601.911617,-14762.723716,0.004000,-0.014000,1.010000,192.000000,0.000000,16.000000,127.500000,72.000000,15.500000,72.000000,0.000000,0.000000,0.000000,1770884802.264658,0.000000
244.000000,-19679.705164,-14711.560573,-6592.199992,-8885.891305,2580.553601,-2463.810440,-8039.251928,-5245.060354,-940.427296,-18155.092675,-11855.164093,1516.722324,-906.877328,26565.405913,-25535.906915,-14705.905581,0.004000,-0.014000,1.010000,192.000000,0.000000,0.000000,0.000000,0.000000,0.000000,0.000000,0.000000,0.000000,0.000000,1770884802.264675,0.000000
246.000000,-19691.551589,-14724.949268,-6600.067806,-8898.430633,2578.966627,-2484.105824,-8045.130437,-5260.326595,-945.568197,-18238.598792,-11925.706199,1455.657358,-950.038546,26571.820864,-25614.182724,-14781.342719,0.004000,-0.014000,1.010000,192.000000,0.000000,0.000000,0.000000,0.000000,0.000000,0.000000,0.000000,0.000000,0.000000,1770884802.264693,0.000000
248.000000,-19634.800510,-14669.963976,-6562.516876,-8845.233482,2625.704125,-2476.014492,-8016.855480,-5214.483167,-938.572101,-18164.458056,-11868.329271,1504.428864,-899.814177,26538.762634,-25532.621209,-14717.014398,0.004000,-0.014000,1.010000,192.000000,0.000000,0.000000,0.000000,0.000000,0.000000,0.000000,0.000000,0.000000,0.000000,1770884802.264713,0.000000
250.000000,-19718.664255,-14752.307803,-6616.764559,-8918.256631,2561.934598,-2467.364367,-8064.799972,-5280.465517,-945.344680,-18207.194591,-11901.633370,1476.489183,-931.531302,26581.141541,-25574.396619,-14740.506082,0.004000,-0.014000,1.010000,192.000000,0.000000,0.000000,0.000000,0.000000,0.000000,0.000000,0.000000,0.000000,0.000000,1770884802.264738,0.000000
252.000000,-19640.924888,-14679.262302,-6574.385652,-8859.628005,2620.473816,-2484.709321,-8024.633887,-5225.346115,-944.785886,-18214.570667,-11914.507975,1467.392023,-945.612901,26555.101759,-25590.735744,-14753.492445,-0.002000,-0.010000,1.010000,192.000000,127.500000,120.000000,127.500000,88.000000,15.500000,72.000000,0.000000,0.000000,0.000000,1770884802.264756,0.000000
254.000000,-19687.371813,-14719.338980,-6599.240792,-8886.897133,2587.236772,-2447.024279,-8042.984670,-5249.910682,-946.082288,-18165.039201,-11862.584873,1509.659172,-900.194156,26547.971552,-25529.156688,-14694.617950,-0.002000,-0.010000,1.010000,192.000000,0.000000,0.000000,0.000000,0.000000,0.000000,0.000000,0.000000,0.000000,0.000000,1770884802.264774,0.000000
0.000000,-19702.593351,-14739.746122,-6614.484681,-8893.647360,2568.796583,-2485.938667,-8049.153751,-5268.507334,-947.848075,-18247.025400,-11936.457388,1445.286148,-979.118166,26572.200843,-25620.821192,-14768.088134,-0.002000,-0.010000,1.010000,192.000000,0.000000,0.000000,0.000000,0.000000,0.000000,0.000000,0.000000,0.000000,0.000000,1770884802.264791,0.000000
2.000000,-19644.702333,-14683.755002,-6573.424527,-8847.066325,2608.225060,-2483.792899,-8017.928364,-5216.517176,-953.592474,-18177.064440,-11874.073669,1492.850660,-902.876366,26536.080424,-25549.183851,-14709.481860,-0.002000,-0.010000,1.010000,192.000000,0.000000,0.000000,0.000000,0.000000,0.000000,0.000000,0.000000,0.000000,0.000000,1770884802.264811,0.000000
4.000000,-19718.016054,-14757.448704,-6621.726647,-8921.698799,2540.029888,-2478.696701,-8061.313100,-5272.843572,-957.481677,-18221.566763,-11899.420547,1470.454212,-938.594453,26567.529329,-25590.534579,-14746.272832,-0.002000,-0.010000,1.010000,192.000000,0.000000,0.000000,0.000000,0.000000,0.000000,0.000000,0.000000,0.000000,0.000000,1770884802.264831,0.000000
6.000000,-19631.492452,-14672.087392,-6570.876428,-8860.343261,2601.050151,-2504.289449,-8017.190756,-5207.084740,-945.858770,-18225.053635,-11903.600324,1466.609712,-958.733375,26540.506070,-25605.532599,-14765.987070,0.002000,-0.006000,1.014000,192.000000,0.000000,8.000000,127.500000,104.000000,15.500000,88.000000,0.000000,0.000000,0.000000,1770884802.264849,0.000000
8.000000,-19671.770295,-14706.822003,-6589.718949,-8894.004988,2581.402967,-2469.621893,-8038.402562,-5232.342211,-934.124104,-18164.726277,-11841.462474,1514.844777,-899.702418,26555.660552,-25534.409348,-14714.823927,0.002000,-0.006000,1.014000,192.000000,0.000000,0.000000,0.000000,0.000000,0.000000,0.000000,0.000000,0.000000,0.000000,1770884802.264869,0.000000
10.000000,-19680.308661,-14712.588753,-6598.056149,-8898.341226,2563.834496,-2496.466338,-8042.917614,-5242.333441,-938.326232,-18243.940859,-11912.876298,1453.645701,-979.699311,26562.969573,-25626.029149,-14786.863600,0.002000,-0.006000,1.014000,192.000000,0.000000,0.000000,0.000000,0.000000,0.000000,0.000000,0.000000,0.000000,0.000000,1770884802.264886,0.000000
12.000000,-19615.935637,-14654.720086,-6554.961986,-8850.732011,2619.669154,-2479.724882,-8011.356951,-5190.142118,-931.330136,-18167.632004,-11847.385686,1510.508539,-898.115444,26540.528421,-25542.813604,-14727.273849,0.002000,-0.006000,1.014000,192.000000,0.000000,0.000000,0.000000,0.000000,0.000000,0.000000,0.000000,0.000000,0.000000,1770884802.264903,0.000000
14.000000,-19704.090918,-14738.047390,-6609.679056,-8915.395607,2551.116353,-2472.952303,-8056.619234,-5257.554979,-934.325270,-18197.404527,-11875.303015,1488.961457,-930.190197,26562.567241,-25581.191549,-14753.268928,0.002000,-0.006000,1.014000,192.000000,0.000000,0.000000,0.000000,0.000000,0.000000,0.000000,0.000000,0.000000,0.000000,1770884802.264922,0.000000
16.000000,-19636.901574,-14672.824999,-6566.651948,-8854.107124,2605.900479,-2497.338056,-8019.045951,-5209.901060,-938.594453,-18215.196516,-11899.733472,1469.269570,-946.752840,26548.575049,-25598.961186,-14761.919053,0.010000,-0.010000,1.010000,192.000000,0.000000,40.000000,127.500000,88.000000,15.500000,72.000000,0.000000,0.000000,0.000000,1770884802.264944,0.000000
18.000000,-19672.574958,-14708.207811,-6588.154326,-8883.231447,2586.946200,-2447.694832,-8042.716449,-5237.326650,-936.560444,-18160.099466,-11847.251576,1511.424960,-889.040636,26561.695523,-25531.727139,-14705.860878,0.010000,-0.010000,1.010000,192.000000,0.000000,0.000000,0.000000,0.000000,0.000000,0.000000,0.000000,0.000000,0.000000,1770884802.264967,0.000000
20.000000,-19681.828580,-14718.511965,-6600.179565,-8893.133270,2580.777118,-2484.776376,-8049.578434,-5253.755182,-938.080363,-18237.034170,-11921.325257,1450.561160,-967.003520,26592.228006,-25616.976692,-14770.591530,0.010000,-0.010000,1.010000,192.000000,0.000000,0.000000,0.000000,0.000000,0.000000,0.000000,0.000000,0.000000,0.000000,1770884802.264991,0.000000
22.000000,-19623.781100,-14660.419781,-6557.107753,-8846.485179,2630.040363,-2467.409070,-8016.520204,-5203.776682,-936.180465,-18167.564949,-11858.941538,1497.768044,-901.579964,26548.753863,-25537.963276,-14713.438119,0.010000,-0.010000,1.010000,192.000000,0.000000,0.000000,0.000000,0.000000,0.000000,0.000000,0.000000,0.000000,0.000000,1770884802.265014,0.000000
24.000000,-19710.997607,-14746.451646,-6614.194109,-8915.708532,2559.297092,-2464.458640,-8062.810667,-5269.781383,-939.980261,-18208.692158,-11889.406966,1472.287056,-928.424409,26562.209614,-25576.676497,-14736.549823,0.010000,-0.010000,1.010000,192.000000,0.000000,0.000000,0.000000,0.000000,0.000000,0.000000,0.000000,0.000000,0.000000,1770884802.265037,0.000000
26.000000,-19638.019161,-14674.300215,-6571.077594,-8858.018679,2612.114264,-2498.612106,-8021.236422,-5213.186766,-945.456439,-18216.917600,-11909.858812,1464.799221,-945.299977,26546.272820,-25600.324643,-14763.170751,0.006000,-0.008000,1.010000,192.000000,0.000000,24.000000,127.500000,96.000000,15.500000,72.000000,0.000000,0.000000,0.000000,1770884802.265061,0.000000
28.000000,-19670.272728,-14709.571267,-6589.473079,-8879.543409,2575.278589,-2474.360463,-8039.318983,-5231.783418,-929.229072,-18154.377419,-11847.139817,1513.794245,-888.615953,26571.217367,-25534.990494,-14711.649980,0.006000,-0.008000,1.010000,192.000000,0.000000,0.000000,0.000000,0.000000,0.000000,0.000000,0.000000,0.000000,0.000000,1770884802.265084,0.000000
30.000000,-19682.700298,-14719.540145,-6601.118338,-8895.100223,2569.511839,-2485.938667,-8044.772809,-5244.501560,-944.003575,-18239.649324,-11921.191147,1455.813820,-975.430128,26565.987058,-25626.520887,-14781.499181,0.006000,-0.008000,1.010000,192.000000,0.000000,0.000000,0.000000,0.000000,0.000000,0.000000,0.000000,0.000000,0.000000,1770884802.265107,0.000000
32.000000,-19618.751957,-14647.500473,-6556.884236,-8838.170330,2621.122017,-2482.317684,-8007.378341,-5189.270400,-935.018174,-18162.245233,-11853.688878,1510.352076,-908.643116,26549.335009,-25542.098348,-14721.574154,0.006000,-0.008000,1.010000,192.000000,0.000000,0.000000,0.000000,0.000000,0.000000,0.000000,0.000000,0.000000,0.000000,1770884802.265131,0.000000
34.000000,-19705.186153,-14732.906489,-6605.096949,-8902.319837,2551.429278,-2479.277847,-8050.696021,-5251.207084,-937.543921,-18193.492972,-11880.354509,1491.509556,-928.849093,26591.579806,-25576.676497,-14751.905471,0.006000,-0.008000,1.010000,192.000000,0.000000,0.000000,0.000000,0.000000,0.000000,0.000000,0.000000,0.000000,0.000000,1770884802.265151,0.000000
36.000000,-19621.322408,-14655.994136,-6561.555751,-8849.994403,2612.762465,-2485.022245,-8012.809815,-5196.199441,-935.241691,-18206.211115,-11892.133879,1478.478489,-943.847113,26562.164910,-25590.601634,-14768.155190,0.004000,-0.014000,1.012000,192.000000,0.000000,16.000000,127.500000,72.000000,15.500000,80.000000,0.000000,0.000000,0.000000,1770884802.265168,0.000000
38.000000,-19653.777141,-14691.153430,-6581.985245,-8869.507476,2597.272706,-2450.287634,-8031.987611,-5217.187729,-921.361258,-18141.480463,-11832.924108,1525.305393,-886.380778,26571.932622,-25525.222781,-14709.101881,0.004000,-0.014000,1.012000,192.000000,0.000000,0.000000,0.000000,0.000000,0.000000,0.000000,0.000000,0.000000,0.000000,1770884802.265187,0.000000
40.000000,-19667.501112,-14703.201020,-6595.061015,-8882.069156,2580.352435,-2473.421690,-8042.090600,-5236.007897,-923.819950,-18222.416129,-11905.299056,1468.308445,-955.872352,26581.588576,-25610.517038,-14770.479771,0.004000,-0.014000,1.012000,192.000000,0.000000,0.000000,0.000000,0.000000,0.000000,0.000000,0.000000,0.000000,0.000000,1770884802.265217,0.000000
42.000000,-19607.732547,-14644.505339,-6552.257425,-8836.270432,2626.486436,-2465.062137,-8009.389998,-5185.068272,-923.484674,-18147.090751,-11846.782189,1521.192672,-895.209717,26575.061867,-25534.208183,-14709.280695,0.004000,-0.014000,1.012000,192.000000,0.000000,0.000000,0.000000,0.000000,0.000000,0.000000,0.000000,0.000000,0.000000,1770884802.744412,0.000000
44.000000,-19693.406784,-14727.430311,-6603.308809,-8899.950552,2560.034699,-2453.349823,-8051.813609,-5248.591930,-924.199930,-18183.479391,-11868.999823,1500.539661,-922.367087,26601.459277,-25577.838788,-14736.639230,0.004000,-0.014000,1.012000,192.000000,0.000000,0.000000,0.000000,0.000000,0.000000,0.000000,0.000000,0.000000,0.000000,1770884802.744502,0.000000
46.000000,-19633.772330,-14670.276901,-6563.925035,-8851.715487,2617.836311,-2478.875515,-8015.246155,-5202.770853,-930.950157,-18215.844717,-11889.183448,1475.975093,-947.333985,26565.070637,-25592.300366,-14755.593509,0.003000,-0.013000,1.009000,192.000000,0.000000,8.000000,127.500000,80.000000,15.500000,56.000000,0.000000,0.000000,0.000000,1770884802.744575,0.000000
48.000000,-19661.980231,-14698.574209,-6582.566390,-8873.754307,2580.866525,-2453.685099,-8030.937079,-5221.680429,-928.558520,-18149.862367,-11833.125273,1519.426885,-891.096996,26571.172663,-25534.766976,-14705.816174,0.003000,-0.013000,1.009000,192.000000,0.000000,0.000000,0.000000,0.000000,0.000000,0.000000,0.000000,0.000000,0.000000,1770884802.744654,0.000000
50.000000,-19672.865531,-14712.812270,-6597.854984,-8889.534639,2569.534191,-2484.865783,-8037.910824,-5240.075915,-932.738296,-18227.735845,-11903.510917,1461.379404,-964.969512,26591.155123,-25625.537410,-14775.777134,0.003000,-0.013000,1.009000,192.000000,0.000000,0.000000,0.000000,0.000000,0.000000,0.000000,0.000000,0.000000,0.000000,1770884802.744739,0.000000
52.000000,-19625.658646,-14659.548063,-6557.778306,-8843.400639,2622.641936,-2479.367254,-8009.635867,-5199.395740,-936.672203,-18164.703925,-11849.352640,1506.284059,-911.280621,26555.973477,-25542.813604,-14716.477956,0.003000,-0.013000,1.009000,192.000000,0.000000,0.000000,0.000000,0.000000,0.000000,0.000000,0.000000,0.000000,0.000000,1770884802.744825,0.000000
54.000000,-19712.562229,-14746.652811,-6606.370998,-8906.879593,2553.619749,-2480.060158,-8055.971033,-5267.009767,-938.750915,-18199.617350,-11885.696576,1478.836117,-929.094962,26587.690602,-25579.939852,-14755.660564,0.003000,-0.013000,1.009000,192.000000,0.000000,0.000000,0.000000,0.000000,0.000000,0.000000,0.000000,0.000000,0.000000,1770884802.744859,0.000000
56.000000,-19637.505071,-14670.343956,-6566.786059,-8850.597900,2617.501034,-2497.360408,-8018.487158,-5210.884537,-939.130895,-18215.777661,-11901.767481,1464.128669,-938.862674,26556.576974,-25592.166256,-14765.942367,0.002500,-0.009500,1.005500,192.000000,0.000000,8.000000,127.500000,104.000000,15.500000,40.000000,0.000000,0.000000,0.000000,1770884802.744886,0.000000
58.000000,-19667.054077,-14695.981407,-6588.109623,-8874.044880,2589.918982,-2467.073794,-8040.704792,-5231.179921,-938.594453,-18154.757399,-11845.843416,1511.871995,-896.707284,26576.984117,-25527.055624,-14711.761738,0.002500,-0.009500,1.005500,192.000000,0.000000,0.000000,0.000000,0.000000,0.000000,0.000000,0.000000,0.000000,0.000000,1770884802.744913,0.000000
60.000000,-19683.773182,-14710.979427,-6601.274800,-8884.147869,2576.552639,-2485.335169,-8046.091562,-5241.193502,-939.354412,-18234.441368,-11918.084254,1457.490201,-957.615788,26571.530291,-25614.808573,-14781.677995,0.002500,-0.009500,1.005500,192.000000,0.000000,0.000000,0.000000,0.000000,0.000000,0.000000,0.000000,0.000000,0.000000,1770884802.744940,0.000000
62.000000,-19608.559562,-14644.930022,-6560.974605,-8832.604746,2625.994697,-2465.866800,-8013.279201,-5188.063406,-932.984165,-18153.393943,-11851.610166,1516.521158,-902.965773,26559.058018,-25539.594953,-14717.260267,0.002500,-0.009500,1.005500,192.000000,0.000000,0.000000,0.000000,0.000000,0.000000,0.000000,0.000000,0.000000,0.000000,1770884802.744966,0.000000
64.000000,-19702.928627,-14729.129044,-6611.042513,-8897.849488,2566.248484,-2457.753117,-8061.402507,-5257.107944,-933.341793,-18183.926425,-11879.661605,1493.901192,-928.692630,26613.842143,-25577.168235,-14738.628535,0.002500,-0.009500,1.005500,192.000000,0.000000,0.000000,0.000000,0.000000,0.000000,0.000000,0.000000,0.000000,0.000000,1770884802.744992,0.000000
66.000000,-19626.016274,-14655.055363,-6564.416774,-8836.806874,2622.708991,-2467.990216,-8018.397751,-5201.072121,-936.739258,-18204.847658,-11897.565353,1472.443518,-938.348584,26568.311640,-25592.881512,-14749.916166,0.005250,-0.008750,1.006750,192.000000,0.000000,32.000000,127.500000,96.000000,15.500000,64.000000,0.000000,0.000000,0.000000,1770884802.745019,0.000000
68.000000,-19651.541966,-14682.033918,-6579.347739,-8865.126534,2606.727494,-2434.060268,-8034.558062,-5215.623106,-924.714020,-18128.762320,-11829.504291,1532.525007,-882.469223,26604.476762,-25526.675645,-14692.293369,0.005250,-0.008750,1.006750,192.000000,0.000000,0.000000,0.000000,0.000000,0.000000,0.000000,0.000000,0.000000,0.000000,1770884802.745047,0.000000
70.000000,-19669.289251,-14700.071776,-6592.311751,-8874.603674,2587.884973,-2459.697719,-8043.387001,-5236.030249,-931.352488,-18211.128498,-11904.516745,1470.431861,-958.308692,26615.227951,-25610.829963,-14759.080381,0.005250,-0.008750,1.006750,192.000000,0.000000,0.000000,0.000000,0.000000,0.000000,0.000000,0.000000,0.000000,0.000000,1770884802.745073,0.000000
72.000000,-19606.659664,-14642.203110,-6550.715154,-8832.492987,2637.908177,-2445.861989,-8011.915745,-5188.421033,-922.814122,-18146.330791,-11845.374029,1520.231547,-889.778243,26585.298966,-25534.789328,-14700.876439,0.005250,-0.008750,1.006750,192.000000,0.000000,0.000000,0.000000,0.000000,0.000000,0.000000,0.000000,0.000000,0.000000,1770884802.745109,0.000000
74.000000,-19700.916970,-14730.380741,-6604.225231,-8902.677465,2570.316502,-2452.947492,-8058.094449,-5255.811543,-932.626537,-18186.787449,-11880.846248,1487.642704,-933.051221,26605.326129,-25569.903918,-14731.163052,0.005250,-0.008750,1.006750,192.000000,0.000000,0.000000,0.000000,0.000000,0.000000,0.000000,0.000000,0.000000,0.000000,1770884802.745136,0.000000
76.000000,-19624.742225,-14662.587900,-6557.286567,-8844.339412,2625.301793,-2480.037806,-8017.213108,-5204.961324,-931.196026,-18205.875839,-11895.844268,1471.817669,-932.738296,26579.152236,-25587.405334,-14754.945309,0.004625,-0.009375,1.006375,192.000000,0.000000,16.000000,127.500000,88.000000,15.500000,56.000000,0.000000,0.000000,0.000000,1770884802.745163,0.000000
78.000000,-19665.690621,-14693.589770,-6582.767556,-8869.842752,2591.729473,-2450.913483,-8036.502664,-5231.403438,-929.765514,-18149.281222,-11842.781227,1518.041076,-879.988179,26577.229986,-25522.808793,-14701.658750,0.004625,-0.009375,1.006375,192.000000,0.000000,0.000000,0.000000,0.000000,0.000000,0.000000,0.000000,0.000000,0.000000,1770884802.745188,0.000000
80.000000,-19681.515656,-14706.866706,-6600.447786,-8888.282941,2570.450612,-2476.349768,-8043.856388,-5247.273177,-944.517665,-18225.500670,-11919.045379,1460.284169,-967.003520,26594.060849,-25613.869800,-14777.341757,0.004625,-0.009375,1.006375,192.000000,0.000000,0.000000,0.000000,0.000000,0.000000,0.000000,0.000000,0.000000,0.000000,1770884802.745215,0.000000
82.000000,-19614.438071,-14638.023333,-6560.460515,-8831.777731,2605.878127,-2476.483879,-8008.339466,-5191.416167,-935.621671,-18147.604841,-11853.532416,1512.833120,-905.826796,26579.129884,-25541.405444,-14720.210698,0.004625,-0.009375,1.006375,192.000000,0.000000,0.000000,0.000000,0.000000,0.000000,0.000000,0.000000,0.000000,0.000000,1770884802.745242,0.000000
84.000000,-19693.675005,-14720.501270,-6611.578955,-8900.308180,2538.733487,-2474.293408,-8054.205245,-5252.123505,-935.733430,-18180.216036,-11880.779193,1492.336570,-936.091058,26618.424251,-25585.304270,-14753.671259,0.004625,-0.009375,1.006375,192.000000,0.000000,0.000000,0.000000,0.000000,0.000000,0.000000,0.000000,0.000000,0.000000,1770884802.745268,0.000000
86.000000,-19616.494431,-14649.668592,-6560.616977,-8838.952641,2613.164796,-2494.454681,-8011.759283,-5196.445310,-929.117314,-18192.665958,-11890.144573,1478.120861,-957.213456,26584.136675,-25596.211922,-14767.104658,0.006313,-0.006688,1.005187,192.000000,0.000000,32.000000,127.500000,112.000000,15.500000,48.000000,0.000000,0.000000,0.000000,1770884802.745295,0.000000
88.000000,-19652.748961,-14690.527581,-6576.218495,-8875.587151,2604.179395,-2454.199189,-8032.948736,-5221.188691,-917.337944,-18134.573774,-11831.001858,1525.595966,-869.728729,26588.919948,-25526.340369,-14709.258343,0.006313,-0.006688,1.005187,192.000000,0.000000,0.000000,0.000000,0.000000,0.000000,0.000000,0.000000,0.000000,0.000000,1770884802.745322,0.000000
90.000000,-19673.066696,-14705.950285,-6589.786004,-8885.868953,2588.019084,-2478.428480,-8041.464751,-5238.690107,-921.897700,-18224.785414,-11905.321408,1463.927503,-942.729526,26591.758620,-25610.405279,-14778.526399,0.006313,-0.006688,1.005187,192.000000,0.000000,0.000000,0.000000,0.000000,0.000000,0.000000,0.000000,0.000000,0.000000,1770884802.745349,0.000000
92.000000,-19616.002693,-14650.674421,-6557.308919,-8835.733990,2640.389221,-2466.358538,-8015.872004,-5194.634818,-924.535206,-18154.645640,-11852.772457,1510.173262,-892.371046,26569.697448,-25533.984665,-14714.913334,0.006313,-0.006688,1.005187,192.000000,0.000000,0.000000,0.000000,0.000000,0.000000,0.000000,0.000000,0.000000,0.000000,1770884802.745376,0.000000
94.000000,-19702.593351,-14735.566346,-6606.393350,-8906.589020,2581.067691,-2448.566550,-8061.581321,-5258.024366,-930.883101,-18190.855466,-11880.712137,1483.552335,-920.310726,26603.247416,-25573.614308,-14742.987125,0.006313,-0.006688,1.005187,192.000000,0.000000,0.000000,0.000000,0.000000,0.000000,0.000000,0.000000,0.000000,0.000000,1770884802.745403,0.000000
96.000000,-19627.402082,-14658.944566,-6563.813277,-8846.596938,2633.191959,-2477.154431,-8022.331658,-5202.994371,-928.290299,-18208.558048,-11896.447765,1466.252085,-932.783000,26576.022992,-25586.578320,-14758.476884,0.005156,-0.006344,1.008594,192.000000,0.000000,16.000000,127.500000,104.000000,15.500000,80.000000,0.000000,0.000000,0.000000,1770884802.745430,0.000000
98.000000,-19661.957879,-14692.427479,-6584.801565,-8872.882589,2604.492319,-2449.527675,-8035.988574,-5222.216871,-919.461360,-18143.626230,-11835.651020,1519.583347,-878.200040,26580.292175,-25520.707729,-14703.066910,0.005156,-0.006344,1.008594,192.000000,0.000000,0.000000,0.000000,0.000000,0.000000,0.000000,0.000000,0.000000,0.000000,1770884802.745456,0.000000
100.000000,-19682.812057,-14713.125195,-6603.062940,-8888.484107,2575.882086,-2488.509117,-8043.878739,-5239.785342,-935.688726,-18231.133310,-11913.658609,1459.971244,-962.957855,26593.032669,-25609.779431,-14774.145457,0.005156,-0.006344,1.008594,192.000000,0.000000,0.000000,0.000000,0.000000,0.000000,0.000000,0.000000,0.000000,0.000000,1770884802.745483,0.000000
102.000000,-19617.410853,-14653.781313,-6562.829800,-8842.439513,2626.665250,-2478.651998,-8013.413312,-5191.594981,-934.817008,-18158.288975,-11853.174788,1510.262669,-903.233993,26564.869471,-25540.086691,-14721.261230,0.005156,-0.006344,1.008594,192.000000,0.000000,0.000000,0.000000,0.000000,0.000000,0.000000,0.000000,0.000000,0.000000,1770884802.745509,0.000000
104.000000,-19700.671101,-14727.832643,-6609.522594,-8911.953439,2554.312653,-2473.019358,-8056.507475,-5250.961214,-938.862674,-18197.113955,-11879.818068,1485.340474,-930.860750,26591.669213,-25577.481160,-14753.805370,0.005156,-0.006344,1.008594,192.000000,0.000000,0.000000,0.000000,0.000000,0.000000,0.000000,0.000000,0.000000,0.000000,1770884802.745542,0.000000
106.000000,-19618.975475,-14656.083543,-6565.512009,-8852.073115,2616.763427,-2487.771510,-8016.073169,-5191.393815,-926.725677,-18212.804879,-11889.362262,1472.756442,-941.142552,26559.169776,-25598.558855,-14773.027870,0.003578,-0.010172,1.005297,192.000000,0.000000,8.000000,127.500000,72.000000,15.500000,40.000000,0.000000,0.000000,0.000000,1770884802.745570,0.000000
108.000000,-19651.430208,-14687.957130,-6580.241809,-8867.808743,2584.934543,-2461.128230,-8032.121722,-5209.878708,-920.310726,-18144.341486,-11829.481939,1526.087704,-872.656807,26580.470989,-25531.704787,-14715.114500,0.003578,-0.010172,1.005297,192.000000,0.000000,0.000000,0.000000,0.000000,0.000000,0.000000,0.000000,0.000000,0.000000,1770884802.745597,0.000000
110.000000,-19666.383525,-14700.384700,-6593.027007,-8887.098299,2567.544886,-2478.406129,-8039.654260,-5224.452045,-928.379706,-18221.253839,-11898.414719,1474.723396,-950.262064,26619.430079,-25616.149678,-14786.997710,0.003578,-0.010172,1.005297,192.000000,0.000000,0.000000,0.000000,0.000000,0.000000,0.000000,0.000000,0.000000,0.000000,1770884802.745623,0.000000
112.000000,-19610.861791,-14645.354705,-6555.386669,-8835.555176,2623.692468,-2472.125289,-8011.513413,-5181.089661,-929.609052,-18157.506664,-11845.105808,1518.041076,-896.237897,26566.612907,-25545.786386,-14729.397265,0.003578,-0.010172,1.005297,192.000000,0.000000,0.000000,0.000000,0.000000,0.000000,0.000000,0.000000,0.000000,0.000000,1770884802.745650,0.000000
114.000000,-19693.026804,-14731.721846,-6605.387521,-8900.039959,2553.753859,-2453.215713,-8056.574530,-5247.854322,-931.821875,-18187.167428,-11871.771440,1494.437634,-924.356392,26618.133678,-25579.179892,-14753.335983,0.003578,-0.010172,1.005297,192.000000,0.000000,0.000000,0.000000,0.000000,0.000000,0.000000,0.000000,0.000000,0.000000,1770884802.745676,0.000000
116.000000,-19631.335989,-14666.566511,-6563.209780,-8846.909862,2619.982078,-2475.835678,-8022.354009,-5202.010894,-938.795619,-18207.105184,-11897.274780,1473.181125,-942.662471,26579.979250,-25596.502494,-14765.741201,0.003578,-0.010172,1.005297,192.000000,0.000000,0.000000,0.000000,0.000000,0.000000,0.000000,0.000000,0.000000,0.000000,1770884802.745703,0.000000
118.000000,-19661.466141,-14693.701529,-6581.135879,-8871.429726,2595.350456,-2439.759963,-8040.347164,-5222.552147,-932.023040,-18147.314268,-11841.753047,1520.052733,-870.667502,26591.780972,-25524.775746,-14707.738424,0.004000,-0.008000,1.010000,192.000000,0.000000,16.000000,127.500000,96.000000,15.500000,72.000000,0.000000,0.000000,0.000000,1770884802.745729,0.000000
120.000000,-19684.689603,-14715.762701,-6603.062940,-8885.980712,2584.889839,-2466.537352,-8051.701850,-5244.345098,-942.327194,-18228.629914,-11919.559469,1462.094660,-951.044375,26596.832466,-25614.272131,-14777.274701,0.004000,-0.008000,1.010000,192.000000,0.000000,0.000000,0.000000,0.000000,0.000000,0.000000,0.000000,0.000000,0.000000,1770884802.745756,0.000000
122.000000,-19612.292303,-14646.114665,-6557.331271,-8828.380266,2643.138485,-2457.015509,-8014.396788,-5190.320932,-931.263081,-18156.366725,-11854.046506,1511.089684,-892.728674,26575.620660,-25537.248020,-14715.405073,0.004000,-0.008000,1.010000,192.000000,0.000000,0.000000,0.000000,0.000000,0.000000,0.000000,0.000000,0.000000,0.000000,1770884802.745782,0.000000
124.000000,-19697.675967,-14726.603297,-6604.515803,-8893.535601,2572.954008,-2441.548102,-8057.334490,-5254.135162,-931.576005,-18181.132457,-11880.063937,1491.934239,-923.305860,26629.086033,-25566.148825,-14743.814140,0.004000,-0.008000,1.010000,192.000000,0.000000,0.000000,0.000000,0.000000,0.000000,0.000000,0.000000,0.000000,0.000000,1770884802.745808,0.000000
126.000000,-19628.229097,-14658.117552,-6565.959044,-8847.401601,2618.842139,-2471.544143,-8021.147015,-5205.609525,-935.509912,-18200.489068,-11896.358358,1476.288018,-933.587662,26575.240681,-25583.359669,-14760.801466,0.004000,-0.008000,1.010000,192.000000,0.000000,0.000000,0.000000,0.000000,0.000000,0.000000,0.000000,0.000000,0.000000,1770884802.745835,0.000000
128.000000,-19663.455446,-14691.265189,-6583.236943,-8873.307273,2585.158060,-2445.929044,-8038.559024,-5226.866034,-931.441895,-18147.783655,-11842.155378,1518.219890,-882.648037,26600.296986,-25526.586238,-14710.845317,0.002000,-0.004000,1.012000,192.000000,0.000000,8.000000,127.500000,112.000000,15.500000,80.000000,0.000000,0.000000,0.000000,1770884802.745861,0.000000
130.000000,-19680.107496,-14708.677198,-6598.145556,-8879.006967,2571.970531,-2480.820117,-8044.281071,-5240.008860,-943.422430,-18229.166356,-11919.045379,1459.010119,-954.263026,26597.212445,-25618.206038,-14788.808201,0.002000,-0.004000,1.012000,192.000000,0.000000,0.000000,0.000000,0.000000,0.000000,0.000000,0.000000,0.000000,0.000000,1770884802.745888,0.000000
132.000000,-19611.040605,-14643.655973,-6558.337099,-8827.597955,2617.009296,-2473.332283,-8010.552288,-5181.871972,-933.006517,-18152.924556,-11850.514931,1516.565861,-898.562479,26577.542910,-25542.053645,-14733.375875,0.002000,-0.004000,1.012000,192.000000,0.000000,0.000000,0.000000,0.000000,0.000000,0.000000,0.000000,0.000000,0.000000,1770884802.745914,0.000000
134.000000,-19696.848952,-14729.039637,-6611.690713,-8895.301389,2551.004595,-2457.797820,-8055.814571,-5243.808656,-935.286395,-18187.726222,-11875.235960,1496.538698,-917.092075,26601.615739,-25583.694945,-14759.482713,0.002000,-0.004000,1.012000,192.000000,0.000000,0.000000,0.000000,0.000000,0.000000,0.000000,0.000000,0.000000,0.000000,1770884802.745940,0.000000
136.000000,-19620.875373,-14653.222520,-6566.450783,-8842.506569,2614.908232,-2474.583980,-8017.123701,-5192.042016,-928.893796,-18204.981769,-11890.323387,1482.188878,-942.930692,26582.572053,-25598.536503,-14777.654681,0.002000,-0.004000,1.012000,192.000000,0.000000,0.000000,0.000000,0.000000,0.000000,0.000000,0.000000,0.000000,0.000000,1770884802.745974,0.000000
138.000000,-19657.711048,-14691.823982,-6584.980379,-8863.204284,2589.047264,-2448.633605,-8036.882643,-5214.103188,-925.228110,-18139.647620,-11831.806520,1530.021611,-875.406072,26607.158972,-25534.476404,-14716.723826,0.002000,-0.006000,1.006000,192.000000,0.000000,8.000000,127.500000,104.000000,15.500000,56.000000,0.000000,0.000000,0.000000,1770884802.746001,0.000000
140.000000,-19671.814999,-14710.107709,-6597.452652,-8880.012796,2573.870429,-2464.749213,-8045.689231,-5232.923357,-933.788828,-18229.054598,-11905.343760,1466.542657,-945.054107,26612.389280,-25617.826059,-14781.208608,0.002000,-0.006000,1.006000,192.000000,0.000000,0.000000,0.000000,0.000000,0.000000,0.000000,0.000000,0.000000,0.000000,1770884802.746028,0.000000
142.000000,-19608.358396,-14640.169101,-6559.030003,-8822.345295,2627.984003,-2452.478105,-8010.440530,-5181.603751,-928.871444,-18151.114065,-11845.955175,1518.085780,-888.459490,26581.834445,-25540.489023,-14715.852108,0.002000,-0.006000,1.006000,192.000000,0.000000,0.000000,0.000000,0.000000,0.000000,0.000000,0.000000,0.000000,0.000000,1770884802.746054,0.000000
144.000000,-19698.994720,-14732.973544,-6613.881184,-8895.480203,2560.213513,-2448.477143,-8057.289786,-5251.117677,-934.772305,-18184.820495,-11873.984262,1495.890498,-927.530340,26622.022882,-25573.793122,-14737.823872,0.002000,-0.006000,1.006000,192.000000,0.000000,0.000000,0.000000,0.000000,0.000000,0.000000,0.000000,0.000000,0.000000,1770884802.746079,0.000000
146.000000,-19629.905478,-14663.526674,-6572.105774,-8843.691211,2614.103569,-2470.448908,-8019.269469,-5202.592039,-937.856846,-18207.529868,-11897.654760,1476.198611,-941.611939,26587.690602,-25587.874721,-14758.521588,0.002000,-0.006000,1.006000,192.000000,0.000000,0.000000,0.000000,0.000000,0.000000,0.000000,0.000000,0.000000,0.000000,1770884802.746105,0.000000
148.000000,-19662.159045,-14692.807459,-6586.880277,-8869.395717,2589.471947,-2441.905730,-8036.301498,-5219.780531,-932.090096,-18144.632059,-11838.579099,1523.919585,-889.465319,26595.692527,-25527.994398,-14710.420634,0.004000,0.000000,1.006000,192.000000,0.000000,16.000000,0.000000,0.000000,15.500000,56.000000,0.000000,0.000000,0.000000,1770884802.746130,0.000000
150.000000,-19670.719763,-14705.704416,-6593.652856,-8871.697947,2580.240676,-2473.198172,-8043.476408,-5234.130351,-932.850055,-18222.103205,-11905.701388,1469.806012,-950.485581,26609.684719,-25609.690024,-14780.426297,0.004000,0.000000,1.006000,192.000000,0.000000,0.000000,0.000000,0.000000,0.000000,0.000000,0.000000,0.000000,0.000000,1770884802.746157,0.000000
152.000000,-19609.252466,-14648.774522,-6552.525646,-8828.514377,2629.056886,-2463.229294,-8011.669876,-5186.632894,-925.988069,-18153.304536,-11845.172864,1516.029419,-880.368159,26587.958823,-25537.426834,-14729.374913,0.004000,0.000000,1.006000,192.000000,0.000000,0.000000,0.000000,0.000000,0.000000,0.000000,0.000000,0.000000,0.000000,1770884802.746198,0.000000
154.000000,-19697.720670,-14729.799596,-6607.533289,-8896.195459,2555.452592,-2457.171971,-8055.993385,-5252.123505,-934.884064,-18189.492010,-11875.727698,1490.794300,-908.844281,26621.575847,-25573.770770,-14752.620727,0.004000,0.000000,1.006000,192.000000,0.000000,0.000000,0.000000,0.000000,0.000000,0.000000,0.000000,0.000000,0.000000,1770884802.746224,0.000000
156.000000,-19622.104719,-14652.864892,-6564.081498,-8841.590147,2612.427188,-2482.474146,-8016.117873,-5198.345208,-932.090096,-18203.998292,-11893.474983,1477.427957,-930.614880,26580.202768,-25593.417954,-14771.575006,0.004000,0.000000,1.006000,192.000000,0.000000,0.000000,0.000000,0.000000,0.000000,0.000000,0.000000,0.000000,0.000000,1770884802.746250,0.000000
158.000000,-19656.101722,-14688.158296,-6583.885143,-8871.317967,2593.092929,-2447.806591,-8035.452132,-5221.725133,-928.670279,-18139.602916,-11834.868709,1522.779646,-878.982351,26611.226989,-25529.000226,-14718.757834,0.004000,-0.002000,1.008000,192.000000,0.000000,16.000000,127.500000,120.000000,15.500000,64.000000,0.000000,0.000000,0.000000,1770884802.746276,0.000000
160.000000,-19675.480685,-14706.442023,-6593.809318,-8878.269360,2575.256237,-2480.887172,-8039.542501,-5233.884482,-934.593491,-18224.830118,-11906.774271,1465.693291,-960.767384,26589.858721,-25618.183687,-14783.935521,0.004000,-0.002000,1.008000,192.000000,0.000000,0.000000,0.000000,0.000000,0.000000,0.000000,0.000000,0.000000,0.000000,1770884802.746302,0.000000
162.000000,-19615.041568,-14650.540310,-6554.067916,-8830.995420,2622.306659,-2464.704509,-8007.713617,-5181.000254,-928.647927,-18157.238443,-11838.780265,1518.689277,-885.129080,26587.780009,-25539.393787,-14730.090169,0.004000,-0.002000,1.008000,192.000000,0.000000,0.000000,0.000000,0.000000,0.000000,0.000000,0.000000,0.000000,0.000000,1770884803.224866,0.000000
164.000000,-19707.041348,-14744.685858,-6611.780120,-8901.001084,2553.172714,-2459.161277,-8057.870931,-5257.487924,-938.907378,-18196.979844,-11869.938596,1490.950762,-920.198967,26617.798402,-25580.051610,-14751.100809,0.004000,-0.002000,1.008000,192.000000,0.000000,0.000000,0.000000,0.000000,0.000000,0.000000,0.000000,0.000000,0.000000,1770884803.224951,0.000000
166.000000,-19644.456463,-14678.502343,-6571.122297,-8844.495874,2612.360133,-2484.172879,-8022.130492,-5212.002124,-950.172657,-18220.605638,-11901.231039,1467.794355,-947.356337,26577.475855,-25597.731840,-14765.093001,0.004000,-0.002000,1.008000,192.000000,0.000000,0.000000,0.000000,0.000000,0.000000,0.000000,0.000000,0.000000,0.000000,1770884803.225016,0.000000
168.000000,-19677.917025,-14709.101881,-6586.902629,-8869.574531,2589.628409,-2451.137000,-8037.597899,-5231.358735,-947.602206,-18164.413353,-11848.972660,1512.497844,-891.812252,26593.837332,-25527.972046,-14707.894886,0.002000,-0.006000,1.002000,192.000000,0.000000,8.000000,127.500000,104.000000,15.500000,40.000000,0.000000,0.000000,0.000000,1770884803.225094,0.000000
170.000000,-19694.725537,-14728.994933,-6595.508050,-8888.461755,2568.953045,-2483.167050,-8044.102257,-5245.887368,-954.352433,-18245.416074,-11918.106606,1455.567951,-968.322273,26586.394201,-25612.551047,-14778.012309,0.002000,-0.006000,1.002000,192.000000,0.000000,0.000000,0.000000,0.000000,0.000000,0.000000,0.000000,0.000000,0.000000,1770884803.225153,0.000000
172.000000,-19623.222306,-14655.569453,-6554.872579,-8840.070229,2618.618622,-2466.112669,-8011.267544,-5187.906943,-943.377726,-18171.878835,-11850.783151,1506.172300,-894.919145,26572.156140,-25534.789328,-14728.749064,0.002000,-0.006000,1.002000,192.000000,0.000000,0.000000,0.000000,0.000000,0.000000,0.000000,0.000000,0.000000,0.000000,1770884803.225211,0.000000
174.000000,-19706.102575,-14740.863710,-6610.014333,-8898.788261,2560.302920,-2466.582056,-8054.942853,-5251.363546,-944.808238,-18200.690234,-11876.577065,1488.894402,-940.136724,26603.806210,-25579.649279,-14755.168826,0.002000,-0.006000,1.002000,192.000000,0.000000,0.000000,0.000000,0.000000,0.000000,0.000000,0.000000,0.000000,0.000000,1770884803.225229,0.000000
176.000000,-19629.301981,-14666.544159,-6568.417736,-8832.515339,2606.056941,-2490.833699,-8015.514376,-5198.345208,-938.952081,-18219.085719,-11892.357396,1475.505707,-935.129933,26592.295062,-25593.507361,-14771.619710,0.002000,-0.006000,1.002000,192.000000,0.000000,0.000000,0.000000,0.000000,0.000000,0.000000,0.000000,0.000000,0.000000,1770884803.225250,0.000000
178.000000,-19670.339783,-14704.519773,-6589.607190,-8864.768906,2586.052130,-2453.618044,-8036.122684,-5221.255746,-934.951119,-18147.962469,-11837.506215,1526.937071,-885.464357,26596.787762,-25533.515279,-14714.823927,0.003000,-0.004000,1.005000,192.000000,0.000000,16.000000,127.500000,120.000000,15.500000,64.000000,0.000000,0.000000,0.000000,1770884803.225265,0.000000
180.000000,-19689.897560,-14725.150433,-6607.600344,-8887.210058,2569.176563,-2482.116518,-8047.499722,-5242.847531,-939.332061,-18238.956420,-11908.495356,1460.507686,-960.253294,26603.560341,-25622.899905,-14789.970492,0.003000,-0.004000,1.005000,192.000000,0.000000,0.000000,0.000000,0.000000,0.000000,0.000000,0.000000,0.000000,0.000000,1770884803.225282,0.000000
182.000000,-19627.111510,-14660.196264,-6563.880332,-8834.884624,2626.262918,-2465.442117,-8013.569774,-5192.801975,-943.131857,-18169.151922,-11850.626689,1507.289887,-901.736427,26575.374791,-25548.714465,-14725.552765,0.003000,-0.004000,1.005000,192.000000,0.000000,0.000000,0.000000,0.000000,0.000000,0.000000,0.000000,0.000000,0.000000,1770884803.225302,0.000000
184.000000,-19711.645807,-14745.401114,-6613.568260,-8898.497689,2554.625577,-2460.860009,-8058.161504,-5255.789191,-947.088116,-18206.077004,-11876.264140,1484.312294,-924.691668,26605.102611,-25583.449076,-14752.330154,0.003000,-0.004000,1.005000,192.000000,0.000000,0.000000,0.000000,0.000000,0.000000,0.000000,0.000000,0.000000,0.000000,1770884803.225324,0.000000
186.000000,-19644.635277,-14674.255511,-6570.630559,-8842.394810,2619.110360,-2485.670446,-8021.504643,-5209.543432,-946.842247,-18220.493879,-11897.699463,1471.303579,-945.836418,26588.718783,-25597.061288,-14772.491428,0.003000,-0.004000,1.005000,192.000000,0.000000,0.000000,0.000000,0.000000,0.000000,0.000000,0.000000,0.000000,0.000000,1770884803.225346,0.000000
188.000000,-19681.940339,-14709.034825,-6586.410890,-8868.076964,2595.596325,-2459.943588,-8040.660088,-5235.493807,-947.065764,-18156.702001,-11849.419695,1512.229623,-898.629534,26602.666271,-25527.681473,-14711.538221,0.003000,-0.004000,1.005000,192.000000,0.000000,0.000000,127.500000,112.000000,15.500000,48.000000,0.000000,0.000000,0.000000,1770884803.225368,0.000000
190.000000,-19698.502981,-14728.771416,-6597.139728,-8884.013758,2579.301903,-2477.802632,-8047.902053,-5252.257616,-948.742145,-18240.364580,-11918.397178,1453.131611,-948.898607,26606.019033,-25609.421803,-14783.421431,0.003000,-0.004000,1.005000,192.000000,0.000000,0.000000,0.000000,0.000000,0.000000,0.000000,0.000000,0.000000,0.000000,1770884803.225387,0.000000
192.000000,-19636.342780,-14665.605386,-6559.454687,-8833.543519,2632.364945,-2469.688948,-8016.184928,-5201.072121,-943.914168,-18170.180103,-11853.890044,1501.254916,-885.240839,26570.949146,-25529.648427,-14720.590677,0.003000,-0.004000,1.005000,192.000000,0.000000,0.000000,0.000000,0.000000,0.000000,0.000000,0.000000,0.000000,0.000000,1770884803.225408,0.000000
194.000000,-19716.049101,-14746.742218,-6613.434149,-8899.950552,2564.683862,-2455.115611,-8063.235350,-5265.579255,-946.931654,-18205.272341,-11883.439050,1480.758367,-920.646002,26612.568094,-25569.322773,-14745.423465,0.003000,-0.004000,1.005000,192.000000,0.000000,0.000000,0.000000,0.000000,0.000000,0.000000,0.000000,0.000000,0.000000,1770884803.225429,0.000000
196.000000,-19634.778158,-14670.858046,-6568.775364,-8839.958470,2620.674982,-2486.698626,-8020.610573,-5207.420016,-945.344680,-18220.471528,-11902.952123,1465.983864,-942.148381,26574.190149,-25589.707564,-14763.573082,0.003000,-0.004000,1.005000,192.000000,0.000000,0.000000,0.000000,0.000000,0.000000,0.000000,0.000000,0.000000,0.000000,1770884803.225451,0.000000
198.000000,-19669.155141,-14701.815212,-6588.914286,-8869.418069,2590.857755,-2462.379928,-8038.581376,-5226.530758,-936.493389,-18148.633021,-11835.651020,1520.477417,-885.933743,26602.800382,-25526.407424,-14716.030921,0.003000,-0.004000,1.005000,192.000000,0.000000,0.000000,127.500000,104.000000,15.500000,72.000000,0.000000,0.000000,0.000000,1770884803.225473,0.000000
200.000000,-19690.456353,-14720.322456,-6602.437091,-8882.024453,2562.091060,-2496.265173,-8047.723239,-5245.954424,-946.819895,-18238.554089,-11910.305847,1457.490201,-959.493334,26603.113306,-25615.456774,-14787.780021,0.003000,-0.004000,1.005000,192.000000,0.000000,0.000000,0.000000,0.000000,0.000000,0.000000,0.000000,0.000000,0.000000,1770884803.225500,0.000000
202.000000,-19627.826766,-14657.044668,-6562.315710,-8828.894356,2617.322220,-2478.964922,-8015.022637,-5195.148909,-946.529322,-18171.297690,-11854.940576,1505.345286,-891.566383,26573.407838,-25548.781520,-14733.577041,0.003000,-0.004000,1.005000,192.000000,0.000000,0.000000,0.000000,0.000000,0.000000,0.000000,0.000000,0.000000,0.000000,1770884803.225533,0.000000
204.000000,-19708.293046,-14739.187329,-6615.512862,-8896.083700,2562.627502,-2458.557780,-8061.022527,-5259.656043,-944.674128,-18195.526981,-11879.460440,1487.352131,-923.954061,26618.468954,-25578.017602,-14752.710134,0.003000,-0.004000,1.005000,192.000000,0.000000,0.000000,0.000000,0.000000,0.000000,0.000000,0.000000,0.000000,0.000000,1770884803.225556,0.000000
