Sample_index,EXG Channel 0,EXG Channel 1,EXG Channel 2,EXG Channel 3,EXG Channel 4,EXG Channel 5,EXG Channel 6,EXG Channel 7,EXG Channel 8,EXG Channel 9,EXG Channel 10,EXG Channel 11,EXG Channel 12,EXG Channel 13,EXG Channel 14,EXG Channel 15,Accel Channel 0,Accel Channel 1,Accel Channel 2,Not Used,Digital Channel 0 (D11),Digital Channel 1 (D12),Digital Channel 2 (D13),Digital Channel 3 (D17),Not Used,Digital Channel 4 (D18),Analog Channel 0,Analog Channel 1,Analog Channel 2,Timestamp,Marker Channel
90.000000,4382.707701,11547.939366,5764.380785,10122.859195,3960.393841,13648.019868,-12874.649510,-17212.184335,8239.478855,10362.738116,12022.601011,-393.748330,2607.643915,16545.543557,10086.962293,5551.234549,0.008000,-0.018000,1.006000,192.000000,0.000000,0.000000,0.000000,0.000000,0.000000,0.000000,0.000000,0.000000,0.000000,1772009921.140367,101.000000
92.000000,4377.164468,11535.735313,5757.496447,10098.160517,3952.861303,13626.092807,-12884.953664,-17222.376731,8237.690716,10352.277500,12012.967409,-403.828967,2592.422377,16535.306458,10072.992453,5541.131561,0.008000,-0.018000,1.006000,192.000000,0.000000,0.000000,0.000000,0.000000,0.000000,0.000000,0.000000,0.000000,0.000000,1772009921.140426,0.000000
94.000000,4384.004102,11544.251328,5764.090212,10116.131320,3958.963330,13623.678818,-12874.582455,-17215.268876,8237.757771,10350.511712,12014.397921,-406.041790,2592.198860,16535.932307,10077.105174,5539.164607,0.010000,-0.014000,1.016000,192.000000,0.000000,40.000000,127.500000,72.000000,15.500000,96.000000,0.000000,0.000000,0.000000,1772009921.140474,0.000000
96.000000,4375.264570,11534.014229,5754.210741,10107.190622,3953.911835,13633.357124,-12883.880780,-17223.293152,8238.450675,10353.864474,12018.980029,-396.452891,2597.116243,16556.384153,10081.575523,5539.611642,0.010000,-0.014000,1.016000,192.000000,0.000000,0.000000,0.000000,0.000000,0.000000,0.000000,0.000000,0.000000,0.000000,1772009921.140511,0.000000
98.000000,4383.847640,11540.675049,5757.541151,10122.635677,3952.213103,13634.094731,-12881.489144,-17219.202783,8233.332125,10345.348459,12007.044197,-404.007781,2581.604133,16539.329772,10066.197522,5540.103381,0.010000,-0.014000,1.016000,192.000000,0.000000,0.000000,0.000000,0.000000,0.000000,0.000000,0.000000,0.000000,0.000000,1772009921.140553,0.000000
100.000000,4386.932181,11546.017116,5760.178657,10115.639581,3959.566827,13620.370760,-12877.778754,-17215.604152,8240.954070,10358.312471,12020.097616,-394.485938,2601.117206,16539.754455,10079.943845,5547.993546,0.010000,-0.014000,1.016000,192.000000,0.000000,0.000000,0.000000,0.000000,0.000000,0.000000,0.000000,0.000000,0.000000,1772009921.140590,0.000000
102.000000,4376.784489,11542.284375,5752.355546,10109.582258,3947.608643,13626.830414,-12885.333644,-17222.510841,8234.829692,10355.317337,12012.967409,-400.230336,2585.023950,16537.519281,10066.376336,5536.214177,0.010000,-0.014000,1.016000,192.000000,0.000000,0.000000,0.000000,0.000000,0.000000,0.000000,0.000000,0.000000,0.000000,1772009921.140602,0.000000
104.000000,4385.412262,11540.943270,5762.145610,10119.931116,3962.517257,13647.997516,-12876.862332,-17215.358283,8237.042515,10361.195846,12016.521337,-396.184670,2591.483604,16552.271432,10071.651348,5542.986756,0.010000,-0.016000,1.012000,192.000000,0.000000,40.000000,127.500000,64.000000,15.500000,80.000000,0.000000,0.000000,0.000000,1772009921.140613,0.000000
106.000000,4381.612466,11534.215395,5750.500351,10107.123567,3958.963330,13630.116121,-12887.211190,-17222.466138,8240.305870,10360.748811,12018.711808,-397.861051,2604.984058,16549.119836,10077.753374,5543.031459,0.010000,-0.016000,1.012000,192.000000,0.000000,0.000000,0.000000,0.000000,0.000000,0.000000,0.000000,0.000000,0.000000,1772009921.140625,0.000000
108.000000,4384.808765,11539.870386,5768.068822,10115.125491,3965.981777,13635.905222,-12882.942007,-17217.772271,8238.473027,10358.714802,12012.319209,-402.063179,2592.109453,16534.255926,10071.785459,5538.002317,0.010000,-0.016000,1.012000,192.000000,0.000000,0.000000,0.000000,0.000000,0.000000,0.000000,0.000000,0.000000,0.000000,1772009921.140636,0.000000
110.000000,4387.558030,11547.402924,5762.614997,10118.746474,3962.539609,13646.008211,-12878.114030,-17216.028835,8244.150370,10373.913988,12026.534918,-387.109862,2606.146348,16572.343298,10085.800002,5545.825427,0.010000,-0.016000,1.012000,192.000000,0.000000,0.000000,0.000000,0.000000,0.000000,0.000000,0.000000,0.000000,0.000000,1772009921.140648,0.000000
112.000000,4377.320931,11530.728523,5753.361375,10108.375264,3953.978891,13631.658391,-12886.630045,-17228.858737,8233.309774,10359.988852,12010.374607,-405.460644,2586.700331,16551.667935,10073.394784,5541.265671,0.010000,-0.016000,1.012000,192.000000,0.000000,0.000000,0.000000,0.000000,0.000000,0.000000,0.000000,0.000000,0.000000,1772009921.140660,0.000000
114.000000,4384.674655,11538.864558,5765.386613,10116.354837,3968.708690,13639.861481,-12878.449306,-17220.879164,8239.590614,10343.001526,12013.816776,-404.968906,2595.193993,16538.368647,10078.826258,5541.980927,0.016000,-0.012000,1.014000,192.000000,0.000000,64.000000,127.500000,80.000000,15.500000,88.000000,0.000000,0.000000,0.000000,1772009921.140671,0.000000
116.000000,4377.231524,11531.644944,5758.725793,10116.377189,3955.632920,13632.574812,-12887.144135,-17226.891783,8244.306832,10361.128791,12022.980991,-399.828005,2606.928659,16557.166464,10085.263560,5547.278291,0.016000,-0.012000,1.014000,192.000000,0.000000,0.000000,0.000000,0.000000,0.000000,0.000000,0.000000,0.000000,0.000000,1772009921.140682,0.000000
118.000000,4379.109070,11535.780017,5761.519761,10118.165328,3955.118830,13639.325039,-12884.193705,-17224.030760,8244.105666,10351.338726,12013.794424,-404.365409,2593.271743,16535.842900,10072.456011,5537.622337,0.016000,-0.012000,1.014000,192.000000,0.000000,0.000000,0.000000,0.000000,0.000000,0.000000,0.000000,0.000000,0.000000,1772009921.140694,0.000000
120.000000,4378.907904,11538.529281,5761.385651,10115.706636,3965.646501,13622.404769,-12880.237446,-17222.130862,8239.009468,10361.486418,12019.784691,-396.676409,2604.939354,16555.624194,10085.151802,5547.390049,0.016000,-0.012000,1.014000,192.000000,0.000000,0.000000,0.000000,0.000000,0.000000,0.000000,0.000000,0.000000,0.000000,1772009921.140706,0.000000
122.000000,4379.891381,11534.304802,5754.769534,10109.492851,3947.608643,13626.361028,-12884.372519,-17222.108510,8237.355439,10356.367869,12015.716674,-401.526737,2592.467081,16540.983801,10073.148915,5531.185035,0.016000,-0.012000,1.014000,192.000000,0.000000,0.000000,0.000000,0.000000,0.000000,0.000000,0.000000,0.000000,0.000000,1772009921.140718,0.000000
124.000000,4388.429748,11548.721677,5760.335119,10124.915555,3958.136315,13653.451342,-12873.688385,-17211.849059,8239.814131,10359.832389,12018.421235,-395.536470,2592.601191,16560.385115,10071.450182,5546.741849,0.006000,-0.014000,1.012000,192.000000,0.000000,24.000000,127.500000,72.000000,15.500000,80.000000,0.000000,0.000000,0.000000,1772009921.140730,0.000000
126.000000,4381.567762,11537.255232,5755.216569,10117.986514,3957.644577,13644.644754,-12883.746670,-17223.002580,8235.790817,10367.275520,12019.382360,-391.401397,2595.238697,16550.036258,10080.010900,5550.005203,0.006000,-0.014000,1.012000,192.000000,0.000000,0.000000,0.000000,0.000000,0.000000,0.000000,0.000000,0.000000,0.000000,1772009921.140742,0.000000
128.000000,4386.418091,11541.457360,5761.229189,10119.797006,3965.557094,13652.490217,-12882.182048,-17221.214440,8243.636280,10359.854741,12014.308514,-399.358618,2592.869412,16548.985726,10072.098383,5541.913872,0.006000,-0.014000,1.012000,192.000000,0.000000,0.000000,0.000000,0.000000,0.000000,0.000000,0.000000,0.000000,0.000000,1772009921.140754,0.000000
130.000000,4389.390873,11545.815950,5764.850171,10125.362590,3973.804888,13654.479522,-12878.806934,-17221.907344,8245.491474,10368.370756,12021.729293,-392.518984,2611.063732,16555.490083,10087.632845,5554.967291,0.006000,-0.014000,1.012000,192.000000,0.000000,0.000000,0.000000,0.000000,0.000000,0.000000,0.000000,0.000000,0.000000,1772009921.140765,0.000000
132.000000,4379.645512,11529.543880,5759.373994,10107.436491,3965.065356,13638.922708,-12887.099431,-17229.328123,8246.944338,10362.961634,12016.409578,-404.499519,2604.537023,16542.838996,10080.659101,5544.640785,0.006000,-0.014000,1.012000,192.000000,0.000000,0.000000,0.000000,0.000000,0.000000,0.000000,0.000000,0.000000,0.000000,1772009921.140777,0.000000
134.000000,4387.356864,11541.658526,5767.152401,10111.728026,3973.581371,13655.887682,-12876.281187,-17218.666341,8244.709163,10362.268729,12016.297819,-402.420807,2604.000581,16548.426932,10080.972026,5546.831256,0.004000,-0.014000,1.010000,192.000000,0.000000,16.000000,127.500000,72.000000,15.500000,72.000000,0.000000,0.000000,0.000000,1772009921.140789,0.000000
136.000000,4378.438518,11532.717828,5750.768572,10119.014695,3971.770879,13644.398885,-12884.216056,-17228.434053,8247.749001,10367.834314,12018.108310,-396.341133,2613.075389,16565.816589,10087.342273,5551.011032,0.004000,-0.014000,1.010000,192.000000,0.000000,0.000000,0.000000,0.000000,0.000000,0.000000,0.000000,0.000000,0.000000,1772009921.140800,0.000000
138.000000,4375.733957,11528.605107,5762.994976,10115.393712,3974.251923,13641.493159,-12883.746670,-17232.077388,8240.752905,10347.673040,12006.016017,-408.947517,2592.757653,16522.700074,10077.820430,5546.607738,0.004000,-0.014000,1.010000,192.000000,0.000000,0.000000,0.000000,0.000000,0.000000,0.000000,0.000000,0.000000,0.000000,1772009921.140812,0.000000
140.000000,4390.195535,11546.419447,5767.733546,10118.344142,3973.313150,13644.957679,-12877.890513,-17219.985094,8245.647937,10364.414497,12019.762340,-400.990296,2610.370828,16547.868138,10091.276180,5553.246206,0.004000,-0.014000,1.010000,192.000000,0.000000,0.000000,0.000000,0.000000,0.000000,0.000000,0.000000,0.000000,0.000000,1772009921.140873,0.000000
142.000000,4376.985654,11534.416560,5754.546017,10120.109930,3953.554208,13638.028638,-12884.841905,-17226.243583,8240.842311,10373.511657,12014.733197,-392.496633,2596.110415,16541.430836,10073.305377,5545.646613,0.004000,-0.014000,1.010000,192.000000,0.000000,0.000000,0.000000,0.000000,0.000000,0.000000,0.000000,0.000000,0.000000,1772009921.140891,0.000000
144.000000,4390.195535,11543.200796,5765.833648,10121.182814,3963.098402,13653.898377,-12870.961472,-17216.677036,8242.965727,10366.739078,12020.455244,-391.803729,2598.725569,16542.950755,10073.908874,5542.606776,0.005000,-0.016000,1.013000,192.000000,0.000000,24.000000,127.500000,56.000000,15.500000,96.000000,0.000000,0.000000,0.000000,1772009921.140902,0.000000
146.000000,4372.694120,11524.358275,5756.557674,10115.259602,3956.571693,13629.356161,-12880.773888,-17231.630353,8233.868567,10365.241511,12019.360008,-400.655019,2598.770273,16553.612537,10080.480287,5549.893445,0.005000,-0.016000,1.013000,192.000000,0.000000,0.000000,0.000000,0.000000,0.000000,0.000000,0.000000,0.000000,0.000000,1772009921.140913,0.000000
148.000000,4386.149870,11535.355334,5762.816162,10123.127416,3969.982740,13657.117028,-12880.125687,-17225.841251,8233.667402,10351.539892,12009.569944,-406.555880,2587.996732,16545.588260,10073.350081,5547.054773,0.005000,-0.016000,1.013000,192.000000,0.000000,0.000000,0.000000,0.000000,0.000000,0.000000,0.000000,0.000000,0.000000,1772009921.140924,0.000000
150.000000,4392.251896,11546.933537,5767.510029,10127.396599,3981.002150,13662.101467,-12878.225789,-17223.024931,8248.888939,10380.083070,12024.478558,-387.959229,2610.124959,16582.133363,10093.198430,5563.125677,0.005000,-0.016000,1.013000,192.000000,0.000000,0.000000,0.000000,0.000000,0.000000,0.000000,0.000000,0.000000,0.000000,1772009921.140935,0.000000
152.000000,4373.007044,11523.106578,5756.334157,10110.431625,3969.043966,13650.433856,-12888.127612,-17239.073484,8241.088181,10366.224988,12010.888697,-403.717208,2600.558412,16545.878833,10085.956465,5551.726288,0.005000,-0.016000,1.013000,192.000000,0.000000,0.000000,0.000000,0.000000,0.000000,0.000000,0.000000,0.000000,0.000000,1772009921.140946,0.000000
154.000000,4378.505573,11536.875252,5764.716061,10103.860212,3969.870981,13638.498025,-12876.460001,-17229.372827,8235.701410,10359.653575,12009.659351,-407.718171,2597.004485,16536.625211,10083.877752,5550.049907,0.006500,-0.015000,1.014500,192.000000,0.000000,32.000000,127.500000,72.000000,15.500000,96.000000,0.000000,0.000000,0.000000,1772009921.140956,0.000000
156.000000,4366.435631,11517.809214,5755.887122,10119.081750,3967.099365,13638.006286,-12883.970187,-17236.771254,8233.354477,10368.571921,12012.699188,-403.381932,2599.127900,16535.105292,10088.973950,5551.458067,0.006500,-0.015000,1.014500,192.000000,0.000000,0.000000,0.000000,0.000000,0.000000,0.000000,0.000000,0.000000,0.000000,1772009921.140967,0.000000
158.000000,4383.378253,11533.142511,5763.866694,10118.344142,3973.089632,13653.451342,-12880.930350,-17224.589553,8239.054172,10347.203654,12008.854688,-408.947517,2592.735302,16532.758359,10075.182924,5544.461971,0.006500,-0.015000,1.014500,192.000000,0.000000,0.000000,0.000000,0.000000,0.000000,0.000000,0.000000,0.000000,0.000000,1772009921.140978,0.000000
160.000000,4394.576477,11549.503988,5766.057165,10121.942773,3987.081824,13658.994574,-12876.549408,-17217.034664,8257.114381,10375.880942,12026.780787,-390.797900,2616.316392,16559.222824,10091.969084,5558.565922,0.006500,-0.015000,1.014500,192.000000,0.000000,0.000000,0.000000,0.000000,0.000000,0.000000,0.000000,0.000000,0.000000,1772009921.140988,0.000000
162.000000,4376.940951,11530.549709,5759.284587,10119.014695,3956.795210,13649.338621,-12883.120821,-17230.780987,8244.843274,10375.299796,12017.482462,-397.838700,2597.786796,16557.345278,10079.094479,5552.910930,0.006500,-0.015000,1.014500,192.000000,0.000000,0.000000,0.000000,0.000000,0.000000,0.000000,0.000000,0.000000,0.000000,1772009921.140998,0.000000
164.000000,4376.069233,11530.169729,5763.218494,10128.201262,3967.389937,13661.877949,-12873.241350,-17226.198879,8240.015297,10367.052003,12012.028636,-398.621011,2596.713912,16548.650449,10078.826258,5552.106267,0.004250,-0.014500,1.016250,192.000000,0.000000,8.000000,127.500000,72.000000,15.500000,104.000000,0.000000,0.000000,0.000000,1772009921.141008,0.000000
166.000000,4374.191686,11527.554575,5761.363299,10110.476328,3963.456030,13642.588394,-12880.796239,-17228.098777,8239.970593,10367.454334,12014.844956,-393.234240,2601.720703,16551.287955,10083.855401,5551.927454,0.004250,-0.014500,1.016250,192.000000,0.000000,0.000000,0.000000,0.000000,0.000000,0.000000,0.000000,0.000000,0.000000,1772009921.141018,0.000000
168.000000,4376.113936,11536.003534,5761.206837,10125.407293,3957.935149,13641.046124,-12878.896341,-17222.868469,8238.942413,10361.262901,12008.519412,-401.817310,2582.386444,16526.455167,10071.181961,5540.438657,0.004250,-0.014500,1.016250,192.000000,0.000000,0.000000,0.000000,0.000000,0.000000,0.000000,0.000000,0.000000,0.000000,1772009921.141029,0.000000
170.000000,4385.613428,11542.999630,5768.538209,10125.876680,3967.233475,13651.260871,-12873.509571,-17214.732434,8247.883111,10377.713785,12025.149110,-382.259534,2607.934488,16538.659220,10087.945770,5553.425020,0.004250,-0.014500,1.016250,192.000000,0.000000,0.000000,0.000000,0.000000,0.000000,0.000000,0.000000,0.000000,0.000000,1772009921.141039,0.000000
172.000000,4359.439535,11508.265019,5756.222398,10107.302380,3958.829219,13637.603955,-12885.512458,-17238.872318,8234.047381,10356.971366,12007.491232,-399.917412,2590.701293,16549.946851,10077.172229,5547.658270,0.004250,-0.014500,1.016250,192.000000,0.000000,0.000000,0.000000,0.000000,0.000000,0.000000,0.000000,0.000000,0.000000,1772009921.141050,0.000000
174.000000,4357.986672,11511.729540,5760.379822,10124.334410,3973.648426,13649.204510,-12878.471658,-17239.006429,8230.828730,10343.269747,11997.857630,-411.741485,2594.143461,16535.552327,10083.251903,5549.066430,0.005125,-0.015250,1.019125,192.000000,0.000000,24.000000,127.500000,64.000000,15.500000,120.000000,0.000000,0.000000,0.000000,1772009921.141060,0.000000
176.000000,4363.418146,11521.452549,5753.786058,10120.087578,3963.925417,13647.617536,-12886.831210,-17237.888841,8227.945355,10362.335785,12003.154993,-400.967944,2597.518575,16558.820493,10084.391842,5557.604797,0.005125,-0.015250,1.019125,192.000000,0.000000,0.000000,0.000000,0.000000,0.000000,0.000000,0.000000,0.000000,0.000000,1772009921.141070,0.000000
178.000000,4383.892344,11532.159034,5762.100907,10117.606535,3972.284969,13652.713734,-12885.311292,-17226.802376,8235.723762,10361.531122,12003.914953,-402.621973,2592.310618,16533.495967,10074.020633,5548.552340,0.005125,-0.015250,1.019125,192.000000,0.000000,0.000000,0.000000,0.000000,0.000000,0.000000,0.000000,0.000000,0.000000,1772009921.141081,0.000000
180.000000,4385.322855,11545.346563,5764.671357,10133.476273,3974.676606,13676.250121,-12877.287016,-17214.955952,8246.519655,10383.614645,12022.086921,-387.825118,2607.755674,16550.304478,10086.559962,5559.594102,0.005125,-0.015250,1.019125,192.000000,0.000000,0.000000,0.000000,0.000000,0.000000,0.000000,0.000000,0.000000,0.000000,1772009921.141091,0.000000
182.000000,4370.034262,11530.125026,5756.110639,10118.701770,3951.855475,13654.434819,-12882.852600,-17223.360207,8237.556605,10377.132640,12012.118043,-385.098205,2593.361150,16550.729162,10072.008976,5552.106267,0.005125,-0.015250,1.019125,192.000000,0.000000,0.000000,0.000000,0.000000,0.000000,0.000000,0.000000,0.000000,0.000000,1772009921.141101,0.000000
184.000000,4373.878762,11530.080322,5767.062994,10124.222651,3979.012844,13649.048048,-12873.800143,-17223.471966,8235.410838,10361.732288,12012.922706,-399.313915,2593.919944,16546.236461,10078.781555,5552.709765,0.004563,-0.014625,1.018562,192.000000,0.000000,16.000000,127.500000,72.000000,15.500000,104.000000,0.000000,0.000000,0.000000,1772009921.141111,0.000000
186.000000,4368.670806,11527.286354,5754.367203,10116.757168,3970.385071,13658.301670,-12882.159696,-17227.204708,8239.478855,10371.008262,12017.951848,-391.021418,2605.051113,16542.838996,10086.179982,5555.257863,0.004563,-0.014625,1.018562,192.000000,0.000000,0.000000,0.000000,0.000000,0.000000,0.000000,0.000000,0.000000,0.000000,1772009921.141121,0.000000
188.000000,4380.003140,11533.298973,5768.694671,10116.980686,3973.223743,13654.390115,-12877.219960,-17218.688693,8240.842311,10367.141410,12009.771110,-396.966982,2594.724607,16547.689324,10077.172229,5545.311337,0.004563,-0.014625,1.018562,192.000000,0.000000,0.000000,0.000000,0.000000,0.000000,0.000000,0.000000,0.000000,0.000000,1772009921.141131,0.000000
190.000000,4373.476431,11541.032677,5764.090212,10137.991326,3964.841838,13644.465941,-12870.760306,-17214.061882,8238.428323,10385.603951,12023.316267,-379.443214,2602.614773,16542.347257,10089.510392,5556.353099,0.004563,-0.014625,1.018562,192.000000,0.000000,0.000000,0.000000,0.000000,0.000000,0.000000,0.000000,0.000000,0.000000,1772009921.141141,0.000000
192.000000,4368.201419,11524.470034,5758.010537,10112.666799,3947.876864,13630.004362,-12881.511495,-17223.226097,8232.996849,10370.807096,12013.101520,-388.808595,2586.700331,16528.645638,10071.181961,5547.032421,0.004563,-0.014625,1.018562,192.000000,0.000000,0.000000,0.000000,0.000000,0.000000,0.000000,0.000000,0.000000,0.000000,1772009921.141151,0.000000
194.000000,4366.547390,11524.604145,5761.430354,10119.417026,3964.908894,13636.151092,-12875.431821,-17225.908306,8237.757771,10363.676889,12016.610744,-401.303220,2592.578839,16537.809853,10077.753374,5544.149046,0.005281,-0.013312,1.017281,192.000000,0.000000,24.000000,127.500000,80.000000,15.500000,96.000000,0.000000,0.000000,0.000000,1772009921.141162,0.000000
196.000000,4354.902131,11516.646924,5751.886159,10111.817433,3956.147010,13640.733199,-12882.606731,-17238.179414,8225.374904,10361.642881,12008.832337,-405.684162,2590.790700,16545.655316,10080.502639,5550.049907,0.005281,-0.013312,1.017281,192.000000,0.000000,0.000000,0.000000,0.000000,0.000000,0.000000,0.000000,0.000000,0.000000,1772009921.141172,0.000000
198.000000,4374.035224,11520.625534,5760.089250,10111.906840,3963.612493,13653.719563,-12880.639777,-17229.641048,8233.130960,10355.429096,12005.948961,-412.970831,2587.728511,16546.079999,10069.706746,5542.852645,0.005281,-0.013312,1.017281,192.000000,0.000000,0.000000,0.000000,0.000000,0.000000,0.000000,0.000000,0.000000,0.000000,1772009921.141182,0.000000
200.000000,4382.774756,11546.218282,5767.241808,10118.433549,3973.380205,13659.352202,-12875.968263,-17217.749920,8242.853968,10372.125849,12020.477595,-389.501499,2608.962668,16543.710714,10088.459860,5557.291872,0.005281,-0.013312,1.017281,192.000000,0.000000,0.000000,0.000000,0.000000,0.000000,0.000000,0.000000,0.000000,0.000000,1772009921.141192,0.000000
202.000000,4375.219867,11534.461264,5758.301110,10123.619154,3963.880713,13657.474656,-12882.114992,-17225.148347,8243.166893,10379.479573,12018.801215,-392.161356,2599.686694,16561.681516,10080.681453,5552.352137,0.005281,-0.013312,1.017281,192.000000,0.000000,0.000000,0.000000,0.000000,0.000000,0.000000,0.000000,0.000000,0.000000,1772009921.141202,0.000000
204.000000,4385.412262,11539.602165,5766.660662,10127.620116,3969.625112,13662.816723,-12874.649510,-17221.572068,8244.597405,10374.562189,12022.466901,-393.144833,2600.580764,16549.455112,10079.541514,5552.732116,0.005281,-0.013312,1.017281,192.000000,0.000000,0.000000,0.000000,0.000000,0.000000,0.000000,0.000000,0.000000,0.000000,1772009921.141212,0.000000
206.000000,4376.270399,11534.304802,5757.608206,10127.776578,3963.992472,13650.970298,-12881.332681,-17227.830556,8241.803436,10376.015052,12022.332790,-385.433481,2602.659476,16543.107217,10083.318959,5555.526084,0.008000,-0.012000,1.012000,192.000000,0.000000,32.000000,127.500000,80.000000,15.500000,80.000000,0.000000,0.000000,0.000000,1772009921.141222,0.000000
208.000000,4381.523059,11538.126950,5762.458535,10121.853366,3971.636769,13652.043182,-12881.958530,-17228.858737,8240.998774,10370.069488,12010.352255,-396.095263,2591.058921,16540.290897,10077.261636,5552.374488,0.008000,-0.012000,1.012000,192.000000,0.000000,0.000000,0.000000,0.000000,0.000000,0.000000,0.000000,0.000000,0.000000,1772009921.141232,0.000000
210.000000,4385.255800,11537.456398,5769.409927,10123.328581,3977.872905,13657.184083,-12877.510533,-17223.673132,8250.364155,10374.226913,12023.316267,-387.199269,2612.985982,16551.913804,10094.204258,5562.008090,0.008000,-0.012000,1.012000,192.000000,0.000000,0.000000,0.000000,0.000000,0.000000,0.000000,0.000000,0.000000,0.000000,1772009921.621777,0.000000
212.000000,4377.008006,11529.163901,5763.509067,10104.195488,3976.017711,13653.943080,-12887.769984,-17232.546774,8247.637242,10364.928587,12018.354180,-398.509252,2606.995715,16534.568850,10087.297569,5553.246206,0.008000,-0.012000,1.012000,192.000000,0.000000,0.000000,0.000000,0.000000,0.000000,0.000000,0.000000,0.000000,0.000000,1772009921.621805,0.000000
214.000000,4385.479317,11541.680877,5759.821029,10136.024372,3979.169307,13660.536845,-12877.957568,-17225.662437,8248.196035,10376.350328,12020.768168,-393.189537,2602.391255,16552.137321,10086.917590,5552.419192,0.008000,-0.012000,1.012000,192.000000,0.000000,0.000000,0.000000,0.000000,0.000000,0.000000,0.000000,0.000000,0.000000,1772009921.621817,0.000000
216.000000,4372.783527,11527.554575,5757.585854,10120.556965,3967.188772,13651.015002,-12884.461926,-17232.613830,8246.452599,10371.835276,12017.258944,-389.657961,2608.850909,16543.017810,10086.448203,5562.611587,0.006000,-0.016000,1.012000,192.000000,0.000000,24.000000,127.500000,64.000000,15.500000,80.000000,0.000000,0.000000,0.000000,1772009921.621828,0.000000
218.000000,4376.918599,11528.470996,5763.889046,10114.991381,3969.446298,13645.874100,-12881.824420,-17230.021027,8236.573128,10351.428133,12009.614648,-405.952383,2589.449595,16542.190795,10077.172229,5545.087820,0.006000,-0.016000,1.012000,192.000000,0.000000,0.000000,0.000000,0.000000,0.000000,0.000000,0.000000,0.000000,0.000000,1772009921.621881,0.000000
220.000000,4387.647437,11539.825683,5769.387575,10119.864061,3969.312187,13658.055801,-12872.973129,-17216.855850,8239.277689,10373.288139,12022.623363,-387.869822,2600.938392,16551.667935,10091.164421,5552.955634,0.006000,-0.016000,1.012000,192.000000,0.000000,0.000000,0.000000,0.000000,0.000000,0.000000,0.000000,0.000000,0.000000,1772009921.621922,0.000000
222.000000,4375.532791,11531.711999,5759.306939,10109.492851,3952.794248,13642.722504,-12880.796239,-17226.601210,8239.680021,10364.481552,12020.365837,-395.178842,2589.807223,16533.719484,10076.993415,5546.563035,0.006000,-0.016000,1.012000,192.000000,0.000000,0.000000,0.000000,0.000000,0.000000,0.000000,0.000000,0.000000,0.000000,1772009921.621972,0.000000
224.000000,4379.712567,11534.997706,5761.028023,10125.809625,3966.406461,13649.852711,-12871.520266,-17221.862641,8233.890919,10363.051041,12016.364874,-394.105958,2586.834441,16529.629115,10074.244150,5549.446410,0.006000,-0.016000,1.012000,192.000000,0.000000,0.000000,0.000000,0.000000,0.000000,0.000000,0.000000,0.000000,0.000000,1772009921.622014,0.000000
226.000000,4367.217942,11520.312610,5753.160209,10115.147843,3960.371490,13635.122911,-12882.114992,-17235.385446,8230.806378,10366.962596,12015.895488,-388.942705,2594.188165,16534.837071,10081.664930,5555.079049,0.010000,-0.024000,1.012000,192.000000,0.000000,40.000000,127.500000,32.000000,15.500000,80.000000,0.000000,0.000000,0.000000,1772009921.622053,0.000000
228.000000,4374.348149,11521.586659,5761.922093,10104.195488,3965.534743,13637.156920,-12883.433745,-17234.558431,8230.135826,10351.584596,12005.904258,-409.394551,2583.101700,16521.537783,10074.132392,5542.271500,0.010000,-0.024000,1.012000,192.000000,0.000000,0.000000,0.000000,0.000000,0.000000,0.000000,0.000000,0.000000,0.000000,1772009921.622066,0.000000
230.000000,4386.194573,11542.664354,5770.885142,10124.423817,3968.887504,13661.140342,-12873.263702,-17217.191126,8241.423457,10377.490267,12026.177290,-395.067083,2603.084159,16544.716542,10085.755299,5551.234549,0.010000,-0.024000,1.012000,192.000000,0.000000,0.000000,0.000000,0.000000,0.000000,0.000000,0.000000,0.000000,0.000000,1772009921.622077,0.000000
232.000000,4375.644550,11528.158072,5758.792848,10119.238212,3953.621263,13645.605879,-12882.629083,-17223.762539,8244.798570,10374.696299,12026.445511,-384.673522,2593.830537,16540.715580,10074.042985,5546.853608,0.010000,-0.024000,1.012000,192.000000,0.000000,0.000000,0.000000,0.000000,0.000000,0.000000,0.000000,0.000000,0.000000,1772009921.622088,0.000000
234.000000,4380.651341,11531.667296,5764.112564,10129.475311,3968.507525,13641.917842,-12873.353109,-17219.158080,8236.103742,10366.247340,12020.589354,-388.406263,2587.192069,16540.425007,10074.087688,5549.848741,0.010000,-0.024000,1.012000,192.000000,0.000000,0.000000,0.000000,0.000000,0.000000,0.000000,0.000000,0.000000,0.000000,1772009921.622098,0.000000
236.000000,4370.481297,11525.431159,5756.892950,10117.405369,3961.243208,13647.081095,-12881.846771,-17227.584687,8235.813169,10373.623416,12021.371665,-383.421824,2597.116243,16530.366722,10082.201371,5553.469724,0.008000,-0.024000,1.008000,192.000000,0.000000,32.000000,127.500000,32.000000,15.500000,64.000000,0.000000,0.000000,0.000000,1772009921.622108,0.000000
238.000000,4371.509477,11528.515700,5757.921130,10126.636639,3953.755373,13647.371667,-12882.316158,-17230.356303,8230.918137,10360.234721,12007.670046,-397.816348,2583.973418,16530.299667,10067.985662,5548.686451,0.008000,-0.024000,1.008000,192.000000,0.000000,0.000000,0.000000,0.000000,0.000000,0.000000,0.000000,0.000000,0.000000,1772009921.622120,0.000000
240.000000,4381.970093,11536.562328,5764.872523,10126.390770,3962.919588,13657.072324,-12876.974091,-17221.929696,8238.450675,10374.092802,12020.164671,-384.092377,2597.250354,16559.066362,10082.514296,5560.734041,0.008000,-0.024000,1.008000,192.000000,0.000000,0.000000,0.000000,0.000000,0.000000,0.000000,0.000000,0.000000,0.000000,1772009921.622130,0.000000
242.000000,4377.298579,11527.331057,5761.139782,10101.401520,3954.425926,13645.874100,-12885.691272,-17227.517632,8240.104704,10375.433907,12021.014037,-394.530641,2594.501089,16545.252984,10073.573598,5548.485285,0.008000,-0.024000,1.008000,192.000000,0.000000,0.000000,0.000000,0.000000,0.000000,0.000000,0.000000,0.000000,0.000000,1772009921.622141,0.000000
244.000000,4381.523059,11534.729485,5767.062994,10130.369381,3969.669815,13640.420275,-12873.666033,-17219.359245,8237.690716,10362.693413,12020.701113,-391.110824,2592.824709,16538.547461,10077.462802,5546.853608,0.008000,-0.024000,1.008000,192.000000,0.000000,0.000000,0.000000,0.000000,0.000000,0.000000,0.000000,0.000000,0.000000,1772009921.622151,0.000000
246.000000,4372.649416,11526.906374,5761.340947,10121.004000,3970.429775,13645.538824,-12883.053766,-17232.770292,8235.209672,10370.583578,12021.036389,-384.539412,2599.306714,16531.707827,10089.979779,5553.045041,0.008000,-0.018000,1.016000,192.000000,0.000000,32.000000,127.500000,56.000000,15.500000,96.000000,0.000000,0.000000,0.000000,1772009921.622161,0.000000
248.000000,4371.531829,11533.477787,5762.682052,10119.908764,3971.592065,13645.024734,-12884.171353,-17234.871356,8233.242718,10365.777953,12007.424177,-396.162319,2586.990903,16530.947868,10077.462802,5545.780724,0.008000,-0.018000,1.016000,192.000000,0.000000,0.000000,0.000000,0.000000,0.000000,0.000000,0.000000,0.000000,0.000000,1772009921.622172,0.000000
250.000000,4384.562896,11538.462226,5767.197104,10125.966087,3969.021615,13661.408563,-12877.130553,-17223.740187,8235.321431,10376.819715,12019.225898,-385.142909,2599.686694,16548.762208,10087.789308,5555.526084,0.008000,-0.018000,1.016000,192.000000,0.000000,0.000000,0.000000,0.000000,0.000000,0.000000,0.000000,0.000000,0.000000,1772009921.622184,0.000000
252.000000,4376.538620,11520.513775,5753.406078,10113.315000,3969.133373,13658.636947,-12885.758327,-17232.971458,8243.099838,10369.868323,12016.253116,-392.831909,2599.373770,16559.692211,10079.295645,5552.441544,0.008000,-0.018000,1.016000,192.000000,0.000000,0.000000,0.000000,0.000000,0.000000,0.000000,0.000000,0.000000,0.000000,1772009921.622194,0.000000
254.000000,4384.004102,11526.794616,5775.757822,10116.198375,3981.359778,13652.467865,-12877.242312,-17229.015199,8238.897710,10364.459200,12014.643790,-400.342095,2600.245488,16550.237423,10084.995340,5554.699070,0.008000,-0.018000,1.016000,192.000000,0.000000,0.000000,0.000000,0.000000,0.000000,0.000000,0.000000,0.000000,0.000000,1772009921.622204,0.000000
0.000000,4383.154736,11527.174595,5765.140744,10108.107043,3971.189734,13647.103446,-12884.998367,-17233.865527,8244.686812,10376.551494,12025.707904,-396.363484,2611.220194,16551.131493,10092.863154,5553.313262,0.012000,-0.018000,1.016000,192.000000,0.000000,48.000000,127.500000,56.000000,15.500000,96.000000,0.000000,0.000000,0.000000,1772009921.622214,0.000000
2.000000,4378.572628,11527.129892,5758.524628,10124.133244,3961.287911,13635.234670,-12884.573684,-17234.044341,8235.142617,10360.145314,12011.603953,-396.341133,2589.427243,16518.855574,10074.467668,5541.578596,0.012000,-0.018000,1.016000,192.000000,0.000000,0.000000,0.000000,0.000000,0.000000,0.000000,0.000000,0.000000,0.000000,1772009921.622224,0.000000
4.000000,4387.625085,11537.523453,5764.850171,10124.401465,3971.301493,13650.970298,-12877.666995,-17224.298981,8236.439018,10373.712823,12020.052912,-385.791109,2594.948124,16535.619382,10083.386014,5560.890503,0.012000,-0.018000,1.016000,192.000000,0.000000,0.000000,0.000000,0.000000,0.000000,0.000000,0.000000,0.000000,0.000000,1772009921.622234,0.000000
6.000000,4376.583323,11519.954982,5760.089250,10108.978761,3961.578484,13646.567005,-12885.490106,-17232.524423,8239.456503,10365.710898,12018.018903,-395.469415,2593.361150,16549.723333,10077.172229,5550.139314,0.012000,-0.018000,1.016000,192.000000,0.000000,0.000000,0.000000,0.000000,0.000000,0.000000,0.000000,0.000000,0.000000,1772009921.622245,0.000000
8.000000,4380.249009,11529.119197,5765.811296,10126.636639,3971.189734,13659.598072,-12875.811800,-17225.550678,8235.924928,10365.710898,12017.616572,-392.317819,2591.438900,16545.163577,10077.283988,5553.737945,0.012000,-0.018000,1.016000,192.000000,0.000000,0.000000,0.000000,0.000000,0.000000,0.000000,0.000000,0.000000,0.000000,1772009921.622255,0.000000
10.000000,4371.017739,11522.480729,5758.703441,10111.973895,3961.623187,13636.195795,-12883.925484,-17233.552603,8231.253413,10368.080183,12017.102482,-389.635609,2597.362113,16537.943964,10086.738776,5555.883712,0.008000,-0.018000,1.010000,192.000000,0.000000,32.000000,127.500000,56.000000,15.500000,72.000000,0.000000,0.000000,0.000000,1772009921.622265,0.000000
12.000000,4376.270399,11528.225127,5761.877389,10112.175061,3959.209199,13638.654487,-12883.478449,-17233.262030,8227.319506,10357.932491,12005.479575,-400.833833,2582.632313,16514.385225,10070.287892,5539.164607,0.008000,-0.018000,1.010000,192.000000,0.000000,0.000000,0.000000,0.000000,0.000000,0.000000,0.000000,0.000000,0.000000,1772009921.622279,0.000000
14.000000,4382.238314,11533.410732,5765.788944,10117.315962,3964.104231,13648.623365,-12876.303539,-17225.997713,8235.701410,10367.968424,12019.024732,-390.306162,2598.211479,16532.378379,10081.888447,5549.066430,0.008000,-0.018000,1.010000,192.000000,0.000000,0.000000,0.000000,0.000000,0.000000,0.000000,0.000000,0.000000,0.000000,1772009921.622293,0.000000
16.000000,4372.515306,11517.764511,5755.082459,10114.589049,3958.382184,13644.756513,-12884.283112,-17234.670190,8230.225233,10366.761430,12011.514546,-392.250763,2585.582743,16537.161653,10073.215970,5545.020764,0.008000,-0.018000,1.010000,192.000000,0.000000,0.000000,0.000000,0.000000,0.000000,0.000000,0.000000,0.000000,0.000000,1772009921.622305,0.000000
18.000000,4385.054634,11531.890813,5766.280683,10120.132282,3973.983702,13652.758438,-12876.661167,-17227.294115,8232.438056,10364.570959,12011.380435,-396.743464,2592.556488,16549.097484,10076.635787,5549.625224,0.008000,-0.018000,1.010000,192.000000,0.000000,0.000000,0.000000,0.000000,0.000000,0.000000,0.000000,0.000000,0.000000,1772009921.622318,0.000000
20.000000,4391.670751,11532.203738,5762.525590,10118.075921,3967.032309,13648.846882,-12882.360862,-17228.702274,8243.390410,10380.373642,12022.288087,-388.473319,2605.252278,16538.167481,10087.208162,5555.123753,0.007000,-0.018000,1.013000,192.000000,0.000000,24.000000,127.500000,56.000000,15.500000,96.000000,0.000000,0.000000,0.000000,1772009921.622331,0.000000
22.000000,4409.038056,11551.403886,5760.670395,10120.534613,3962.249036,13651.931423,-12880.639777,-17220.029798,8251.280576,10382.362948,12015.694322,-392.474281,2599.150252,16539.799159,10074.333557,5544.573730,0.007000,-0.018000,1.013000,192.000000,0.000000,0.000000,0.000000,0.000000,0.000000,0.000000,0.000000,0.000000,0.000000,1772009921.622344,0.000000
24.000000,4409.574498,11559.830494,5771.980378,10133.498625,3956.124658,13650.858539,-12873.800143,-17215.067710,8255.281538,10404.401768,12033.732180,-367.507382,2604.849947,16575.338432,10077.865133,5551.234549,0.007000,-0.018000,1.013000,192.000000,0.000000,0.000000,0.000000,0.000000,0.000000,0.000000,0.000000,0.000000,0.000000,1772009921.622357,0.000000
26.000000,4388.899134,11536.741142,5757.831723,10119.864061,3960.706766,13643.728333,-12885.914789,-17229.886917,8253.649861,10400.266695,12023.740950,-380.113766,2596.780967,16542.928403,10070.176133,5548.172360,0.007000,-0.018000,1.013000,192.000000,0.000000,0.000000,0.000000,0.000000,0.000000,0.000000,0.000000,0.000000,0.000000,1772009921.622369,0.000000
28.000000,4396.051692,11545.793598,5767.398270,10134.169177,3977.358815,13653.496045,-12879.097507,-17225.595382,8243.189245,10381.737099,12015.068473,-379.219696,2595.193993,16538.458054,10074.378261,5549.424058,0.007000,-0.018000,1.013000,192.000000,0.000000,0.000000,0.000000,0.000000,0.000000,0.000000,0.000000,0.000000,0.000000,1772009921.622382,0.000000
30.000000,4383.422957,11525.095883,5761.497410,10118.567660,3973.693129,13651.283223,-12887.121783,-17237.240641,8243.479817,10387.190925,12020.388188,-383.354769,2609.163834,16552.092618,10087.632845,5554.073221,0.007500,-0.017000,1.014500,192.000000,0.000000,32.000000,127.500000,64.000000,15.500000,96.000000,0.000000,0.000000,0.000000,1772009921.622396,0.000000
32.000000,4387.468623,11528.091017,5764.783116,10118.232384,3969.647464,13635.212318,-12885.423051,-17234.357266,8236.886053,10367.543741,12006.172479,-397.257554,2591.416549,16536.781673,10074.333557,5540.952747,0.007500,-0.017000,1.014500,192.000000,0.000000,0.000000,0.000000,0.000000,0.000000,0.000000,0.000000,0.000000,0.000000,1772009921.622406,0.000000
34.000000,4392.341303,11542.642002,5766.101869,10125.228480,3970.250961,13650.657374,-12878.561065,-17223.874298,8242.026954,10384.866343,12021.438720,-377.789185,2604.939354,16547.845787,10082.424889,5546.384221,0.007500,-0.017000,1.014500,192.000000,0.000000,0.000000,0.000000,0.000000,0.000000,0.000000,0.000000,0.000000,0.000000,1772009921.622416,0.000000
36.000000,4382.327721,11530.661467,5753.026098,10115.974857,3963.433679,13640.576737,-12889.222847,-17234.044341,8230.716971,10375.232741,12011.045159,-384.762929,2589.695464,16539.888566,10070.936092,5547.233587,0.007500,-0.017000,1.014500,192.000000,0.000000,0.000000,0.000000,0.000000,0.000000,0.000000,0.000000,0.000000,0.000000,1772009921.622426,0.000000
38.000000,4383.199439,11539.646869,5761.922093,10126.949564,3970.742699,13660.425086,-12879.388080,-17228.545812,8235.187320,10372.774049,12011.961581,-393.435406,2591.036569,16550.483292,10077.373395,5549.334651,0.007500,-0.017000,1.014500,192.000000,0.000000,0.000000,0.000000,0.000000,0.000000,0.000000,0.000000,0.000000,0.000000,1772009921.622436,0.000000
40.000000,4380.874858,11529.767398,5759.306939,10118.277087,3969.066318,13646.790522,-12886.562990,-17235.072522,8234.561471,10379.300759,12017.080130,-385.612295,2598.636162,16530.634943,10083.073089,5552.329785,0.008750,-0.014500,1.014250,192.000000,0.000000,40.000000,127.500000,80.000000,15.500000,88.000000,0.000000,0.000000,0.000000,1772009921.622446,0.000000
42.000000,4385.211096,11535.332982,5760.066898,10119.573488,3966.808792,13650.076228,-12886.808859,-17232.814995,8236.975460,10372.774049,12008.720578,-392.161356,2587.393235,16532.065455,10073.461839,5537.935261,0.008750,-0.014500,1.014250,192.000000,0.000000,0.000000,0.000000,0.000000,0.000000,0.000000,0.000000,0.000000,0.000000,1772009921.622456,0.000000
44.000000,4389.055596,11534.863595,5761.832686,10127.128378,3979.303417,13656.915862,-12883.523152,-17230.937449,8236.953108,10379.993663,12014.174403,-387.735711,2599.016142,16548.181063,10085.509430,5556.196637,0.008750,-0.014500,1.014250,192.000000,0.000000,0.000000,0.000000,0.000000,0.000000,0.000000,0.000000,0.000000,0.000000,1772009921.622467,0.000000
46.000000,4387.982713,11531.510834,5752.936691,10111.057474,3961.019690,13649.673897,-12891.748594,-17237.419455,8236.595480,10372.081145,12009.994627,-394.754159,2593.964648,16550.058609,10076.144049,5548.865265,0.008750,-0.014500,1.014250,192.000000,0.000000,0.000000,0.000000,0.000000,0.000000,0.000000,0.000000,0.000000,0.000000,1772009921.622477,0.000000
48.000000,4385.680483,11527.353409,5760.670395,10117.360665,3983.438490,13654.412467,-12883.411394,-17236.257164,8244.999736,10372.639939,12009.815813,-400.632668,2601.944220,16535.462920,10076.524028,5548.597044,0.008750,-0.014500,1.014250,192.000000,0.000000,0.000000,0.000000,0.000000,0.000000,0.000000,0.000000,0.000000,0.000000,1772009921.622487,0.000000
50.000000,4372.537657,11522.301915,5759.731622,10115.796043,3970.586237,13652.177292,-12887.769984,-17242.985039,8229.062942,10374.919817,12013.436796,-395.044732,2600.603116,16549.790388,10087.968122,5552.799172,0.009375,-0.014250,1.013125,192.000000,0.000000,40.000000,127.500000,72.000000,15.500000,80.000000,0.000000,0.000000,0.000000,1772009921.622497,0.000000
52.000000,4378.058538,11528.292182,5756.267101,10116.533651,3969.580408,13657.832284,-12889.535772,-17241.688638,8228.772369,10374.562189,12004.294932,-401.146758,2581.693540,16544.984763,10073.975929,5544.529026,0.009375,-0.014250,1.013125,192.000000,0.000000,0.000000,0.000000,0.000000,0.000000,0.000000,0.000000,0.000000,0.000000,1772009921.622507,0.000000
54.000000,4381.858335,11537.098770,5757.652909,10128.357724,3972.642597,13662.995537,-12883.254931,-17234.737245,8233.086256,10384.396956,12011.983932,-390.686141,2595.372807,16548.941022,10082.246075,5555.794305,0.009375,-0.014250,1.013125,192.000000,0.000000,0.000000,0.000000,0.000000,0.000000,0.000000,0.000000,0.000000,0.000000,1772009921.622517,0.000000
56.000000,4374.012872,11524.179462,5751.819104,10103.904915,3960.125620,13635.279374,-12892.016815,-17240.861623,8229.644088,10376.193866,12006.775976,-397.101092,2587.437938,16539.396827,10070.757278,5547.837084,0.009375,-0.014250,1.013125,192.000000,0.000000,0.000000,0.000000,0.000000,0.000000,0.000000,0.000000,0.000000,0.000000,1772009921.622527,0.000000
58.000000,4380.785451,11530.460302,5757.876427,10123.105064,3964.484211,13647.550481,-12880.930350,-17232.166795,8232.125131,10368.527218,12009.972275,-397.905755,2588.555525,16533.004228,10071.874866,5541.690355,0.009375,-0.014250,1.013125,192.000000,0.000000,0.000000,0.000000,0.000000,0.000000,0.000000,0.000000,0.000000,0.000000,1772009921.622539,0.000000
60.000000,4374.214038,11524.000648,5755.171866,10112.890317,3961.578484,13626.182214,-12885.043071,-17235.474853,8231.543986,10376.640901,12019.471767,-388.026284,2595.261049,16539.173310,10078.133354,5545.288985,0.010688,-0.015125,1.014563,192.000000,0.000000,48.000000,127.500000,64.000000,15.500000,96.000000,0.000000,0.000000,0.000000,1772009921.622549,0.000000
62.000000,4369.855448,11520.558479,5752.891988,10113.315000,3958.471591,13651.909071,-12888.038205,-17240.258126,8223.385599,10362.581654,12005.501927,-400.431502,2579.927752,16529.919687,10066.108115,5537.130599,0.010688,-0.015125,1.014563,192.000000,0.000000,0.000000,0.000000,0.000000,0.000000,0.000000,0.000000,0.000000,0.000000,1772009921.622559,0.000000
64.000000,4378.818498,11529.476825,5757.764668,10117.941811,3969.289836,13644.510644,-12883.634911,-17235.474853,8223.430303,10372.505828,12011.514546,-393.636572,2588.488470,16547.421103,10080.457935,5547.993546,0.010688,-0.015125,1.014563,192.000000,0.000000,0.000000,0.000000,0.000000,0.000000,0.000000,0.000000,0.000000,0.000000,1772009921.622569,0.000000
66.000000,4377.767966,11518.904450,5752.109677,10111.616267,3961.466725,13637.067513,-12892.709719,-17241.018086,8227.788893,10369.533046,12008.944095,-396.408188,2587.549697,16527.617458,10075.473496,5535.230700,0.010688,-0.015125,1.014563,192.000000,0.000000,0.000000,0.000000,0.000000,0.000000,0.000000,0.000000,0.000000,0.000000,1772009921.622579,0.000000
68.000000,4379.757271,11527.800444,5754.322500,10129.140035,3960.416193,13656.111199,-12883.076117,-17231.071559,8224.123207,10371.567055,12007.088900,-394.776511,2581.246505,16533.674781,10068.432697,5547.613567,0.010688,-0.015125,1.014563,192.000000,0.000000,0.000000,0.000000,0.000000,0.000000,0.000000,0.000000,0.000000,0.000000,1772009921.622588,0.000000
70.000000,4377.656207,11524.470034,5752.042622,10106.855346,3959.298606,13636.687533,-12888.976978,-17234.245507,8225.687829,10377.602026,12016.655447,-385.925220,2586.365054,16560.966261,10076.434621,5549.826390,0.015344,-0.013562,1.012281,192.000000,0.000000,80.000000,127.500000,80.000000,15.500000,72.000000,0.000000,0.000000,0.000000,1772009921.622598,0.000000
72.000000,4376.628027,11528.001610,5746.097058,10112.130357,3959.633882,13641.180234,-12889.424013,-17234.714894,8228.995887,10376.886770,12008.385302,-400.431502,2580.017159,16558.082886,10065.795191,5537.197654,0.015344,-0.013562,1.012281,192.000000,0.000000,0.000000,0.000000,0.000000,0.000000,0.000000,0.000000,0.000000,0.000000,1772009921.622608,0.000000
74.000000,4382.037149,11531.354371,5751.305014,10132.783369,3964.193638,13650.478560,-12885.691272,-17234.737245,8230.538157,10373.198733,12009.882869,-386.171089,2590.075444,16536.133472,10073.171267,5550.921625,0.015344,-0.013562,1.012281,192.000000,0.000000,0.000000,0.000000,0.000000,0.000000,0.000000,0.000000,0.000000,0.000000,1772009922.101158,0.000000
76.000000,4371.487125,11521.139624,5748.466343,10119.551136,3958.784516,13643.907147,-12895.548391,-17243.834405,8224.167910,10372.930512,12005.233706,-391.893136,2578.631351,16517.559173,10069.215008,5544.484323,0.015344,-0.013562,1.012281,192.000000,0.000000,0.000000,0.000000,0.000000,0.000000,0.000000,0.000000,0.000000,0.000000,1772009922.101217,0.000000
78.000000,4383.490012,11537.076418,5754.791886,10120.691075,3963.925417,13658.569891,-12887.859391,-17238.067655,8227.163044,10381.871209,12002.462089,-393.614220,2586.119185,16558.619327,10070.220836,5549.111134,0.015344,-0.013562,1.012281,192.000000,0.000000,0.000000,0.000000,0.000000,0.000000,0.000000,0.000000,0.000000,0.000000,1772009922.101263,0.000000
80.000000,4366.256817,11513.361217,5746.834665,10111.929192,3963.523086,13637.425141,-12893.089699,-17247.433036,8231.365172,10379.881904,12009.189964,-398.509252,2595.864546,16561.525054,10081.933151,5551.033384,0.015344,-0.013562,1.012281,192.000000,0.000000,0.000000,0.000000,0.000000,0.000000,0.000000,0.000000,0.000000,0.000000,1772009922.101305,0.000000
82.000000,4361.764116,11511.886002,5745.828837,10117.383017,3957.733984,13647.326964,-12892.173277,-17248.327106,8216.501262,10355.294985,11990.258037,-403.516043,2572.171697,16527.192775,10062.710650,5539.566939,0.016000,-0.018000,1.016000,192.000000,0.000000,64.000000,127.500000,56.000000,15.500000,96.000000,0.000000,0.000000,0.000000,1772009922.101348,0.000000
84.000000,4370.324835,11514.992895,5754.702479,10120.981648,3964.663025,13655.373592,-12884.171353,-17241.509824,8224.972573,10360.502942,12001.679778,-395.402359,2586.275647,16537.899260,10075.585255,5548.172360,0.016000,-0.018000,1.016000,192.000000,0.000000,0.000000,0.000000,0.000000,0.000000,0.000000,0.000000,0.000000,0.000000,1772009922.101389,0.000000
86.000000,4363.284035,11503.638208,5750.656813,10106.229497,3947.765106,13642.454284,-12892.553257,-17248.237699,8226.850119,10355.987889,12002.842069,-402.823139,2582.475851,16544.604784,10069.438525,5540.215139,0.016000,-0.018000,1.016000,192.000000,0.000000,0.000000,0.000000,0.000000,0.000000,0.000000,0.000000,0.000000,0.000000,1772009922.101431,0.000000
88.000000,4360.244198,11507.236839,5755.507142,10112.264468,3959.030385,13627.098635,-12884.417222,-17247.075408,8220.591631,10346.756619,11998.617589,-411.897947,2579.570124,16528.980914,10068.231531,5543.277328,0.016000,-0.018000,1.016000,192.000000,0.000000,0.000000,0.000000,0.000000,0.000000,0.000000,0.000000,0.000000,0.000000,1772009922.101442,0.000000
90.000000,4358.836038,11498.206734,5749.449819,10106.162442,3946.379298,13640.867310,-12888.820516,-17248.662382,8220.256355,10354.490322,12007.714749,-407.405246,2586.655627,16556.205339,10074.378261,5545.221930,0.016000,-0.018000,1.016000,192.000000,0.000000,0.000000,0.000000,0.000000,0.000000,0.000000,0.000000,0.000000,0.000000,1772009922.101463,0.000000
92.000000,4356.757326,11503.727615,5748.600453,10114.231421,3944.077068,13628.305629,-12888.731109,-17246.360153,8214.310791,10342.733305,11994.996607,-412.635554,2564.728566,16509.490193,10058.910854,5534.917776,0.012000,-0.020000,1.012000,192.000000,0.000000,48.000000,127.500000,48.000000,15.500000,80.000000,0.000000,0.000000,0.000000,1772009922.101474,0.000000
94.000000,4369.050785,11514.434101,5758.412869,10116.041913,3964.595969,13635.525243,-12882.539676,-17240.459292,8223.452654,10357.820732,12005.278409,-398.933935,2589.002560,16524.868193,10074.288854,5546.607738,0.012000,-0.020000,1.012000,192.000000,0.000000,0.000000,0.000000,0.000000,0.000000,0.000000,0.000000,0.000000,0.000000,1772009922.101484,0.000000
96.000000,4368.961378,11514.232935,5752.109677,10102.161479,3962.204333,13641.359048,-12893.872010,-17245.711952,8227.766541,10361.844046,12004.630209,-403.918374,2589.047264,16536.736970,10072.299549,5540.326898,0.012000,-0.020000,1.012000,192.000000,0.000000,0.000000,0.000000,0.000000,0.000000,0.000000,0.000000,0.000000,0.000000,1772009922.101495,0.000000
98.000000,4385.546373,11529.298011,5765.833648,10114.566697,3971.793231,13658.145208,-12883.478449,-17230.423359,8245.782047,10373.288139,12013.034464,-396.385836,2601.720703,16551.802045,10070.936092,5546.585387,0.012000,-0.020000,1.012000,192.000000,0.000000,0.000000,0.000000,0.000000,0.000000,0.000000,0.000000,0.000000,0.000000,1772009922.101506,0.000000
100.000000,4374.191686,11520.580831,5757.474096,10120.735779,3967.233475,13641.202586,-12888.641702,-17233.664362,8244.396239,10374.763355,12027.138415,-392.429577,2605.811072,16542.391961,10085.531781,5551.972157,0.012000,-0.020000,1.012000,192.000000,0.000000,0.000000,0.000000,0.000000,0.000000,0.000000,0.000000,0.000000,0.000000,1772009922.101517,0.000000
102.000000,4374.951646,11518.412711,5753.517837,10116.980686,3960.215027,13641.783731,-12887.345301,-17232.636181,8232.728628,10362.715764,12008.184136,-392.586040,2581.090043,16537.608688,10065.146990,5541.891520,0.008000,-0.016000,1.010000,192.000000,0.000000,32.000000,127.500000,64.000000,15.500000,72.000000,0.000000,0.000000,0.000000,1772009922.101528,0.000000
104.000000,4378.930256,11520.200851,5756.043584,10123.529747,3969.625112,13657.295842,-12882.182048,-17230.959801,8236.349611,10365.353270,12013.123871,-391.468452,2596.311581,16551.489121,10079.586217,5550.921625,0.008000,-0.016000,1.010000,192.000000,0.000000,0.000000,0.000000,0.000000,0.000000,0.000000,0.000000,0.000000,0.000000,1772009922.101539,0.000000
106.000000,4372.403547,11521.273735,5750.165075,10108.934058,3959.522123,13654.457170,-12893.670844,-17238.469987,8233.443884,10362.022860,12005.837203,-398.308086,2589.740168,16551.802045,10073.126563,5545.043116,0.008000,-0.016000,1.010000,192.000000,0.000000,0.000000,0.000000,0.000000,0.000000,0.000000,0.000000,0.000000,0.000000,1772009922.101549,0.000000
108.000000,4378.125593,11527.912203,5760.089250,10119.305267,3979.057548,13653.585452,-12884.305463,-17232.166795,8234.427361,10371.164724,12006.954790,-393.614220,2590.835403,16535.507624,10074.847648,5547.680622,0.008000,-0.016000,1.010000,192.000000,0.000000,0.000000,0.000000,0.000000,0.000000,0.000000,0.000000,0.000000,0.000000,1772009922.101560,0.000000
110.000000,4377.320931,11515.529336,5753.473133,10125.407293,3967.658158,13649.338621,-12889.044033,-17237.978248,8239.568262,10377.154991,12018.555345,-386.886345,2602.391255,16547.666973,10085.263560,5555.794305,0.008000,-0.016000,1.010000,192.000000,0.000000,0.000000,0.000000,0.000000,0.000000,0.000000,0.000000,0.000000,0.000000,1772009922.101570,0.000000
112.000000,4373.968169,11507.370950,5757.921130,10111.996247,3972.620246,13639.906185,-12889.558123,-17242.001562,8240.529387,10354.579729,12009.145261,-405.706514,2588.600229,16541.140263,10068.544456,5540.237491,0.010000,-0.016000,1.010000,192.000000,0.000000,40.000000,127.500000,64.000000,15.500000,72.000000,0.000000,0.000000,0.000000,1772009922.101581,0.000000
114.000000,4378.550277,11517.988028,5760.670395,10117.584183,3975.414214,13657.631118,-12881.444440,-17237.441806,8238.942413,10357.060773,12015.359046,-403.448987,2597.295057,16558.529920,10083.631883,5551.882750,0.010000,-0.016000,1.010000,192.000000,0.000000,0.000000,0.000000,0.000000,0.000000,0.000000,0.000000,0.000000,0.000000,1772009922.101592,0.000000
116.000000,4365.429803,11512.131871,5756.669433,10107.391787,3964.595969,13638.565080,-12890.027510,-17244.393199,8229.465274,10356.636090,12004.496098,-406.220604,2590.835403,16537.362818,10076.613435,5546.607738,0.010000,-0.016000,1.010000,192.000000,0.000000,0.000000,0.000000,0.000000,0.000000,0.000000,0.000000,0.000000,0.000000,1772009922.101601,0.000000
118.000000,4378.729091,11525.967601,5764.514895,10118.634715,3977.671740,13670.304557,-12879.298673,-17231.183318,8239.232986,10368.750735,12012.252153,-405.125368,2595.998656,16561.972089,10077.686319,5546.183055,0.010000,-0.016000,1.010000,192.000000,0.000000,0.000000,0.000000,0.000000,0.000000,0.000000,0.000000,0.000000,0.000000,1772009922.101612,0.000000
120.000000,4369.408413,11510.522546,5763.710232,10120.579317,3967.680510,13653.473694,-12883.254931,-17234.960763,8240.730553,10366.068526,12018.331828,-387.512194,2601.854813,16529.629115,10081.754337,5554.676718,0.010000,-0.016000,1.010000,192.000000,0.000000,0.000000,0.000000,0.000000,0.000000,0.000000,0.000000,0.000000,0.000000,1772009922.101622,0.000000
122.000000,4378.393814,11519.418540,5766.526552,10113.583221,3967.099365,13637.179272,-12882.874952,-17228.814033,8235.120265,10353.126866,12017.527165,-400.051522,2583.951066,16531.394903,10069.840857,5539.008145,0.010000,-0.016000,1.004000,192.000000,0.000000,40.000000,127.500000,64.000000,15.500000,48.000000,0.000000,0.000000,0.000000,1772009922.101635,0.000000
124.000000,4386.932181,11525.364104,5769.231113,10123.395636,3971.815583,13648.086923,-12875.811800,-17218.107548,8242.026954,10361.844046,12032.681648,-388.920354,2597.429168,16530.143205,10081.508467,5544.506674,0.010000,-0.016000,1.004000,192.000000,0.000000,0.000000,0.000000,0.000000,0.000000,0.000000,0.000000,0.000000,0.000000,1772009922.101645,0.000000
126.000000,4384.093509,11525.207642,5759.798677,10110.073997,3959.097440,13645.762342,-12886.250065,-17222.264972,8240.529387,10365.085049,12028.837148,-386.618124,2586.901496,16557.769961,10070.265540,5540.706878,0.010000,-0.016000,1.004000,192.000000,0.000000,0.000000,0.000000,0.000000,0.000000,0.000000,0.000000,0.000000,0.000000,1772009922.101655,0.000000
128.000000,4389.659094,11537.724619,5768.269988,10127.128378,3977.224705,13657.966394,-12877.666995,-17215.782966,8246.117323,10373.042270,12028.345409,-381.968961,2596.021008,16554.260737,10075.026461,5542.874997,0.010000,-0.016000,1.004000,192.000000,0.000000,0.000000,0.000000,0.000000,0.000000,0.000000,0.000000,0.000000,0.000000,1772009922.101666,0.000000
130.000000,4370.347186,11514.769377,5757.272930,10125.072017,3968.306359,13644.130664,-12884.663091,-17230.937449,8237.288384,10376.305625,12026.110235,-376.828060,2595.283400,16554.819531,10082.536648,5554.564959,0.010000,-0.016000,1.004000,192.000000,0.000000,0.000000,0.000000,0.000000,0.000000,0.000000,0.000000,0.000000,0.000000,1772009922.101676,0.000000
132.000000,4367.910846,11515.775206,5760.424526,10114.924325,3970.630940,13640.174406,-12885.959492,-17233.306734,8229.219404,10357.552511,12012.565078,-398.933935,2584.219287,16526.879850,10070.354947,5544.931357,0.006000,-0.016000,1.002000,192.000000,0.000000,24.000000,127.500000,64.000000,15.500000,40.000000,0.000000,0.000000,0.000000,1772009922.101687,0.000000
134.000000,4382.014797,11525.677028,5766.347738,10113.158538,3979.325769,13653.026659,-12878.292844,-17226.645914,8233.332125,10371.231779,12022.958639,-387.691008,2596.669209,16558.798141,10081.977854,5552.419192,0.006000,-0.016000,1.002000,192.000000,0.000000,0.000000,0.000000,0.000000,0.000000,0.000000,0.000000,0.000000,0.000000,1772009922.101697,0.000000
136.000000,4364.803954,11505.336941,5751.752049,10119.327619,3951.944882,13652.579624,-12887.457059,-17238.693504,8233.645050,10361.084087,12014.040293,-399.515080,2591.908287,16535.708789,10070.109078,5544.417267,0.006000,-0.016000,1.002000,192.000000,0.000000,0.000000,0.000000,0.000000,0.000000,0.000000,0.000000,0.000000,0.000000,1772009922.101708,0.000000
138.000000,4376.650378,11527.264002,5764.224322,10124.155596,3976.576504,13666.124781,-12880.639777,-17235.117225,8234.807340,10365.129753,12011.447491,-391.490804,2591.327142,16551.511473,10066.264578,5545.892483,0.006000,-0.016000,1.002000,192.000000,0.000000,0.000000,0.000000,0.000000,0.000000,0.000000,0.000000,0.000000,0.000000,1772009922.101718,0.000000
140.000000,4354.298634,11500.151336,5758.256407,10112.800910,3976.576504,13651.707906,-12888.954626,-17250.115246,8230.225233,10366.761430,12012.676837,-394.128310,2603.195918,16557.300574,10082.335482,5553.447372,0.006000,-0.016000,1.002000,192.000000,0.000000,0.000000,0.000000,0.000000,0.000000,0.000000,0.000000,0.000000,0.000000,1772009922.101728,0.000000
142.000000,4352.532846,11497.469127,5756.937654,10110.990418,3970.541533,13644.845920,-12888.261722,-17249.020010,8219.518747,10343.582671,11998.416424,-410.512139,2580.173621,16531.976048,10070.801982,5544.707840,0.008000,-0.014000,1.006000,192.000000,0.000000,32.000000,127.500000,72.000000,15.500000,56.000000,0.000000,0.000000,0.000000,1772009922.101739,0.000000
144.000000,4364.848657,11513.294162,5764.045508,10117.360665,3977.045891,13654.926557,-12878.426955,-17237.285344,8222.133901,10359.027727,12011.335732,-396.855223,2592.534136,16553.232557,10080.569694,5552.240378,0.008000,-0.014000,1.006000,192.000000,0.000000,0.000000,0.000000,0.000000,0.000000,0.000000,0.000000,0.000000,0.000000,1772009922.101750,0.000000
146.000000,4365.027471,11502.431214,5755.730659,10108.911706,3960.036213,13636.620478,-12887.233542,-17241.800397,8223.631468,10355.630261,12011.402787,-404.588926,2586.186240,16530.813757,10075.138220,5544.909006,0.008000,-0.014000,1.006000,192.000000,0.000000,0.000000,0.000000,0.000000,0.000000,0.000000,0.000000,0.000000,0.000000,1772009922.101760,0.000000
148.000000,4379.757271,11520.513775,5762.905569,10127.374247,3965.937074,13644.398885,-12876.728222,-17227.070597,8231.588689,10354.222101,12012.945058,-393.457758,2582.587610,16535.127644,10069.729098,5544.327860,0.008000,-0.014000,1.006000,192.000000,0.000000,0.000000,0.000000,0.000000,0.000000,0.000000,0.000000,0.000000,0.000000,1772009922.101770,0.000000
150.000000,4372.738823,11512.668313,5763.687880,10119.908764,3970.876809,13648.399848,-12880.952702,-17230.311600,8241.535216,10365.867360,12023.293915,-384.315894,2603.799415,16548.382228,10077.641616,5550.474590,0.008000,-0.014000,1.006000,192.000000,0.000000,0.000000,0.000000,0.000000,0.000000,0.000000,0.000000,0.000000,0.000000,1772009922.101781,0.000000
152.000000,4362.546428,11502.766490,5759.351642,10121.205166,3957.219894,13634.519414,-12881.399737,-17232.010333,8228.682962,10352.992756,12017.862441,-397.324609,2580.374787,16532.892470,10064.588197,5538.806980,0.011000,-0.013000,1.010000,192.000000,0.000000,56.000000,127.500000,80.000000,15.500000,88.000000,0.000000,0.000000,0.000000,1772009922.101792,0.000000
154.000000,4369.900151,11508.644999,5764.447840,10117.427721,3966.540571,13649.539787,-12875.498876,-17226.042417,8228.481797,10350.087029,12026.266697,-393.904793,2586.812089,16542.436664,10072.657177,5546.987718,0.011000,-0.013000,1.010000,192.000000,0.000000,0.000000,0.000000,0.000000,0.000000,0.000000,0.000000,0.000000,0.000000,1772009922.101804,0.000000
156.000000,4360.512419,11502.632380,5755.618901,10109.671665,3955.498809,13630.585507,-12886.518286,-17236.234812,8222.178605,10342.442732,12017.504813,-401.817310,2578.899572,16536.826377,10068.835028,5541.980927,0.011000,-0.013000,1.010000,192.000000,0.000000,0.000000,0.000000,0.000000,0.000000,0.000000,0.000000,0.000000,0.000000,1772009922.101815,0.000000
158.000000,4364.088698,11511.170746,5767.286511,10129.050628,3962.271388,13638.743894,-12876.392946,-17225.371864,8218.535271,10348.298889,12014.844956,-393.569516,2574.451575,16519.347312,10068.790325,5541.019802,0.011000,-0.013000,1.010000,192.000000,0.000000,0.000000,0.000000,0.000000,0.000000,0.000000,0.000000,0.000000,0.000000,1772009922.101835,0.000000
160.000000,4366.390928,11509.002627,5763.911398,10112.398578,3963.344272,13633.915917,-12880.796239,-17228.076426,8224.346724,10357.351346,12024.411502,-384.047673,2591.997694,16545.342391,10078.066299,5547.390049,0.011000,-0.013000,1.010000,192.000000,0.000000,0.000000,0.000000,0.000000,0.000000,0.000000,0.000000,0.000000,0.000000,1772009922.101846,0.000000
162.000000,4368.447288,11507.058025,5761.206837,10117.114796,3956.683452,13645.047086,-12880.997405,-17229.663399,8227.073637,10341.526311,12017.817738,-398.710418,2580.285380,16527.550403,10062.844761,5537.041192,0.012500,-0.016500,1.012000,192.000000,0.000000,56.000000,127.500000,48.000000,15.500000,88.000000,0.000000,0.000000,0.000000,1772009922.101858,0.000000
164.000000,4373.498782,11520.066741,5766.995939,10132.381038,3977.202353,13652.289051,-12873.733088,-17223.717835,8228.660611,10360.637052,12026.378456,-385.478185,2593.696427,16532.937173,10078.066299,5551.212198,0.012500,-0.016500,1.012000,192.000000,0.000000,0.000000,0.000000,0.000000,0.000000,0.000000,0.000000,0.000000,0.000000,1772009922.101868,0.000000
166.000000,4364.155753,11506.163955,5762.860866,10106.274200,3973.268446,13629.803196,-12886.853562,-17236.614792,8230.985192,10355.764372,12020.276430,-393.301295,2589.337836,16534.211222,10077.038118,5546.183055,0.012500,-0.016500,1.012000,192.000000,0.000000,0.000000,0.000000,0.000000,0.000000,0.000000,0.000000,0.000000,0.000000,1772009922.101879,0.000000
168.000000,4374.392852,11518.502118,5769.655796,10133.208052,3973.469612,13661.565025,-12876.169428,-17226.645914,8237.511902,10354.222101,12021.885755,-394.910621,2593.025874,16547.577566,10078.490982,5544.886654,0.012500,-0.016500,1.012000,192.000000,0.000000,0.000000,0.000000,0.000000,0.000000,0.000000,0.000000,0.000000,0.000000,1772009922.101890,0.000000
170.000000,4376.091585,11515.417578,5766.571256,10123.574450,3962.159629,13639.950888,-12877.577588,-17224.120167,8239.165931,10364.123924,12031.720523,-378.973827,2600.312543,16542.704885,10080.927322,5554.184980,0.012500,-0.016500,1.012000,192.000000,0.000000,0.000000,0.000000,0.000000,0.000000,0.000000,0.000000,0.000000,0.000000,1772009922.101900,0.000000
172.000000,4377.253875,11520.469072,5766.258331,10113.203241,3956.102306,13642.946022,-12878.516362,-17223.494318,8240.439980,10355.719668,12025.842014,-387.601601,2584.554563,16540.402656,10064.297624,5535.051886,0.011250,-0.018250,1.014000,192.000000,0.000000,40.000000,127.500000,48.000000,15.500000,96.000000,0.000000,0.000000,0.000000,1772009922.101910,0.000000
174.000000,4373.230561,11525.542918,5763.330253,10131.956355,3956.482286,13644.734161,-12875.364766,-17227.160004,8237.914233,10362.738116,12030.245308,-382.214830,2590.388368,16558.820493,10072.545418,5546.652442,0.011250,-0.018250,1.014000,192.000000,0.000000,0.000000,0.000000,0.000000,0.000000,0.000000,0.000000,0.000000,0.000000,1772009922.101920,0.000000
176.000000,4356.980843,11500.128984,5755.015404,10116.444244,3955.007071,13637.179272,-12889.155792,-17244.661420,8231.432227,10354.669136,12018.309476,-391.915487,2583.973418,16531.730179,10067.739793,5547.770029,0.011250,-0.018250,1.014000,192.000000,0.000000,0.000000,0.000000,0.000000,0.000000,0.000000,0.000000,0.000000,0.000000,1772009922.101931,0.000000
178.000000,4363.999291,11507.572115,5766.057165,10114.521994,3968.373414,13643.370705,-12880.572722,-17237.732379,8226.894823,10346.309584,12012.654485,-401.727903,2582.386444,16533.764188,10070.623168,5543.210273,0.011250,-0.018250,1.014000,192.000000,0.000000,0.000000,0.000000,0.000000,0.000000,0.000000,0.000000,0.000000,0.000000,1772009922.101941,0.000000
180.000000,4357.517285,11498.720825,5763.374956,10119.014695,3972.664949,13642.141359,-12884.663091,-17242.895632,8231.320468,10347.382468,12024.232688,-397.771644,2598.144424,16535.977010,10084.078918,5547.859436,0.011250,-0.018250,1.014000,192.000000,0.000000,0.000000,0.000000,0.000000,0.000000,0.000000,0.000000,0.000000,0.000000,1772009922.101951,0.000000
182.000000,4359.104259,11499.771357,5762.391479,10122.367456,3973.626074,13658.122856,-12884.707795,-17243.454426,8232.818035,10338.397066,12013.839127,-406.622935,2587.773214,16529.047969,10070.511409,5543.880826,0.007625,-0.018125,1.013000,192.000000,0.000000,16.000000,127.500000,56.000000,15.500000,80.000000,0.000000,0.000000,0.000000,1772009922.101961,0.000000
184.000000,4378.662035,11519.954982,5770.639273,10128.648296,3984.287856,13654.121894,-12874.962434,-17228.881088,8237.467198,10358.401878,12023.428026,-389.255630,2600.111377,16552.919633,10085.375319,5553.000337,0.007625,-0.018125,1.013000,192.000000,0.000000,0.000000,0.000000,0.000000,0.000000,0.000000,0.000000,0.000000,0.000000,1772009922.101972,0.000000
186.000000,4375.935122,11518.457415,5766.303035,10102.876735,3977.090594,13652.713734,-12885.937141,-17233.865527,8241.803436,10365.062698,12025.953773,-390.641438,2598.524403,16555.668897,10079.630921,5546.361869,0.007625,-0.018125,1.013000,192.000000,0.000000,0.000000,0.000000,0.000000,0.000000,0.000000,0.000000,0.000000,0.000000,1772009922.101984,0.000000
188.000000,4377.656207,11521.765473,5769.566389,10136.694924,3982.164440,13666.393002,-12877.868161,-17229.171661,8239.344745,10357.306642,12022.601011,-392.809557,2595.596325,16546.392923,10076.814601,5548.328823,0.007625,-0.018125,1.013000,192.000000,0.000000,0.000000,0.000000,0.000000,0.000000,0.000000,0.000000,0.000000,0.000000,1772009922.101995,0.000000
190.000000,4372.202381,11516.781034,5765.699537,10128.357724,3974.117812,13661.140342,-12881.466792,-17235.832481,8240.931718,10368.773087,12031.340543,-381.812499,2604.671133,16557.702906,10081.553171,5556.487209,0.007625,-0.018125,1.013000,192.000000,0.000000,0.000000,0.000000,0.000000,0.000000,0.000000,0.000000,0.000000,0.000000,1772009922.102005,0.000000
192.000000,4364.222808,11508.667351,5765.006633,10115.505471,3973.715481,13642.722504,-12884.640740,-17245.331972,8238.249509,10355.183226,12016.566040,-399.291563,2587.192069,16554.350144,10072.299549,5537.979965,0.008813,-0.016063,1.010500,192.000000,0.000000,40.000000,127.500000,72.000000,15.500000,64.000000,0.000000,0.000000,0.000000,1772009922.102015,0.000000
194.000000,4372.470602,11513.383569,5766.951235,10120.445206,3968.887504,13654.032487,-12877.644644,-17240.839272,8230.113474,10352.366907,12015.739026,-401.057351,2590.656589,16548.449284,10079.049775,5552.732116,0.008813,-0.016063,1.010500,192.000000,0.000000,0.000000,0.000000,0.000000,0.000000,0.000000,0.000000,0.000000,0.000000,1772009922.581958,0.000000
196.000000,4360.490067,11500.844240,5757.898779,10105.581296,3958.940978,13638.542728,-12888.798164,-17249.914080,8227.498320,10352.590424,12013.369741,-402.197290,2583.056996,16545.498853,10073.081860,5543.322032,0.008813,-0.016063,1.010500,192.000000,0.000000,0.000000,0.000000,0.000000,0.000000,0.000000,0.000000,0.000000,0.000000,1772009922.582015,0.000000
198.000000,4372.023567,11513.271810,5767.465325,10122.166291,3966.004129,13649.517435,-12879.231617,-17238.894670,8231.432227,10346.868378,12013.503851,-404.633630,2580.643008,16525.270525,10069.103249,5541.645651,0.008813,-0.016063,1.010500,192.000000,0.000000,0.000000,0.000000,0.000000,0.000000,0.000000,0.000000,0.000000,0.000000,1772009922.582058,0.000000
200.000000,4372.470602,11516.110482,5760.335119,10123.239174,3971.055623,13655.038316,-12882.450269,-17243.074446,8242.541044,10366.023823,12023.986819,-389.657961,2603.262973,16544.694191,10083.765994,5550.318128,0.008813,-0.016063,1.010500,192.000000,0.000000,0.000000,0.000000,0.000000,0.000000,0.000000,0.000000,0.000000,0.000000,1772009922.582100,0.000000
202.000000,4367.642625,11506.298066,5767.822953,10114.879622,3969.155725,13651.462037,-12886.786507,-17250.428170,8235.746114,10353.193921,12011.156918,-403.627801,2584.241639,16547.331696,10074.691185,5541.645651,0.012406,-0.013031,1.009250,192.000000,0.000000,64.000000,127.500000,88.000000,15.500000,64.000000,0.000000,0.000000,0.000000,1772009922.582141,0.000000
204.000000,4376.471564,11518.926802,5765.587779,10128.581241,3964.595969,13665.029545,-12877.398774,-17238.157062,8232.795683,10358.647747,12018.711808,-394.374179,2590.500127,16540.179138,10079.005072,5549.088782,0.012406,-0.013031,1.009250,192.000000,0.000000,0.000000,0.000000,0.000000,0.000000,0.000000,0.000000,0.000000,0.000000,1772009922.582179,0.000000
206.000000,4362.837000,11502.542973,5757.094116,10103.815508,3960.617359,13641.403752,-12888.395833,-17248.192996,8230.873433,10352.992756,12013.816776,-396.966982,2580.486546,16541.587298,10070.354947,5546.786552,0.012406,-0.013031,1.009250,192.000000,0.000000,0.000000,0.000000,0.000000,0.000000,0.000000,0.000000,0.000000,0.000000,1772009922.582221,0.000000
208.000000,4368.491992,11510.723711,5762.346776,10124.379113,3961.779649,13642.454284,-12879.723356,-17240.638106,8232.035724,10353.529197,12013.637962,-398.643362,2581.201801,16529.338542,10071.718403,5539.611642,0.012406,-0.013031,1.009250,192.000000,0.000000,0.000000,0.000000,0.000000,0.000000,0.000000,0.000000,0.000000,0.000000,1772009922.582231,0.000000
210.000000,4366.636797,11502.922953,5759.821029,10116.533651,3963.903065,13644.309478,-12884.350167,-17244.773179,8231.432227,10358.044250,12022.355142,-389.009761,2588.801395,16543.934231,10077.418098,5549.334651,0.012406,-0.013031,1.009250,192.000000,0.000000,0.000000,0.000000,0.000000,0.000000,0.000000,0.000000,0.000000,0.000000,1772009922.582242,0.000000
212.000000,4361.361785,11503.481746,5755.574197,10119.975820,3961.265559,13638.229804,-12887.546466,-17246.203690,8228.034762,10346.019011,12009.234668,-402.577269,2575.435051,16524.622324,10067.516275,5538.762276,0.011203,-0.012516,1.009625,192.000000,0.000000,40.000000,127.500000,80.000000,15.500000,72.000000,0.000000,0.000000,0.000000,1772009922.582253,0.000000
214.000000,4374.996349,11524.693552,5764.134915,10126.457825,3970.832106,13657.407601,-12880.170391,-17234.446673,8234.047381,10359.295947,12019.002380,-386.573420,2593.003523,16554.461903,10081.150839,5548.351174,0.011203,-0.012516,1.009625,192.000000,0.000000,0.000000,0.000000,0.000000,0.000000,0.000000,0.000000,0.000000,0.000000,1772009922.582263,0.000000
216.000000,4365.832134,11502.878249,5756.356508,10104.173136,3961.578484,13650.947946,-12891.100394,-17244.013219,8234.136788,10361.173494,12017.370703,-390.708493,2587.482642,16547.286993,10073.014804,5543.746715,0.011203,-0.012516,1.009625,192.000000,0.000000,0.000000,0.000000,0.000000,0.000000,0.000000,0.000000,0.000000,0.000000,1772009922.582273,0.000000
218.000000,4373.789355,11513.405921,5759.932787,10127.106026,3960.527952,13649.092752,-12880.393908,-17233.776120,8235.544948,10346.890729,12017.482462,-396.251726,2582.967589,16551.690287,10069.773802,5537.577634,0.011203,-0.012516,1.009625,192.000000,0.000000,0.000000,0.000000,0.000000,0.000000,0.000000,0.000000,0.000000,0.000000,1772009922.582292,0.000000
220.000000,4371.665939,11508.644999,5759.083421,10116.198375,3957.219894,13641.873138,-12883.277283,-17234.312562,8235.589652,10353.059811,12026.847843,-386.059330,2586.320351,16541.341429,10077.060470,5545.914834,0.011203,-0.012516,1.009625,192.000000,0.000000,0.000000,0.000000,0.000000,0.000000,0.000000,0.000000,0.000000,0.000000,1772009922.582303,0.000000
222.000000,4373.588189,11504.286409,5760.513933,10115.617229,3952.078992,13626.852766,-12884.171353,-17235.184280,8234.829692,10334.753732,12016.878965,-398.621011,2573.602208,16501.555324,10064.543493,5532.347325,0.011203,-0.012516,1.009625,192.000000,0.000000,0.000000,0.000000,0.000000,0.000000,0.000000,0.000000,0.000000,0.000000,1772009922.582313,0.000000
224.000000,4386.038111,11526.235822,5769.901665,10128.022448,3965.244170,13639.928536,-12876.281187,-17222.935524,8244.575053,10346.041363,12032.279316,-382.840679,2590.880107,16507.970274,10078.043947,5543.366735,0.014000,-0.022000,1.010000,192.000000,0.000000,56.000000,127.500000,40.000000,15.500000,72.000000,0.000000,0.000000,0.000000,1772009922.582323,0.000000
226.000000,4377.812669,11516.490461,5760.379822,10104.933096,3958.181019,13639.839129,-12889.915751,-17234.267859,8243.211596,10353.663308,12027.026657,-381.410167,2587.706159,16533.607725,10072.478363,5541.399782,0.014000,-0.022000,1.010000,192.000000,0.000000,0.000000,0.000000,0.000000,0.000000,0.000000,0.000000,0.000000,0.000000,1772009922.582333,0.000000
228.000000,4378.706739,11518.569174,5768.471154,10122.680381,3969.826277,13650.031525,-12882.047937,-17232.390312,8247.257262,10351.405782,12024.635020,-395.402359,2590.209554,16560.519226,10070.243188,5540.639823,0.014000,-0.022000,1.010000,192.000000,0.000000,0.000000,0.000000,0.000000,0.000000,0.000000,0.000000,0.000000,0.000000,1772009922.582343,0.000000
230.000000,4383.042977,11514.344694,5767.510029,10116.980686,3964.417155,13656.200606,-12885.132478,-17231.764463,8242.585748,10344.029706,12031.832282,-385.344074,2595.976305,16544.001287,10078.245113,5546.138352,0.014000,-0.022000,1.010000,192.000000,0.000000,0.000000,0.000000,0.000000,0.000000,0.000000,0.000000,0.000000,0.000000,1772009922.582354,0.000000
232.000000,4383.199439,11517.898621,5764.760764,10118.254735,3962.114926,13638.766246,-12887.680577,-17232.479719,8243.949204,10343.917947,12025.506738,-400.073874,2583.258162,16532.870118,10066.488095,5537.734096,0.014000,-0.022000,1.010000,192.000000,0.000000,0.000000,0.000000,0.000000,0.000000,0.000000,0.000000,0.000000,0.000000,1772009922.582364,0.000000
234.000000,4383.579419,11524.112406,5767.644139,10130.838767,3965.467687,13650.836188,-12881.131516,-17229.305772,8248.710126,10356.278462,12032.189909,-377.990350,2593.204688,16527.572754,10075.294682,5543.657308,0.014000,-0.016000,1.014000,192.000000,0.000000,56.000000,127.500000,64.000000,15.500000,88.000000,0.000000,0.000000,0.000000,1772009922.582374,0.000000
236.000000,4363.798125,11498.944342,5754.255444,10108.285857,3952.414269,13634.206490,-12893.737900,-17247.567147,8236.416666,10349.617642,12021.014037,-390.194403,2580.441842,16525.941077,10069.930264,5538.628166,0.014000,-0.016000,1.014000,192.000000,0.000000,0.000000,0.000000,0.000000,0.000000,0.000000,0.000000,0.000000,0.000000,1772009922.582384,0.000000
238.000000,4368.916675,11511.215450,5761.922093,10107.637657,3957.532818,13638.006286,-12885.221885,-17240.302830,8227.677134,10329.858700,12010.553421,-403.717208,2571.165868,16521.046045,10067.225703,5527.228776,0.014000,-0.016000,1.014000,192.000000,0.000000,0.000000,0.000000,0.000000,0.000000,0.000000,0.000000,0.000000,0.000000,1772009922.582394,0.000000
240.000000,4373.275265,11505.828679,5755.931825,10116.086616,3943.138295,13636.016981,-12887.099431,-17238.872318,8230.851082,10344.677907,12023.673895,-392.071949,2582.364092,16553.701944,10073.528895,5535.968308,0.014000,-0.016000,1.014000,192.000000,0.000000,0.000000,0.000000,0.000000,0.000000,0.000000,0.000000,0.000000,0.000000,1772009922.582404,0.000000
242.000000,4382.372425,11515.797557,5757.116468,10120.355799,3930.621318,13630.764321,-12888.440536,-17235.273687,8232.750980,10339.939337,12014.956715,-399.179804,2567.075499,16534.144167,10055.915720,5535.185997,0.014000,-0.016000,1.014000,192.000000,0.000000,0.000000,0.000000,0.000000,0.000000,0.000000,0.000000,0.000000,0.000000,1772009922.582414,0.000000
244.000000,4395.157623,11531.868462,5763.754936,10130.279974,3952.324862,13649.718600,-12878.359899,-17224.343684,8247.257262,10367.990776,12031.139377,-381.052539,2586.677979,16568.454095,10065.057583,5541.645651,0.012000,-0.020000,1.010000,192.000000,0.000000,48.000000,127.500000,48.000000,15.500000,72.000000,0.000000,0.000000,0.000000,1772009922.582424,0.000000
246.000000,4385.501669,11516.512813,5763.106735,10106.028331,3961.086745,13615.498080,-12888.328777,-17232.211498,8252.264053,10359.005375,12027.160767,-382.103071,2596.624505,16536.535804,10066.041060,5537.644689,0.012000,-0.020000,1.010000,192.000000,0.000000,0.000000,0.000000,0.000000,0.000000,0.000000,0.000000,0.000000,0.000000,1772009922.582434,0.000000
248.000000,4395.962286,11528.158072,5771.734508,10125.586107,3968.619283,13624.103501,-12878.963396,-17219.560411,8249.403030,10350.779933,12034.201566,-389.076816,2593.048226,16519.995513,10070.958444,5528.256956,0.012000,-0.020000,1.010000,192.000000,0.000000,0.000000,0.000000,0.000000,0.000000,0.000000,0.000000,0.000000,0.000000,1772009922.582444,0.000000
250.000000,4386.127518,11520.178499,5759.865732,10122.881546,3956.370527,13652.199644,-12885.199533,-17228.143481,8246.564358,10365.397974,12039.275412,-374.905810,2592.981171,16556.071229,10073.595950,5539.432828,0.012000,-0.020000,1.010000,192.000000,0.000000,0.000000,0.000000,0.000000,0.000000,0.000000,0.000000,0.000000,0.000000,1772009922.582456,0.000000
252.000000,4377.276227,11513.517679,5756.401212,10121.942773,3962.472554,13635.860519,-12891.055690,-17240.347533,8238.025992,10349.170607,12019.628229,-392.273115,2579.793642,16526.209298,10062.084801,5534.113113,0.012000,-0.020000,1.010000,192.000000,0.000000,0.000000,0.000000,0.000000,0.000000,0.000000,0.000000,0.000000,0.000000,1772009922.582466,0.000000
254.000000,4385.926352,11528.225127,5765.364261,10121.473386,3971.234437,13654.144246,-12884.193705,-17236.100702,8239.121227,10356.434924,12023.539784,-388.205098,2594.210517,16527.013961,10078.669796,5544.953709,0.014000,-0.018000,1.008000,192.000000,0.000000,56.000000,127.500000,56.000000,15.500000,64.000000,0.000000,0.000000,0.000000,1772009922.582476,0.000000
0.000000,4374.392852,11503.504098,5758.368165,10104.217840,3953.598911,13633.424179,-12895.593094,-17249.265879,8240.238814,10355.049116,12023.897412,-396.095263,2590.813052,16550.639755,10071.964272,5533.688430,0.014000,-0.018000,1.008000,192.000000,0.000000,0.000000,0.000000,0.000000,0.000000,0.000000,0.000000,0.000000,0.000000,1772009922.582486,0.000000
2.000000,4368.134364,11505.605162,5759.865732,10113.024427,3965.221818,13626.204565,-12889.245199,-17248.394161,8229.755846,10332.138578,12013.123871,-405.147720,2578.363130,16513.625266,10068.857380,5528.949860,0.014000,-0.018000,1.008000,192.000000,0.000000,0.000000,0.000000,0.000000,0.000000,0.000000,0.000000,0.000000,0.000000,1772009922.582496,0.000000
4.000000,4364.558085,11505.672217,5752.713174,10108.956410,3954.649443,13636.531071,-12893.112051,-17252.797455,8224.883166,10343.783837,12013.973238,-394.664752,2581.805299,16519.459071,10073.215970,5534.895424,0.014000,-0.018000,1.008000,192.000000,0.000000,0.000000,0.000000,0.000000,0.000000,0.000000,0.000000,0.000000,0.000000,1772009922.582506,0.000000
6.000000,4360.601826,11502.967656,5749.226302,10109.492851,3950.156742,13635.592298,-12899.281132,-17262.095781,8224.413779,10331.244508,12001.031578,-411.607374,2568.215438,16552.830226,10060.229607,5526.714686,0.014000,-0.018000,1.008000,192.000000,0.000000,0.000000,0.000000,0.000000,0.000000,0.000000,0.000000,0.000000,0.000000,1772009922.582516,0.000000
8.000000,4377.522096,11517.138662,5759.776325,10119.148805,3962.807830,13648.444551,-12889.088737,-17248.684734,8230.046419,10343.157988,12012.475671,-397.391665,2584.308694,16524.085882,10071.874866,5543.634956,0.008000,-0.022000,1.012000,192.000000,0.000000,32.000000,127.500000,40.000000,15.500000,80.000000,0.000000,0.000000,0.000000,1772009922.582526,0.000000
10.000000,4370.704814,11503.235877,5748.332232,10101.848555,3952.257806,13636.821644,-12901.113975,-17258.161874,8230.985192,10348.924738,12011.380435,-395.670580,2581.470022,16547.577566,10066.868075,5538.561110,0.008000,-0.022000,1.012000,192.000000,0.000000,0.000000,0.000000,0.000000,0.000000,0.000000,0.000000,0.000000,0.000000,1772009922.582536,0.000000
12.000000,4379.623160,11519.351485,5754.635424,10115.997209,3961.600836,13659.128685,-12891.793298,-17245.801359,8231.007544,10347.360116,12009.569944,-406.622935,2577.223191,16528.019789,10064.208217,5535.029535,0.008000,-0.022000,1.012000,192.000000,0.000000,0.000000,0.000000,0.000000,0.000000,0.000000,0.000000,0.000000,0.000000,1772009922.582546,0.000000
14.000000,4378.818498,11514.232935,5753.249616,10126.256660,3957.443411,13653.540749,-12892.754423,-17243.812054,8233.108608,10348.075372,12019.158842,-383.243010,2591.349493,16532.177214,10067.359813,5545.825427,0.008000,-0.022000,1.012000,192.000000,0.000000,0.000000,0.000000,0.000000,0.000000,0.000000,0.000000,0.000000,0.000000,1772009922.582558,0.000000
16.000000,4376.560971,11507.281543,5756.244750,10119.573488,3965.534743,13648.891586,-12895.883667,-17247.880071,8237.467198,10339.291136,12011.805119,-396.922278,2581.335912,16539.039199,10060.319014,5538.292889,0.008000,-0.022000,1.012000,192.000000,0.000000,0.000000,0.000000,0.000000,0.000000,0.000000,0.000000,0.000000,0.000000,1772009922.582569,0.000000
18.000000,4388.854431,11518.010380,5764.760764,10127.463654,3966.071184,13654.770095,-12886.205362,-17238.894670,8240.864663,10349.729401,12023.696247,-388.115691,2594.054055,16538.770978,10072.388956,5546.630090,0.008000,-0.018000,1.016000,192.000000,0.000000,32.000000,127.500000,56.000000,15.500000,96.000000,0.000000,0.000000,0.000000,1772009922.582580,0.000000
20.000000,4377.276227,11503.593505,5750.589758,10105.760110,3954.627091,13615.095748,-12896.487164,-17247.053057,8241.423457,10345.102590,12020.097616,-394.977676,2589.069615,16522.342446,10065.750488,5532.973174,0.008000,-0.018000,1.016000,192.000000,0.000000,0.000000,0.000000,0.000000,0.000000,0.000000,0.000000,0.000000,0.000000,1772009922.582590,0.000000
22.000000,4379.757271,11508.019150,5766.079517,10108.285857,3952.056641,13625.310496,-12886.808859,-17235.564260,8236.506073,10333.569090,12017.728331,-398.889232,2577.156136,16525.762263,10060.430772,5522.669020,0.008000,-0.018000,1.016000,192.000000,0.000000,0.000000,0.000000,0.000000,0.000000,0.000000,0.000000,0.000000,0.000000,1772009922.582599,0.000000
24.000000,4373.387024,11501.358330,5760.469229,10105.514241,3951.877827,13623.343542,-12890.608655,-17237.575917,8227.274803,10335.916023,12026.892546,-391.222583,2578.631351,16533.518318,10068.812677,5527.139369,0.008000,-0.018000,1.016000,192.000000,0.000000,0.000000,0.000000,0.000000,0.000000,0.000000,0.000000,0.000000,0.000000,1772009922.582609,0.000000
26.000000,4367.083832,11487.835525,5757.339985,10109.381093,3944.814675,13611.675931,-12893.424975,-17246.315449,8226.760712,10317.654648,12015.046121,-406.153548,2569.333025,16506.293894,10054.060525,5521.283212,0.008000,-0.018000,1.016000,192.000000,0.000000,0.000000,0.000000,0.000000,0.000000,0.000000,0.000000,0.000000,0.000000,1772009922.582620,0.000000
28.000000,4378.684387,11508.265019,5765.297206,10111.973895,3956.661100,13638.430970,-12883.791373,-17234.066693,8230.359343,10326.975325,12027.004305,-396.810519,2580.374787,16525.762263,10064.990528,5531.117979,0.009000,-0.019000,1.014000,192.000000,0.000000,40.000000,127.500000,48.000000,15.500000,80.000000,0.000000,0.000000,0.000000,1772009922.582630,0.000000
30.000000,4361.987634,11493.714034,5754.031927,10103.346122,3944.524103,13633.155958,-12896.889495,-17248.327106,8228.817073,10337.614755,12022.086921,-399.157452,2578.899572,16534.255926,10061.436601,5528.860453,0.009000,-0.019000,1.014000,192.000000,0.000000,0.000000,0.000000,0.000000,0.000000,0.000000,0.000000,0.000000,0.000000,1772009922.582640,0.000000
32.000000,4388.005064,11520.558479,5764.134915,10115.326657,3962.874885,13643.549519,-12887.971149,-17233.664362,8231.164006,10333.278517,12016.521337,-401.236165,2577.290246,16524.957600,10058.888502,5528.681639,0.009000,-0.019000,1.014000,192.000000,0.000000,0.000000,0.000000,0.000000,0.000000,0.000000,0.000000,0.000000,0.000000,1772009922.582650,0.000000
34.000000,4387.178050,11521.340790,5762.883218,10118.813529,3958.069260,13636.709885,-12889.491068,-17232.435016,8237.556605,10354.602081,12030.491177,-380.963132,2598.077369,16537.228708,10073.171267,5538.337593,0.009000,-0.019000,1.014000,192.000000,0.000000,0.000000,0.000000,0.000000,0.000000,0.000000,0.000000,0.000000,0.000000,1772009922.582660,0.000000
36.000000,4383.534716,11514.992895,5758.055241,10119.014695,3949.799114,13640.487330,-12892.039167,-17234.916059,8239.903538,10343.202691,12021.081092,-389.680313,2581.134746,16526.924554,10055.044002,5533.576671,0.009000,-0.019000,1.014000,192.000000,0.000000,0.000000,0.000000,0.000000,0.000000,0.000000,0.000000,0.000000,0.000000,1772009922.582670,0.000000
38.000000,4388.295637,11526.392284,5762.302072,10130.615250,3964.685376,13644.041257,-12884.305463,-17231.652705,8239.188282,10359.318299,12025.931421,-381.030188,2591.215383,16542.101388,10070.064374,5544.663137,0.009500,-0.018500,1.014000,192.000000,0.000000,40.000000,127.500000,56.000000,15.500000,88.000000,0.000000,0.000000,0.000000,1772009922.582680,0.000000
40.000000,4372.336492,11513.584735,5749.606281,10115.125491,3948.122734,13635.122911,-12899.258780,-17247.567147,8234.807340,10355.049116,12016.320171,-383.779452,2583.146403,16535.373513,10065.705784,5538.717573,0.009500,-0.018500,1.014000,192.000000,0.000000,0.000000,0.000000,0.000000,0.000000,0.000000,0.000000,0.000000,0.000000,1772009922.582690,0.000000
42.000000,4382.439480,11525.609973,5758.301110,10119.104102,3969.446298,13655.798275,-12894.229638,-17245.399028,8234.293250,10350.712878,12007.290066,-391.311990,2580.844174,16552.651412,10062.800057,5539.276366,0.009500,-0.018500,1.014000,192.000000,0.000000,0.000000,0.000000,0.000000,0.000000,0.000000,0.000000,0.000000,0.000000,1772009922.582699,0.000000
44.000000,4387.669788,11527.845148,5758.681090,10112.532689,3959.119792,13654.479522,-12896.017777,-17244.884937,8238.942413,10366.001471,12018.532994,-383.958266,2597.786796,16557.412333,10075.451145,5546.853608,0.009500,-0.018500,1.014000,192.000000,0.000000,0.000000,0.000000,0.000000,0.000000,0.000000,0.000000,0.000000,0.000000,1772009922.582710,0.000000
46.000000,4374.504611,11513.070645,5748.712212,10113.784386,3953.576559,13631.412522,-12900.868106,-17257.223100,8234.896747,10345.348459,12002.015054,-399.045694,2581.760595,16525.091711,10063.090630,5533.219043,0.009500,-0.018500,1.014000,192.000000,0.000000,0.000000,0.000000,0.000000,0.000000,0.000000,0.000000,0.000000,0.000000,1772009922.582720,0.000000
48.000000,4380.830155,11527.308706,5753.026098,10120.646372,3961.176152,13647.081095,-12889.066385,-17251.031667,8232.795683,10357.552511,12008.430005,-389.523851,2588.957857,16558.664031,10067.851552,5546.920663,0.008750,-0.020250,1.014000,192.000000,0.000000,32.000000,127.500000,40.000000,15.500000,88.000000,0.000000,0.000000,0.000000,1772009922.582730,0.000000
50.000000,4369.073137,11506.990970,5741.760819,10116.600706,3943.093591,13644.488292,-12897.984731,-17263.794513,8228.660611,10349.796456,12001.031578,-399.626839,2581.447671,16549.432760,10063.805886,5542.360907,0.008750,-0.020250,1.014000,192.000000,0.000000,0.000000,0.000000,0.000000,0.000000,0.000000,0.000000,0.000000,0.000000,1772009922.582740,0.000000
52.000000,4383.869992,11525.878194,5755.931825,10115.371360,3958.985681,13653.585452,-12889.982806,-17251.858682,8232.549814,10350.690526,12000.584543,-400.655019,2574.943313,16538.636868,10058.396764,5541.846817,0.008750,-0.020250,1.014000,192.000000,0.000000,0.000000,0.000000,0.000000,0.000000,0.000000,0.000000,0.000000,0.000000,1772009922.582750,0.000000
54.000000,4378.192649,11521.720770,5754.300148,10124.066189,3950.335556,13634.117083,-12890.631007,-17248.774141,8235.433189,10363.006337,12014.889659,-384.025321,2593.383502,16545.789426,10074.758241,5543.500846,0.008750,-0.020250,1.014000,192.000000,0.000000,0.000000,0.000000,0.000000,0.000000,0.000000,0.000000,0.000000,0.000000,1772009922.582760,0.000000
56.000000,4377.589152,11519.776168,5753.696651,10116.757168,3952.324862,13632.999496,-12893.179106,-17247.298926,8233.689753,10346.197825,12005.345464,-390.887307,2577.066729,16521.023693,10055.558092,5532.749657,0.008750,-0.020250,1.014000,192.000000,0.000000,0.000000,0.000000,0.000000,0.000000,0.000000,0.000000,0.000000,0.000000,1772009922.582770,0.000000
58.000000,4393.011855,11535.288278,5752.243787,10129.676477,3963.992472,13665.454229,-12884.260760,-17237.687676,8236.997811,10360.033555,12015.359046,-379.465566,2594.232868,16548.873967,10069.974967,5543.746715,0.008375,-0.021125,1.015000,192.000000,0.000000,32.000000,127.500000,40.000000,15.500000,96.000000,0.000000,0.000000,0.000000,1772009923.063648,0.000000
60.000000,4379.958436,11518.770339,5755.216569,10117.025389,3953.688318,13650.478560,-12895.011949,-17250.942260,8241.244643,10362.894578,12012.207450,-380.426691,2589.762520,16562.776752,10065.549322,5546.764201,0.008375,-0.021125,1.015000,192.000000,0.000000,0.000000,0.000000,0.000000,0.000000,0.000000,0.000000,0.000000,0.000000,1772009923.063707,0.000000
62.000000,4388.943838,11529.923860,5762.905569,10125.563756,3965.847667,13658.100505,-12888.328777,-17245.577841,8241.848140,10361.486418,12013.615610,-387.780415,2585.895668,16542.771941,10067.628034,5542.159741,0.008375,-0.021125,1.015000,192.000000,0.000000,0.000000,0.000000,0.000000,0.000000,0.000000,0.000000,0.000000,0.000000,1772009923.063749,0.000000
64.000000,4391.022550,11532.360200,5760.893912,10118.210032,3958.359833,13650.947946,-12891.033338,-17243.700295,8243.613928,10362.738116,12023.249212,-382.594810,2603.710008,16550.103313,10077.015767,5549.558169,0.008375,-0.021125,1.015000,192.000000,0.000000,0.000000,0.000000,0.000000,0.000000,0.000000,0.000000,0.000000,0.000000,1772009923.063791,0.000000
66.000000,4388.027416,11526.973430,5756.065936,10116.332485,3958.650405,13646.567005,-12895.995426,-17244.192033,8249.648899,10359.027727,12017.080130,-388.115691,2594.366979,16535.820548,10063.604720,5529.575709,0.008375,-0.021125,1.015000,192.000000,0.000000,0.000000,0.000000,0.000000,0.000000,0.000000,0.000000,0.000000,0.000000,1772009923.063838,0.000000
68.000000,4395.135271,11532.606069,5762.570293,10123.797968,3972.843763,13648.869234,-12885.534809,-17236.659495,8244.485646,10355.697317,12020.991686,-385.053502,2598.434996,16539.687400,10075.249979,5550.429887,0.007188,-0.020562,1.014500,192.000000,0.000000,24.000000,127.500000,48.000000,15.500000,88.000000,0.000000,0.000000,0.000000,1772009923.063879,0.000000
70.000000,4383.601771,11518.971505,5750.299186,10113.605572,3955.275292,13642.633097,-12895.503687,-17247.142464,8242.362230,10357.753677,12017.102482,-392.876612,2594.098758,16553.411371,10071.807810,5544.238453,0.007188,-0.020562,1.014500,192.000000,0.000000,0.000000,0.000000,0.000000,0.000000,0.000000,0.000000,0.000000,0.000000,1772009923.063921,0.000000
72.000000,4402.399588,11536.092941,5762.726755,10123.373285,3966.764088,13636.128740,-12883.925484,-17232.300905,8242.496341,10354.244453,12017.080130,-386.931048,2587.169717,16530.389074,10064.744659,5542.874997,0.007188,-0.020562,1.014500,192.000000,0.000000,0.000000,0.000000,0.000000,0.000000,0.000000,0.000000,0.000000,0.000000,1772009923.063932,0.000000
74.000000,4399.985600,11532.047276,5765.945407,10120.221689,3966.764088,13648.757475,-12887.457059,-17232.233850,8252.331108,10367.007299,12034.581546,-376.246914,2604.984058,16557.099409,10079.675624,5549.468762,0.007188,-0.020562,1.014500,192.000000,0.000000,0.000000,0.000000,0.000000,0.000000,0.000000,0.000000,0.000000,0.000000,1772009923.063943,0.000000
76.000000,4398.622143,11528.515700,5764.358433,10114.365532,3967.702862,13651.193816,-12891.860353,-17233.038513,8253.895730,10355.540854,12024.947944,-388.629781,2598.457348,16538.815682,10069.729098,5542.852645,0.007188,-0.020562,1.014500,192.000000,0.000000,0.000000,0.000000,0.000000,0.000000,0.000000,0.000000,0.000000,0.000000,1772009923.063954,0.000000
78.000000,4412.502576,11548.006421,5769.566389,10124.110892,3973.670778,13657.139380,-12879.276321,-17218.867507,8253.403992,10368.773087,12035.520319,-374.637589,2604.268802,16538.525109,10078.714499,5549.915797,0.008594,-0.017281,1.012250,192.000000,0.000000,40.000000,127.500000,72.000000,15.500000,72.000000,0.000000,0.000000,0.000000,1772009923.063964,0.000000
80.000000,4402.958382,11534.170691,5759.351642,10116.734817,3961.176152,13655.194778,-12889.133440,-17230.915097,8254.275710,10369.868323,12034.983878,-374.883458,2600.536060,16549.879795,10072.612473,5544.730192,0.008594,-0.017281,1.012250,192.000000,0.000000,0.000000,0.000000,0.000000,0.000000,0.000000,0.000000,0.000000,0.000000,1772009923.063975,0.000000
82.000000,4407.696951,11543.379610,5764.626654,10128.044799,3969.446298,13650.366801,-12881.422088,-17223.248449,8253.024012,10368.013128,12029.038314,-376.068100,2592.176508,16532.646600,10067.896255,5544.931357,0.008594,-0.017281,1.012250,192.000000,0.000000,0.000000,0.000000,0.000000,0.000000,0.000000,0.000000,0.000000,0.000000,1772009923.063986,0.000000
84.000000,4413.240184,11546.955889,5766.750069,10116.712465,3966.115888,13655.597109,-12883.545504,-17221.125033,8255.974442,10374.539837,12041.063552,-366.166278,2611.264898,16558.976955,10080.703805,5552.642709,0.008594,-0.017281,1.012250,192.000000,0.000000,0.000000,0.000000,0.000000,0.000000,0.000000,0.000000,0.000000,0.000000,1772009923.063996,0.000000
86.000000,4412.927260,11545.145398,5767.152401,10114.901974,3974.073109,13640.979068,-12888.596998,-17227.204708,8256.443829,10365.263863,12033.061628,-379.420862,2598.099720,16561.972089,10068.432697,5543.433791,0.008594,-0.017281,1.012250,192.000000,0.000000,0.000000,0.000000,0.000000,0.000000,0.000000,0.000000,0.000000,0.000000,1772009923.064007,0.000000
88.000000,4424.036077,11558.243520,5778.395328,10127.821282,3989.674627,13669.522246,-12877.599940,-17216.855850,8266.144486,10379.747794,12044.930404,-369.876667,2619.244471,16561.949737,10083.698938,5544.461971,0.008594,-0.017281,1.012250,192.000000,0.000000,0.000000,0.000000,0.000000,0.000000,0.000000,0.000000,0.000000,0.000000,1772009923.064018,0.000000
90.000000,4405.148852,11534.908299,5762.771459,10120.020523,3962.226684,13646.008211,-12888.708757,-17229.238716,8259.349556,10373.712823,12037.599032,-373.207077,2610.862566,16542.481368,10073.283025,5548.865265,0.014000,-0.016000,1.012000,192.000000,0.000000,56.000000,127.500000,64.000000,15.500000,80.000000,0.000000,0.000000,0.000000,1772009923.064034,0.000000
92.000000,4416.749408,11550.219244,5770.303997,10122.546270,3967.032309,13651.551444,-12878.046975,-17216.833498,8259.036631,10370.360061,12034.983878,-379.689083,2599.329066,16530.366722,10067.337461,5540.773933,0.014000,-0.016000,1.012000,192.000000,0.000000,0.000000,0.000000,0.000000,0.000000,0.000000,0.000000,0.000000,0.000000,1772009923.064045,0.000000
94.000000,4412.659039,11544.810122,5766.303035,10135.756151,3970.921513,13660.626252,-12879.902170,-17220.879164,8257.650823,10381.692395,12044.885700,-359.572513,2611.510767,16553.679592,10074.154743,5551.122791,0.014000,-0.016000,1.012000,192.000000,0.000000,0.000000,0.000000,0.000000,0.000000,0.000000,0.000000,0.000000,0.000000,1772009923.064056,0.000000
96.000000,4410.133291,11541.166787,5767.107697,10121.473386,3970.273312,13656.245310,-12887.568818,-17227.942315,8257.226140,10367.677852,12029.597107,-375.956342,2597.540927,16544.403618,10062.017746,5544.216102,0.014000,-0.016000,1.012000,192.000000,0.000000,0.000000,0.000000,0.000000,0.000000,0.000000,0.000000,0.000000,0.000000,1772009923.064066,0.000000
98.000000,4426.494768,11558.556444,5775.109622,10135.353820,3982.052682,13670.997461,-12877.376423,-17215.090062,8264.937492,10379.501924,12040.482407,-368.490859,2616.137578,16567.940005,10079.317996,5554.296738,0.014000,-0.016000,1.012000,192.000000,0.000000,0.000000,0.000000,0.000000,0.000000,0.000000,0.000000,0.000000,0.000000,1772009923.064077,0.000000
100.000000,4422.136178,11546.151226,5764.805468,10108.576430,3976.889429,13663.062592,-12889.580475,-17226.668266,8264.982195,10376.573846,12038.560157,-371.240124,2611.533119,16560.161598,10075.674662,5552.106267,0.010000,-0.024000,1.010000,192.000000,0.000000,40.000000,127.500000,32.000000,15.500000,72.000000,0.000000,0.000000,0.000000,1772009923.064087,0.000000
102.000000,4423.521986,11557.438857,5769.141706,10124.155596,3977.917609,13668.248197,-12879.879818,-17218.889859,8265.183361,10377.266750,12034.268622,-375.866935,2604.537023,16589.800011,10070.578464,5549.222892,0.010000,-0.024000,1.010000,192.000000,0.000000,0.000000,0.000000,0.000000,0.000000,0.000000,0.000000,0.000000,0.000000,1772009923.064098,0.000000
104.000000,4410.803844,11546.710020,5764.045508,10129.832939,3974.542496,13661.654432,-12882.405565,-17226.578859,8259.885998,10382.698224,12040.258889,-363.931103,2613.522424,16565.526016,10078.513334,5554.877884,0.010000,-0.024000,1.010000,192.000000,0.000000,0.000000,0.000000,0.000000,0.000000,0.000000,0.000000,0.000000,0.000000,1772009923.064108,0.000000
106.000000,4403.226602,11538.283412,5764.604302,10121.115759,3969.803926,13646.477598,-12886.339472,-17232.949106,8247.927814,10363.922759,12021.036389,-382.192478,2592.936467,16522.901240,10063.180037,5545.579558,0.010000,-0.024000,1.010000,192.000000,0.000000,0.000000,0.000000,0.000000,0.000000,0.000000,0.000000,0.000000,0.000000,1772009923.064119,0.000000
108.000000,4418.112864,11548.140532,5776.160154,10128.983573,3984.176097,13670.930406,-12876.951739,-17217.593457,8258.746059,10373.645767,12038.962488,-370.636627,2605.811072,16547.532862,10075.182924,5549.804038,0.010000,-0.024000,1.010000,192.000000,0.000000,0.000000,0.000000,0.000000,0.000000,0.000000,0.000000,0.000000,0.000000,1772009923.064130,0.000000
110.000000,4407.562841,11541.435008,5758.032889,10116.578354,3965.780612,13650.322098,-12888.485240,-17229.909269,8260.690661,10377.914951,12038.694267,-369.988426,2608.873261,16559.848673,10076.434621,5541.735058,0.008000,-0.018000,1.010000,192.000000,0.000000,32.000000,127.500000,56.000000,15.500000,72.000000,0.000000,0.000000,0.000000,1772009923.064141,0.000000
112.000000,4420.593908,11551.269776,5756.356508,10123.574450,3975.168344,13651.529092,-12880.796239,-17221.259144,8258.924873,10371.500000,12026.154938,-380.516098,2598.144424,16545.454150,10063.180037,5548.306471,0.008000,-0.018000,1.010000,192.000000,0.000000,0.000000,0.000000,0.000000,0.000000,0.000000,0.000000,0.000000,0.000000,1772009923.064151,0.000000
114.000000,4420.124521,11547.648793,5766.727718,10127.418950,3969.178077,13652.780789,-12880.952702,-17220.096853,8252.062887,10383.793459,12039.968317,-363.953455,2597.026837,16559.289880,10076.434621,5552.776820,0.008000,-0.018000,1.010000,192.000000,0.000000,0.000000,0.000000,0.000000,0.000000,0.000000,0.000000,0.000000,0.000000,1772009923.064162,0.000000
116.000000,4420.772722,11546.933537,5770.505163,10121.607497,3972.106155,13657.631118,-12883.456097,-17220.074501,8260.444791,10372.349366,12037.755494,-374.145850,2595.104586,16568.029412,10062.308319,5543.590253,0.008000,-0.018000,1.010000,192.000000,0.000000,0.000000,0.000000,0.000000,0.000000,0.000000,0.000000,0.000000,0.000000,1772009923.064172,0.000000
118.000000,4425.243071,11556.522436,5775.847229,10132.738666,3977.716443,13664.984842,-12875.342414,-17215.447690,8262.299986,10379.636035,12046.070343,-369.407281,2608.470930,16547.286993,10076.278159,5547.322994,0.008000,-0.018000,1.010000,192.000000,0.000000,0.000000,0.000000,0.000000,0.000000,0.000000,0.000000,0.000000,0.000000,1772009923.064182,0.000000
120.000000,4407.831062,11533.410732,5764.358433,10115.572526,3975.593028,13663.599034,-12888.105260,-17231.339780,8255.885036,10375.947997,12036.839072,-373.609409,2603.911174,16553.321964,10072.232493,5548.932320,0.008000,-0.016000,1.012000,192.000000,0.000000,32.000000,127.500000,64.000000,15.500000,80.000000,0.000000,0.000000,0.000000,1772009923.064193,0.000000
122.000000,4421.532681,11555.583662,5768.761726,10126.547232,3980.219839,13669.030508,-12879.566894,-17219.448652,8257.695527,10366.917892,12030.737046,-384.919391,2601.072502,16555.445380,10071.226665,5547.211235,0.008000,-0.016000,1.012000,192.000000,0.000000,0.000000,0.000000,0.000000,0.000000,0.000000,0.000000,0.000000,0.000000,1772009923.064215,0.000000
124.000000,4417.330553,11545.972412,5764.201971,10131.062285,3974.341330,13662.749667,-12882.114992,-17223.315504,8260.936530,10392.957675,12043.566947,-359.147830,2613.231851,16568.141171,10079.563866,5557.649500,0.008000,-0.016000,1.012000,192.000000,0.000000,0.000000,0.000000,0.000000,0.000000,0.000000,0.000000,0.000000,0.000000,1772009923.064225,0.000000
126.000000,4409.842719,11536.070590,5763.397308,10119.305267,3972.150859,13645.158845,-12886.227713,-17228.545812,8255.080373,10363.319261,12028.613630,-381.074891,2594.389331,16538.234536,10067.091592,5547.121828,0.008000,-0.016000,1.012000,192.000000,0.000000,0.000000,0.000000,0.000000,0.000000,0.000000,0.000000,0.000000,0.000000,1772009923.064235,0.000000
128.000000,4411.273230,11547.201758,5773.522648,10122.725084,3971.726176,13670.550426,-12875.856504,-17220.275667,8251.392335,10377.199695,12036.906128,-371.620103,2599.284363,16552.785522,10074.087688,5550.251073,0.008000,-0.016000,1.012000,192.000000,0.000000,0.000000,0.000000,0.000000,0.000000,0.000000,0.000000,0.000000,0.000000,1772009923.064245,0.000000
130.000000,4401.617277,11532.717828,5762.078555,10118.992343,3961.019690,13661.073287,-12888.574647,-17232.502071,8250.297099,10378.585503,12034.894471,-374.726996,2598.792624,16553.590185,10070.354947,5548.284119,0.004000,-0.016000,1.014000,192.000000,0.000000,16.000000,127.500000,64.000000,15.500000,88.000000,0.000000,0.000000,0.000000,1772009923.064256,0.000000
132.000000,4406.512309,11538.082247,5766.548904,10129.140035,3972.508487,13652.423162,-12882.830248,-17224.388388,8254.342765,10365.397974,12030.044142,-378.347978,2597.160947,16554.685420,10066.823371,5538.315241,0.004000,-0.016000,1.014000,192.000000,0.000000,0.000000,0.000000,0.000000,0.000000,0.000000,0.000000,0.000000,0.000000,1772009923.064266,0.000000
134.000000,4405.461777,11535.332982,5762.950273,10129.072980,3966.808792,13649.673897,-12883.232580,-17225.550678,8242.943375,10372.997567,12030.625287,-363.662882,2594.881069,16546.147054,10076.501677,5556.353099,0.004000,-0.016000,1.014000,192.000000,0.000000,0.000000,0.000000,0.000000,0.000000,0.000000,0.000000,0.000000,0.000000,1772009923.064278,0.000000
136.000000,4397.057521,11513.048293,5758.725793,10116.176023,3961.377318,13642.364877,-12888.082908,-17233.619658,8249.984175,10350.087029,12022.645715,-385.746406,2589.628409,16528.891507,10062.665947,5540.304546,0.004000,-0.016000,1.014000,192.000000,0.000000,0.000000,0.000000,0.000000,0.000000,0.000000,0.000000,0.000000,0.000000,1772009923.064288,0.000000
138.000000,4404.701818,11533.053104,5766.191276,10132.381038,3966.764088,13664.828380,-12875.655338,-17220.342722,8247.167855,10364.928587,12030.781750,-375.151679,2593.361150,16552.338487,10069.371470,5549.759334,0.004000,-0.016000,1.014000,192.000000,0.000000,0.000000,0.000000,0.000000,0.000000,0.000000,0.000000,0.000000,0.000000,1772009923.064299,0.000000
140.000000,4393.525945,11523.643020,5760.156305,10116.488947,3960.773821,13649.562138,-12887.971149,-17229.797510,8239.188282,10368.951901,12029.597107,-373.587057,2586.946200,16532.065455,10072.880694,5550.340480,0.006000,-0.018000,1.014000,192.000000,0.000000,24.000000,127.500000,56.000000,15.500000,88.000000,0.000000,0.000000,0.000000,1772009923.064310,0.000000
142.000000,4402.354884,11527.666334,5771.041604,10128.000096,3973.648426,13651.394981,-12882.316158,-17224.008408,8251.638204,10359.184189,12032.011096,-381.611333,2594.903421,16550.997383,10069.550284,5544.685488,0.006000,-0.018000,1.014000,192.000000,0.000000,0.000000,0.000000,0.000000,0.000000,0.000000,0.000000,0.000000,0.000000,1772009923.064320,0.000000
144.000000,4402.779568,11535.198872,5768.381747,10121.674552,3973.335501,13650.277394,-12881.645606,-17221.974399,8252.129942,10368.258997,12038.783674,-372.424766,2609.968497,16547.957545,10083.117793,5554.296738,0.006000,-0.018000,1.014000,192.000000,0.000000,0.000000,0.000000,0.000000,0.000000,0.000000,0.000000,0.000000,0.000000,1772009923.064338,0.000000
146.000000,4396.744597,11518.569174,5762.637348,10124.848500,3956.884617,13657.675822,-12883.791373,-17225.953010,8253.828675,10368.147238,12029.619459,-379.845545,2593.428206,16545.655316,10065.795191,5544.372564,0.006000,-0.018000,1.014000,192.000000,0.000000,0.000000,0.000000,0.000000,0.000000,0.000000,0.000000,0.000000,0.000000,1772009923.064349,0.000000
148.000000,4405.551184,11527.934555,5769.409927,10129.944698,3974.430737,13645.002382,-12875.431821,-17218.822803,8252.912253,10361.084087,12035.073285,-375.956342,2600.133729,16554.931290,10074.110040,5552.888579,0.006000,-0.018000,1.014000,192.000000,0.000000,0.000000,0.000000,0.000000,0.000000,0.000000,0.000000,0.000000,0.000000,1772009923.064359,0.000000
150.000000,4399.963248,11521.229031,5762.324424,10124.222651,3963.232513,13666.169484,-12886.294769,-17225.416568,8258.790762,10363.900407,12039.230709,-372.894153,2602.815938,16545.655316,10070.869037,5548.395878,0.010000,-0.014000,1.018000,192.000000,0.000000,40.000000,127.500000,72.000000,15.500000,104.000000,0.000000,0.000000,0.000000,1772009923.064370,0.000000
152.000000,4407.182861,11531.667296,5774.148497,10126.323715,3976.576504,13660.715659,-12880.639777,-17220.812109,8260.623605,10362.916930,12036.906128,-377.498612,2597.317409,16554.864234,10067.583331,5548.328823,0.010000,-0.014000,1.018000,192.000000,0.000000,0.000000,0.000000,0.000000,0.000000,0.000000,0.000000,0.000000,0.000000,1772009923.064381,0.000000
154.000000,4400.142062,11520.446720,5770.639273,10122.568622,3971.994397,13656.982917,-12883.590208,-17227.160004,8263.752850,10372.304663,12045.958584,-371.664807,2613.343610,16576.232502,10082.983683,5553.313262,0.010000,-0.014000,1.018000,192.000000,0.000000,0.000000,0.000000,0.000000,0.000000,0.000000,0.000000,0.000000,0.000000,1772009923.064392,0.000000
156.000000,4390.463756,11513.629438,5758.479924,10121.585145,3969.491001,13648.578662,-12889.803992,-17236.815958,8253.739268,10350.489360,12023.942116,-390.797900,2593.495261,16529.271487,10064.923473,5551.480419,0.010000,-0.014000,1.018000,192.000000,0.000000,0.000000,0.000000,0.000000,0.000000,0.000000,0.000000,0.000000,0.000000,1772009923.064402,0.000000
158.000000,4403.718341,11528.582755,5766.861828,10133.565680,3982.544420,13672.249159,-12879.946873,-17225.997713,8260.467143,10366.023823,12029.418293,-377.990350,2606.749845,16546.705848,10077.194581,5556.822486,0.010000,-0.014000,1.018000,192.000000,0.000000,0.000000,0.000000,0.000000,0.000000,0.000000,0.000000,0.000000,0.000000,1772009923.064413,0.000000
160.000000,4400.946725,11519.642057,5765.587779,10113.382055,3967.904027,13646.790522,-12890.966283,-17234.513728,8257.807286,10369.063660,12036.772017,-379.644380,2601.564241,16548.181063,10074.869999,5555.615491,0.007000,-0.016000,1.015000,192.000000,0.000000,16.000000,127.500000,56.000000,15.500000,80.000000,0.000000,0.000000,0.000000,1772009923.064423,0.000000
162.000000,4405.014742,11524.827662,5769.365224,10125.027314,3973.022577,13657.005269,-12885.668920,-17230.870394,8257.717879,10357.820732,12030.938212,-382.326589,2593.830537,16563.670822,10068.745621,5550.474590,0.007000,-0.016000,1.015000,192.000000,0.000000,0.000000,0.000000,0.000000,0.000000,0.000000,0.000000,0.000000,0.000000,1772009923.064433,0.000000
164.000000,4391.938972,11516.781034,5764.537247,10128.625945,3969.222780,13661.676784,-12887.367652,-17235.832481,8258.544893,10365.733250,12038.515453,-377.789185,2608.761502,16566.420086,10082.335482,5560.398765,0.007000,-0.016000,1.015000,192.000000,0.000000,0.000000,0.000000,0.000000,0.000000,0.000000,0.000000,0.000000,0.000000,1772009923.064443,0.000000
166.000000,4386.351035,11509.069682,5753.964872,10126.301363,3952.481324,13658.636947,-12892.352091,-17242.046266,8243.368059,10353.842122,12016.051950,-384.360598,2585.582743,16533.026580,10064.297624,5547.747677,0.007000,-0.016000,1.015000,192.000000,0.000000,0.000000,0.000000,0.000000,0.000000,0.000000,0.000000,0.000000,0.000000,1772009923.064454,0.000000
168.000000,4403.830100,11530.862633,5764.380785,10124.826148,3968.239304,13661.967356,-12882.226751,-17229.529289,8245.983213,10369.443639,12024.277392,-369.831964,2587.348531,16553.187853,10066.868075,5555.347270,0.007000,-0.016000,1.015000,192.000000,0.000000,0.000000,0.000000,0.000000,0.000000,0.000000,0.000000,0.000000,0.000000,1772009923.064464,0.000000
170.000000,4391.424881,11512.713017,5759.463401,10122.747436,3963.299568,13638.989763,-12892.955588,-17242.448597,8252.912253,10370.717689,12027.808968,-373.654112,2595.551621,16560.966261,10074.780592,5550.318128,0.007500,-0.019000,1.012500,192.000000,0.000000,32.000000,127.500000,40.000000,15.500000,72.000000,0.000000,0.000000,0.000000,1772009923.064475,0.000000
172.000000,4406.914640,11527.778092,5770.214590,10125.228480,3959.209199,13661.408563,-12885.780678,-17229.283420,8261.450620,10359.094782,12029.217127,-387.825118,2593.450557,16551.600880,10069.416174,5545.333689,0.007500,-0.019000,1.012500,192.000000,0.000000,0.000000,0.000000,0.000000,0.000000,0.000000,0.000000,0.000000,0.000000,1772009923.064485,0.000000
174.000000,4400.454986,11519.686761,5766.012462,10125.742570,3969.803926,13643.594222,-12886.831210,-17233.709065,8260.914178,10373.824581,12040.370648,-367.775603,2601.206613,16563.693173,10082.648406,5554.877884,0.007500,-0.019000,1.012500,192.000000,0.000000,0.000000,0.000000,0.000000,0.000000,0.000000,0.000000,0.000000,0.000000,1772009923.064496,0.000000
176.000000,4390.977847,11515.663447,5754.858941,10124.624982,3944.948786,13637.358086,-12890.072213,-17239.140539,8244.619756,10354.579729,12017.080130,-382.639513,2579.704235,16522.923591,10067.806848,5544.126695,0.007500,-0.019000,1.012500,192.000000,0.000000,0.000000,0.000000,0.000000,0.000000,0.000000,0.000000,0.000000,0.000000,1772009923.064506,0.000000
178.000000,4394.285905,11527.956906,5761.273892,10137.790160,3969.111022,13666.638871,-12880.796239,-17230.959801,8243.233948,10370.985910,12022.578659,-368.244990,2582.989941,16545.945888,10069.997319,5555.682547,0.007500,-0.019000,1.012500,192.000000,0.000000,0.000000,0.000000,0.000000,0.000000,0.000000,0.000000,0.000000,0.000000,1772009923.544146,0.000000
180.000000,4388.809727,11509.136737,5755.708308,10119.573488,3954.492981,13662.749667,-12891.927408,-17240.928679,8240.730553,10368.571921,12024.009171,-375.017568,2583.861659,16572.142133,10070.578464,5555.079049,0.009750,-0.019500,1.009250,192.000000,0.000000,48.000000,127.500000,48.000000,15.500000,56.000000,0.000000,0.000000,0.000000,1772009923.544210,0.000000
182.000000,4402.377236,11523.240688,5764.917226,10127.776578,3969.267484,13654.725391,-12884.104298,-17231.429187,8250.565320,10360.368831,12026.467863,-387.042807,2586.923848,16561.256833,10066.555150,5547.859436,0.009750,-0.019500,1.009250,192.000000,0.000000,0.000000,0.000000,0.000000,0.000000,0.000000,0.000000,0.000000,0.000000,1772009923.544261,0.000000
184.000000,4401.282001,11524.715903,5760.916264,10131.062285,3960.796173,13656.468827,-12882.025585,-17227.919963,8255.035669,10380.574808,12040.124779,-364.959283,2601.810110,16550.527996,10075.629959,5557.470686,0.009750,-0.019500,1.009250,192.000000,0.000000,0.000000,0.000000,0.000000,0.000000,0.000000,0.000000,0.000000,0.000000,1772009923.544311,0.000000
186.000000,4388.005064,11515.506985,5755.395383,10119.685247,3950.089687,13642.722504,-12886.719452,-17234.334914,8244.731515,10366.470857,12022.601011,-375.844583,2581.425319,16545.051818,10059.626110,5545.557206,0.009750,-0.019500,1.009250,192.000000,0.000000,0.000000,0.000000,0.000000,0.000000,0.000000,0.000000,0.000000,0.000000,1772009923.544353,0.000000
188.000000,4403.807748,11532.784883,5765.207799,10126.077846,3953.509504,13648.779827,-12875.454173,-17218.576934,8249.023050,10372.930512,12031.206433,-368.624970,2590.768348,16562.620290,10067.091592,5545.937186,0.009750,-0.019500,1.009250,192.000000,0.000000,0.000000,0.000000,0.000000,0.000000,0.000000,0.000000,0.000000,0.000000,1772009923.544395,0.000000
190.000000,4391.626047,11512.534203,5756.736488,10116.868927,3951.363737,13631.412522,-12890.563952,-17235.854833,8247.749001,10369.398936,12032.502834,-371.843621,2586.812089,16551.153845,10062.777706,5543.165570,0.008875,-0.019750,1.009625,192.000000,0.000000,32.000000,127.500000,48.000000,15.500000,72.000000,0.000000,0.000000,0.000000,1772009923.544439,0.000000
192.000000,4403.003085,11535.131816,5763.464363,10131.084637,3938.936167,13646.522301,-12883.679615,-17225.997713,8254.365117,10371.991738,12030.580584,-377.588019,2585.247467,16543.196624,10060.229607,5538.941090,0.008875,-0.019750,1.009625,192.000000,0.000000,0.000000,0.000000,0.000000,0.000000,0.000000,0.000000,0.000000,0.000000,1772009923.544483,0.000000
194.000000,4394.911754,11524.693552,5757.921130,10128.849462,3955.208237,13652.914900,-12886.294769,-17227.472928,8249.268919,10378.205523,12034.112160,-366.769775,2590.276610,16544.694191,10071.740755,5552.262730,0.008875,-0.019750,1.009625,192.000000,0.000000,0.000000,0.000000,0.000000,0.000000,0.000000,0.000000,0.000000,0.000000,1772009923.544525,0.000000
196.000000,4394.554126,11521.005514,5756.177694,10121.451035,3950.804943,13634.340600,-12887.926446,-17225.774196,8243.099838,10366.403802,12023.316267,-375.464603,2574.362168,16544.604784,10059.290833,5537.979965,0.008875,-0.019750,1.009625,192.000000,0.000000,0.000000,0.000000,0.000000,0.000000,0.000000,0.000000,0.000000,0.000000,1772009923.544567,0.000000
198.000000,4406.065274,11530.035619,5765.945407,10133.297459,3952.347213,13658.234615,-12878.315196,-17215.984132,8250.610024,10378.518448,12037.174348,-363.662882,2591.461252,16560.407467,10063.068278,5540.103381,0.008875,-0.019750,1.009625,192.000000,0.000000,0.000000,0.000000,0.000000,0.000000,0.000000,0.000000,0.000000,0.000000,1772009923.544588,0.000000
200.000000,4384.987579,11508.421482,5753.920168,10118.433549,3946.938091,13643.460112,-12892.620312,-17234.156100,8249.000698,10365.822657,12035.386209,-368.312045,2584.442804,16546.415275,10061.481304,5544.104343,0.007438,-0.017875,1.013813,192.000000,0.000000,24.000000,127.500000,64.000000,15.500000,104.000000,0.000000,0.000000,0.000000,1772009923.544598,0.000000
202.000000,4398.465681,11516.959848,5760.648043,10121.428683,3967.747565,13639.973240,-12887.367652,-17227.517632,8242.541044,10349.192959,12024.009171,-381.968961,2578.385482,16546.191757,10065.146990,5543.120866,0.007438,-0.017875,1.013813,192.000000,0.000000,0.000000,0.000000,0.000000,0.000000,0.000000,0.000000,0.000000,0.000000,1772009923.544609,0.000000
204.000000,4401.304352,11531.555537,5756.870598,10129.542366,3948.033327,13646.187025,-12885.020719,-17220.633295,8254.521579,10372.371718,12043.343430,-361.338301,2589.539002,16550.840920,10073.841819,5551.770991,0.007438,-0.017875,1.013813,192.000000,0.000000,0.000000,0.000000,0.000000,0.000000,0.000000,0.000000,0.000000,0.000000,1772009923.544619,0.000000
206.000000,4399.583268,11532.986049,5751.997918,10127.955392,3915.802111,13634.094731,-12887.054728,-17220.275667,8250.408858,10373.578712,12032.636944,-362.880571,2574.786851,16542.213147,10043.242281,5538.404648,0.007438,-0.017875,1.013813,192.000000,0.000000,0.000000,0.000000,0.000000,0.000000,0.000000,0.000000,0.000000,0.000000,1772009923.544629,0.000000
208.000000,4414.514233,11551.135665,5760.357471,10139.980631,3914.326896,13654.859502,-12875.968263,-17205.858792,8258.343727,10395.773994,12043.410485,-346.496743,2585.940371,16575.561950,10047.913795,5534.001354,0.007438,-0.017875,1.013813,192.000000,0.000000,0.000000,0.000000,0.000000,0.000000,0.000000,0.000000,0.000000,0.000000,1772009923.544639,0.000000
210.000000,4405.685294,11540.317421,5755.350680,10121.205166,3917.903175,13611.944152,-12888.395833,-17217.414643,8261.540027,10402.814794,12047.925538,-344.350975,2585.940371,16554.752476,10042.683487,5531.587366,0.005719,-0.015938,1.014906,192.000000,0.000000,16.000000,127.500000,72.000000,15.500000,96.000000,0.000000,0.000000,0.000000,1772009923.544649,0.000000
212.000000,4401.997257,11531.868462,5763.017328,10116.846575,3949.732059,13622.628286,-12886.920617,-17221.929696,8252.845198,10384.195791,12035.296802,-361.852391,2573.870429,16552.427894,10045.522159,5524.837139,0.005719,-0.015938,1.014906,192.000000,0.000000,0.000000,0.000000,0.000000,0.000000,0.000000,0.000000,0.000000,0.000000,1772009923.544659,0.000000
214.000000,4392.542469,11524.693552,5761.139782,10116.310133,3953.643614,13632.865385,-12888.865219,-17226.914135,8251.057059,10383.368776,12040.929442,-361.740632,2599.552584,16555.355973,10069.125601,5538.494055,0.005719,-0.015938,1.014906,192.000000,0.000000,0.000000,0.000000,0.000000,0.000000,0.000000,0.000000,0.000000,0.000000,1772009923.544669,0.000000
216.000000,4388.809727,11519.105616,5756.401212,10109.604610,3954.627091,13600.969446,-12894.274341,-17230.311600,8243.524521,10373.288139,12027.876023,-370.502516,2578.877220,16527.930382,10052.719421,5531.743828,0.005719,-0.015938,1.014906,192.000000,0.000000,0.000000,0.000000,0.000000,0.000000,0.000000,0.000000,0.000000,0.000000,1772009923.544679,0.000000
218.000000,4414.715399,11543.916052,5761.877389,10131.688134,3939.830236,13657.541711,-12882.450269,-17212.229039,8248.978346,10381.714747,12040.415351,-361.025376,2589.136671,16539.687400,10053.792304,5536.392991,0.005719,-0.015938,1.014906,192.000000,0.000000,0.000000,0.000000,0.000000,0.000000,0.000000,0.000000,0.000000,0.000000,1772009923.544702,0.000000
220.000000,4415.832986,11544.631308,5751.215607,10119.171157,3927.514425,13652.691382,-12893.089699,-17221.035626,8258.544893,10403.977085,12044.706886,-349.625987,2583.682845,16575.919578,10042.482322,5527.899328,0.004859,-0.014969,1.012453,192.000000,0.000000,16.000000,127.500000,72.000000,15.500000,72.000000,0.000000,0.000000,0.000000,1772009923.544712,0.000000
222.000000,4392.318951,11526.682857,5752.243787,10115.326657,3943.093591,13654.211301,-12891.078042,-17229.328123,8253.269881,10384.486363,12028.278354,-371.754214,2570.249447,16553.389019,10032.848720,5529.709820,0.004859,-0.014969,1.012453,192.000000,0.000000,0.000000,0.000000,0.000000,0.000000,0.000000,0.000000,0.000000,0.000000,1772009923.544722,0.000000
224.000000,4384.898172,11522.950116,5750.321537,10111.482157,3946.446353,13649.696249,-12890.832173,-17225.573030,8248.553663,10384.665177,12034.670953,-368.915542,2586.052130,16539.150958,10053.457028,5531.296793,0.004859,-0.014969,1.012453,192.000000,0.000000,0.000000,0.000000,0.000000,0.000000,0.000000,0.000000,0.000000,0.000000,1772009923.544732,0.000000
226.000000,4398.979771,11528.336886,5739.235072,10113.270296,3920.563033,13636.911051,-12897.269475,-17226.109472,8240.350573,10378.607855,12026.087883,-367.283865,2563.521572,16548.382228,10028.579537,5528.055790,0.004859,-0.014969,1.012453,192.000000,0.000000,0.000000,0.000000,0.000000,0.000000,0.000000,0.000000,0.000000,0.000000,1772009923.544742,0.000000
228.000000,4406.355847,11542.418485,5748.645156,10116.064264,3953.397745,13629.780844,-12891.860353,-17222.220269,8247.883111,10383.636997,12031.921689,-365.406318,2577.312598,16530.143205,10039.576595,5530.849758,0.004859,-0.014969,1.012453,192.000000,0.000000,0.000000,0.000000,0.000000,0.000000,0.000000,0.000000,0.000000,0.000000,1772009923.544752,0.000000
230.000000,4372.068271,11513.920011,5737.670450,10105.491889,3942.624204,13623.231783,-12904.511440,-17237.017123,8233.220367,10374.919817,12022.757473,-368.669673,2567.880162,16517.693283,10048.047906,5529.106322,0.004859,-0.014969,1.012453,192.000000,0.000000,0.000000,0.000000,0.000000,0.000000,0.000000,0.000000,0.000000,0.000000,1772009923.544762,0.000000
232.000000,4393.257724,11542.597299,5748.980433,10114.074959,3917.657306,13654.568929,-12894.609618,-17221.773234,8239.322393,10376.864419,12022.802177,-370.323702,2563.722737,16530.031446,10031.485263,5526.357058,0.004000,-0.016000,1.006000,192.000000,0.000000,16.000000,127.500000,64.000000,15.500000,56.000000,0.000000,0.000000,0.000000,1772009923.544772,0.000000
234.000000,4407.696951,11538.864558,5751.752049,10097.557020,3948.614472,13660.760362,-12896.330702,-17218.599286,8257.203788,10409.386207,12043.656354,-355.504496,2607.040418,16578.422973,10048.204368,5520.590308,0.004000,-0.016000,1.006000,192.000000,0.000000,0.000000,0.000000,0.000000,0.000000,0.000000,0.000000,0.000000,0.000000,1772009923.544782,0.000000
236.000000,4367.061480,11495.144545,5743.191331,10115.639581,3927.112094,13617.420330,-12905.204344,-17237.352400,8248.955995,10378.473744,12021.639886,-373.564705,2572.976359,16523.929420,10032.044057,5526.714686,0.004000,-0.016000,1.006000,192.000000,0.000000,0.000000,0.000000,0.000000,0.000000,0.000000,0.000000,0.000000,0.000000,1772009923.544792,0.000000
