Sample_index,EXG Channel 0,EXG Channel 1,EXG Channel 2,EXG Channel 3,EXG Channel 4,EXG Channel 5,EXG Channel 6,EXG Channel 7,EXG Channel 8,EXG Channel 9,EXG Channel 10,EXG Channel 11,EXG Channel 12,EXG Channel 13,EXG Channel 14,EXG Channel 15,Accel Channel 0,Accel Channel 1,Accel Channel 2,Not Used,Digital Channel 0 (D11),Digital Channel 1 (D12),Digital Channel 2 (D13),Digital Channel 3 (D17),Not Used,Digital Channel 4 (D18),Analog Channel 0,Analog Channel 1,Analog Channel 2,Timestamp,Marker Channel
88.000000,2854.138953,-5860.135658,597.350371,4038.110857,-4311.740912,13242.760389,-13574.169704,-8795.165574,2212.398018,2876.110718,-506.825806,-896.751988,16665.550073,13518.223288,-473.208782,-14912.659217,-0.004000,-0.024000,1.010000,192.000000,0.000000,0.000000,0.000000,0.000000,0.000000,0.000000,0.000000,0.000000,0.000000,1771414700.753129,101.000000
90.000000,2817.795017,-5892.366873,562.258132,4017.591955,-4246.540874,13226.778892,-13616.839184,-8828.492025,2270.669016,2926.804474,-463.664587,-854.060156,16712.332274,13545.782989,-614.158882,-18310.929037,-0.004000,-0.024000,1.010000,192.000000,0.000000,0.000000,0.000000,0.000000,0.000000,0.000000,0.000000,0.000000,0.000000,1771414700.753210,0.000000
92.000000,2799.332476,-5912.818719,557.921893,4022.866967,-4266.568037,13234.244375,-13637.000458,-8849.189740,2180.099747,2857.245845,-508.256317,-909.336020,16592.728089,13481.588779,-379.778490,-15845.978659,-0.004000,-0.024000,1.010000,192.000000,0.000000,0.000000,0.000000,0.000000,0.000000,0.000000,0.000000,0.000000,0.000000,1771414700.753264,0.000000
94.000000,2880.715177,-5827.926794,607.140435,4047.766810,-4297.927534,13277.383241,-13557.540006,-8774.691376,2241.276472,2923.049381,-448.130125,-857.725842,16677.821181,13544.464236,-611.387266,-16496.861457,-0.004000,-0.020000,1.012000,192.000000,127.500000,112.000000,127.500000,48.000000,15.500000,80.000000,0.000000,0.000000,0.000000,1771414700.753314,0.000000
96.000000,2770.476373,-5940.311365,528.685812,4016.407313,-4234.292118,13234.959630,-13662.056763,-8875.654206,2237.387268,2900.205898,-484.116433,-880.390511,16656.698782,13526.627544,-486.418663,-17937.654905,-0.004000,-0.020000,1.012000,192.000000,0.000000,0.000000,0.000000,0.000000,0.000000,0.000000,0.000000,0.000000,0.000000,1771414700.753369,0.000000
98.000000,2861.760898,-5845.003527,604.279411,4045.129305,-4314.356067,13271.504733,-13573.163876,-8792.930400,2198.048198,2875.261351,-502.310753,-900.171804,16613.783433,13507.852078,-474.326369,-14935.748569,-0.004000,-0.020000,1.012000,192.000000,0.000000,0.000000,0.000000,0.000000,0.000000,0.000000,0.000000,0.000000,0.000000,1771414700.753423,0.000000
100.000000,2814.822234,-5891.115176,561.632283,4015.736761,-4248.463124,13225.191918,-13622.740045,-8837.209205,2278.223905,2939.142637,-458.970721,-848.382813,16695.613169,13552.555567,-624.418333,-18338.980477,-0.004000,-0.020000,1.012000,192.000000,0.000000,0.000000,0.000000,0.000000,0.000000,0.000000,0.000000,0.000000,0.000000,1771414700.753460,0.000000
102.000000,2795.130348,-5912.483443,542.678004,4026.778522,-4256.330938,13211.892630,-13643.370705,-8856.632871,2182.960770,2856.575293,-519.074561,-916.935613,16618.454947,13493.882238,-389.725016,-15861.580177,-0.004000,-0.020000,1.012000,192.000000,0.000000,0.000000,0.000000,0.000000,0.000000,0.000000,0.000000,0.000000,0.000000,1771414700.753480,0.000000
104.000000,2886.951314,-5818.807282,620.260909,4046.805685,-4278.079185,13238.915889,-13555.237777,-8771.875056,2250.999481,2931.297175,-454.612130,-854.037804,16696.976626,13549.448675,-614.941193,-16486.892579,-0.004000,-0.024000,1.008000,192.000000,127.500000,112.000000,127.500000,32.000000,15.500000,64.000000,0.000000,0.000000,0.000000,1771414700.753498,0.000000
106.000000,2782.814536,-5928.397885,539.146428,4009.232403,-4204.720760,13195.978188,-13659.821589,-8871.429726,2236.649661,2896.294343,-469.677206,-875.964865,16660.006840,13520.234945,-470.794793,-17955.759818,-0.004000,-0.024000,1.008000,192.000000,0.000000,0.000000,0.000000,0.000000,0.000000,0.000000,0.000000,0.000000,0.000000,1771414700.753514,0.000000
108.000000,2879.664645,-5833.626489,612.236632,4045.442229,-4287.377511,13234.244375,-13568.939396,-8782.156859,2242.528169,2874.344930,-488.676189,-892.393397,16648.227471,13506.958009,-463.619883,-14925.265601,-0.004000,-0.024000,1.008000,192.000000,0.000000,0.000000,0.000000,0.000000,0.000000,0.000000,0.000000,0.000000,0.000000,1771414700.753531,0.000000
110.000000,2837.486903,-5868.383452,573.501059,4024.476293,-4219.607022,13213.948991,-13611.050083,-8815.237440,2278.872106,2946.652823,-423.565557,-833.921234,16712.824012,13553.047306,-620.439723,-18309.297360,-0.004000,-0.024000,1.008000,192.000000,0.000000,0.000000,0.000000,0.000000,0.000000,0.000000,0.000000,0.000000,0.000000,1771414700.753549,0.000000
112.000000,2803.109920,-5900.368798,557.363100,4024.543348,-4245.423287,13205.880011,-13638.587432,-8846.328717,2234.392134,2871.796831,-508.725704,-904.418636,16633.050636,13498.866677,-392.362522,-15868.173941,-0.004000,-0.024000,1.008000,192.000000,0.000000,0.000000,0.000000,0.000000,0.000000,0.000000,0.000000,0.000000,0.000000,1771414700.753568,0.000000
114.000000,2883.129166,-5821.824768,619.255080,4037.887339,-4281.409595,13236.188976,-13561.585672,-8774.624321,2244.048088,2933.621756,-449.560636,-857.055289,16687.454782,13527.767483,-611.879004,-16463.490303,-0.006000,-0.026000,1.004000,192.000000,127.500000,104.000000,127.500000,24.000000,15.500000,48.000000,0.000000,0.000000,0.000000,1771414700.753585,0.000000
116.000000,2776.332531,-5925.916842,529.602233,4010.282935,-4213.884975,13214.373674,-13664.627214,-8870.960339,2229.228882,2902.999866,-479.467270,-882.201002,16646.640497,13526.225212,-481.501279,-17956.497426,-0.006000,-0.026000,1.004000,192.000000,0.000000,0.000000,0.000000,0.000000,0.000000,0.000000,0.000000,0.000000,0.000000,1771414700.753603,0.000000
118.000000,2871.238037,-5830.519596,604.033542,4049.487895,-4300.475633,13259.032459,-13572.158047,-8783.207391,2229.698268,2889.231192,-501.014352,-891.633438,16638.549166,13507.069767,-522.919062,-14937.112026,-0.006000,-0.026000,1.004000,192.000000,0.000000,0.000000,0.000000,0.000000,0.000000,0.000000,0.000000,0.000000,0.000000,1771414700.753621,0.000000
120.000000,2820.633688,-5877.324149,565.432079,4020.989421,-4233.241586,13224.230793,-13616.839184,-8826.145092,2284.460042,2945.714050,-444.553845,-844.471257,16720.311847,13541.178529,-683.069311,-18353.598518,-0.006000,-0.026000,1.004000,192.000000,0.000000,0.000000,0.000000,0.000000,0.000000,0.000000,0.000000,0.000000,0.000000,1771414700.753640,0.000000
122.000000,2797.298467,-5905.666161,542.901521,4026.465598,-4252.173513,13228.701142,-13642.588394,-8852.453095,2193.354332,2860.978587,-511.340858,-915.549805,16612.352921,13491.825878,-457.249636,-15924.343875,-0.006000,-0.026000,1.004000,192.000000,0.000000,0.000000,0.000000,0.000000,0.000000,0.000000,0.000000,0.000000,0.000000,1771414700.753657,0.000000
124.000000,2873.584971,-5827.770332,607.207490,4036.725049,-4296.273505,13276.377413,-13565.899559,-8779.765222,2252.988786,2920.724800,-461.250599,-865.437194,16693.445050,13523.900631,-690.512441,-16461.478646,-0.002000,-0.026000,1.010000,192.000000,127.500000,120.000000,127.500000,24.000000,15.500000,72.000000,0.000000,0.000000,0.000000,1771414700.753675,0.000000
126.000000,2770.074042,-5931.616537,531.077448,4003.376246,-4219.450560,13214.217212,-13668.561121,-8872.212037,2224.780884,2897.367227,-479.444919,-885.129080,16672.277948,13507.919134,-566.214391,-17940.694742,-0.002000,-0.026000,1.010000,192.000000,0.000000,0.000000,0.000000,0.000000,0.000000,0.000000,0.000000,0.000000,0.000000,1771414700.753693,0.000000
128.000000,2858.810468,-5845.249396,595.852804,4040.636604,-4287.712787,13250.404686,-13578.863571,-8787.230705,2219.863501,2876.267180,-497.929811,-905.089188,16644.986468,13502.934695,-550.970501,-14901.036310,-0.002000,-0.026000,1.010000,192.000000,0.000000,0.000000,0.000000,0.000000,0.000000,0.000000,0.000000,0.000000,0.000000,1771414700.753710,0.000000
130.000000,2817.571499,-5885.974274,573.366949,4014.172138,-4239.254205,13225.929526,-13621.689513,-8822.389999,2267.360958,2931.744210,-434.964947,-852.093202,16693.713271,13545.000678,-707.611526,-18315.421738,-0.002000,-0.026000,1.010000,192.000000,0.000000,0.000000,0.000000,0.000000,0.000000,0.000000,0.000000,0.000000,0.000000,1771414700.753728,0.000000
132.000000,2789.497708,-5909.018923,549.741155,4024.073961,-4252.486438,13248.348325,-13643.549519,-8843.378287,2221.361067,2859.503372,-508.390428,-915.169825,16621.494785,13486.304997,-480.048416,-15933.463387,-0.002000,-0.026000,1.010000,192.000000,0.000000,0.000000,0.000000,0.000000,0.000000,0.000000,0.000000,0.000000,0.000000,1771414700.753746,0.000000
134.000000,2870.545133,-5832.352439,618.159845,4038.222616,-4287.623380,13274.544570,-13559.663422,-8763.984890,2250.887722,2925.128093,-443.436258,-859.938664,16730.057207,13536.909346,-696.882689,-16469.994661,-0.002000,-0.024000,1.011000,192.000000,127.500000,120.000000,127.500000,40.000000,15.500000,80.000000,0.000000,0.000000,0.000000,1771414700.753762,0.000000
136.000000,2767.458888,-5934.164635,537.537102,4010.551156,-4220.232871,13242.268651,-13662.101467,-8854.710621,2237.208454,2899.602401,-464.625712,-877.261266,16655.469436,13511.160137,-561.140545,-18014.231982,-0.002000,-0.024000,1.011000,192.000000,0.000000,0.000000,0.000000,0.000000,0.000000,0.000000,0.000000,0.000000,0.000000,1771414700.753780,0.000000
138.000000,2857.111735,-5840.466123,609.755589,4043.184703,-4290.462052,13270.588311,-13572.515675,-8770.153972,2230.458227,2880.715177,-481.210706,-893.332171,16671.920320,13505.818070,-543.616777,-14971.019622,-0.002000,-0.024000,1.011000,192.000000,0.000000,0.000000,0.000000,0.000000,0.000000,0.000000,0.000000,0.000000,0.000000,1771414700.753798,0.000000
140.000000,2806.753255,-5891.741024,571.221181,4011.668743,-4221.976307,13234.423188,-13620.638981,-8817.584374,2272.479507,2940.439038,-432.059220,-844.806533,16717.920210,13550.588614,-691.339456,-18380.733535,-0.002000,-0.024000,1.011000,192.000000,0.000000,0.000000,0.000000,0.000000,0.000000,0.000000,0.000000,0.000000,0.000000,1771414700.753814,0.000000
142.000000,2769.559952,-5928.531996,538.967614,4011.065246,-4258.566112,13218.709912,-13655.977089,-8856.208188,2202.742064,2846.494656,-523.276689,-926.546863,16618.678465,13483.443973,-461.854096,-15977.496323,-0.002000,-0.024000,1.011000,192.000000,0.000000,0.000000,0.000000,0.000000,0.000000,0.000000,0.000000,0.000000,0.000000,1771414700.753833,0.000000
144.000000,2865.828915,-5828.195015,613.153054,4041.597729,-4295.871174,13284.424041,-13568.827637,-8771.405670,2229.854730,2914.935698,-453.002805,-872.522697,16687.611245,13526.851061,-692.524098,-16450.213367,0.003000,-0.023000,1.009500,192.000000,0.000000,32.000000,127.500000,40.000000,15.500000,64.000000,0.000000,0.000000,0.000000,1771414700.753851,0.000000
146.000000,2766.989501,-5922.094693,534.720783,4017.010810,-4216.120150,13232.366828,-13671.288034,-8864.277168,2227.977184,2911.895861,-465.810354,-879.719958,16671.093305,13519.922020,-554.144449,-18003.547848,0.003000,-0.023000,1.009500,192.000000,0.000000,0.000000,0.000000,0.000000,0.000000,0.000000,0.000000,0.000000,0.000000,1771414700.753867,0.000000
148.000000,2844.505351,-5854.055983,599.540842,4049.934930,-4300.900316,13269.940110,-13583.266864,-8787.454222,2232.648698,2878.614113,-498.041570,-903.591621,16681.710384,13491.378843,-538.609986,-14928.528956,0.003000,-0.023000,1.009500,192.000000,0.000000,0.000000,0.000000,0.000000,0.000000,0.000000,0.000000,0.000000,0.000000,1771414700.753885,0.000000
150.000000,2795.085644,-5900.078225,572.919914,4020.631793,-4229.508845,13257.847817,-13618.247344,-8818.433740,2241.723507,2915.650954,-433.445028,-862.017377,16716.914382,13521.240773,-706.717456,-18318.215706,0.003000,-0.023000,1.009500,192.000000,0.000000,0.000000,0.000000,0.000000,0.000000,0.000000,0.000000,0.000000,0.000000,1771414700.753903,0.000000
152.000000,2794.750368,-5887.740062,557.676024,4033.126418,-4240.192978,13255.813808,-13641.917842,-8839.489083,2192.907297,2884.872602,-497.035741,-908.486653,16651.244956,13492.854058,-473.633465,-15968.913253,0.003000,-0.023000,1.009500,192.000000,0.000000,0.000000,0.000000,0.000000,0.000000,0.000000,0.000000,0.000000,0.000000,1771414700.753919,0.000000
154.000000,2872.042700,-5831.123094,633.090810,4043.542331,-4272.133621,13278.322015,-13560.736306,-8766.264768,2287.119900,2936.683945,-444.643252,-859.044595,16710.767652,13541.513806,-691.384159,-16447.799378,0.003500,-0.024500,1.006750,192.000000,0.000000,16.000000,127.500000,24.000000,15.500000,48.000000,0.000000,0.000000,0.000000,1771414700.753938,0.000000
156.000000,2771.593961,-5936.891548,551.037556,4007.287801,-4191.644989,13244.749694,-13664.940138,-8862.891360,2238.907187,2898.261297,-448.375994,-882.491575,16690.338157,13508.343817,-562.392242,-18030.928735,0.003500,-0.024500,1.006750,192.000000,0.000000,0.000000,0.000000,0.000000,0.000000,0.000000,0.000000,0.000000,0.000000,1771414700.753955,0.000000
158.000000,2844.170075,-5855.330033,607.810987,4040.770714,-4275.106403,13269.984814,-13583.624492,-8791.991626,2231.441704,2875.395462,-479.802546,-907.145549,16687.007748,13489.143668,-539.906387,-14942.588203,0.003500,-0.024500,1.006750,192.000000,0.000000,0.000000,0.000000,0.000000,0.000000,0.000000,0.000000,0.000000,0.000000,1771414700.753971,0.000000
160.000000,2807.334400,-5879.536972,571.265885,4015.625002,-4222.870376,13270.700070,-13629.959658,-8830.011944,2257.369728,2943.255358,-434.853188,-860.251589,16700.239980,13531.097893,-706.359828,-18288.666700,0.003500,-0.024500,1.006750,192.000000,0.000000,0.000000,0.000000,0.000000,0.000000,0.000000,0.000000,0.000000,0.000000,1771414700.753991,0.000000
162.000000,2789.542412,-5906.694342,558.525390,4024.722162,-4240.304737,13273.024651,-13651.462037,-8850.106162,2224.378553,2892.405139,-497.773349,-915.616860,16617.382064,13507.695616,-465.877410,-15930.468253,0.003500,-0.024500,1.006750,192.000000,0.000000,0.000000,0.000000,0.000000,0.000000,0.000000,0.000000,0.000000,0.000000,1771414700.754009,0.000000
164.000000,2859.950407,-5824.752846,608.816815,4038.714354,-4289.255057,13288.067375,-13573.879132,-8777.641806,2249.546617,2935.275785,-451.728755,-874.020263,16705.000902,13536.082332,-698.804939,-16390.467154,0.003750,-0.024250,1.003375,192.000000,0.000000,16.000000,127.500000,32.000000,15.500000,32.000000,0.000000,0.000000,0.000000,1771414700.754028,0.000000
166.000000,2773.002121,-5918.719580,532.127980,4013.501586,-4208.654667,13255.255014,-13674.171409,-8871.496781,2246.305614,2931.073657,-472.448823,-877.931819,16684.146724,13532.416646,-571.310588,-17995.121240,0.003750,-0.024250,1.003375,192.000000,0.000000,0.000000,0.000000,0.000000,0.000000,0.000000,0.000000,0.000000,0.000000,1771414700.754047,0.000000
168.000000,2850.853247,-5849.317413,600.770187,4042.290633,-4282.258961,13299.734986,-13588.385414,-8798.831260,2236.895530,2881.072805,-495.627582,-911.995877,16667.606433,13507.382692,-537.537102,-14915.140261,0.003750,-0.024250,1.003375,192.000000,0.000000,0.000000,0.000000,0.000000,0.000000,0.000000,0.000000,0.000000,0.000000,1771414700.754061,0.000000
170.000000,2815.492787,-5885.035501,564.582713,4017.234327,-4215.002562,13282.233570,-13627.858594,-8834.951679,2276.681635,2943.680041,-438.116543,-864.006682,16751.559586,13546.252375,-685.773872,-18285.917435,0.003750,-0.024250,1.003375,192.000000,0.000000,0.000000,0.000000,0.000000,0.000000,0.000000,0.000000,0.000000,0.000000,1771414700.754078,0.000000
172.000000,2789.922391,-5900.659371,555.776126,4026.487950,-4225.172606,13269.046041,-13652.400810,-8850.575548,2210.788692,2867.237075,-507.272840,-924.602261,16629.519061,13505.639256,-447.638386,-15972.064849,0.003750,-0.024250,1.003375,192.000000,0.000000,0.000000,0.000000,0.000000,0.000000,0.000000,0.000000,0.000000,0.000000,1771414700.754094,0.000000
174.000000,2890.929924,-5799.316561,613.041295,4042.692964,-4252.844066,13297.119832,-13569.922873,-8767.784687,2271.205458,2956.666405,-438.854151,-858.888132,16751.134902,13556.757695,-671.222886,-16383.426354,-0.001125,-0.023125,1.001688,192.000000,127.500000,104.000000,127.500000,40.000000,15.500000,32.000000,0.000000,0.000000,0.000000,1771414700.754196,0.000000
176.000000,2778.992388,-5922.407618,537.201826,4002.638638,-4189.745091,13247.789532,-13671.064516,-8866.892322,2255.782754,2922.200015,-453.516895,-884.682046,16691.500448,13526.269916,-539.749925,-18031.889860,-0.001125,-0.023125,1.001688,192.000000,0.000000,0.000000,0.000000,0.000000,0.000000,0.000000,0.000000,0.000000,0.000000,1771414700.754218,0.000000
178.000000,2857.558770,-5839.013259,606.805158,4038.021450,-4287.086938,13283.239398,-13584.138582,-8787.051891,2221.897509,2875.350758,-491.000770,-916.533281,16625.831023,13497.100889,-527.769390,-14922.404578,-0.001125,-0.023125,1.001688,192.000000,0.000000,0.000000,0.000000,0.000000,0.000000,0.000000,0.000000,0.000000,0.000000,1771414700.754238,0.000000
180.000000,2833.687107,-5862.639053,572.674045,4015.893223,-4226.267842,13248.370677,-13622.315362,-8821.317115,2307.907022,2968.959864,-437.982433,-848.248702,16738.305001,13563.262053,-688.076101,-18270.561787,-0.001125,-0.023125,1.001688,192.000000,0.000000,0.000000,0.000000,0.000000,0.000000,0.000000,0.000000,0.000000,0.000000,1771414700.754257,0.000000
182.000000,2782.166336,-5926.721505,549.383527,4013.076903,-4244.015127,13232.769159,-13651.752609,-8852.453095,2215.147282,2856.508238,-501.170814,-928.558520,16649.568576,13486.036776,-450.477058,-15985.855876,-0.001125,-0.023125,1.001688,192.000000,0.000000,0.000000,0.000000,0.000000,0.000000,0.000000,0.000000,0.000000,0.000000,1771414700.754277,0.000000
184.000000,2871.461555,-5828.686753,612.326039,4031.561796,-4286.505793,13272.510561,-13572.895655,-8776.010129,2285.555278,2916.477968,-451.862866,-875.383720,16702.676320,13527.745131,-681.325874,-16354.279680,-0.003563,-0.020563,1.003844,192.000000,127.500000,104.000000,127.500000,56.000000,15.500000,56.000000,0.000000,0.000000,0.000000,1771414700.754295,0.000000
186.000000,2755.008966,-5936.489217,522.114399,3998.794138,-4198.641085,13215.178337,-13676.764211,-8875.184819,2240.985899,2901.815224,-484.742282,-894.852089,16670.288643,13513.931753,-560.402937,-18007.884086,-0.003563,-0.020563,1.003844,192.000000,0.000000,0.000000,0.000000,0.000000,0.000000,0.000000,0.000000,0.000000,0.000000,1771414700.754314,0.000000
188.000000,2848.685127,-5848.848027,606.983972,4031.897072,-4278.928552,13255.187959,-13588.318358,-8791.790461,2212.398018,2882.592724,-505.462349,-916.980316,16628.759101,13502.889991,-527.031783,-14896.409499,-0.003563,-0.020563,1.003844,192.000000,0.000000,0.000000,0.000000,0.000000,0.000000,0.000000,0.000000,0.000000,0.000000,1771414700.754333,0.000000
190.000000,2816.275098,-5878.799364,573.881039,4010.327638,-4225.574938,13230.243412,-13627.880946,-8824.580470,2267.249199,2944.283538,-438.943558,-861.838563,16706.476117,13542.765503,-684.678636,-18269.734772,-0.003563,-0.020563,1.003844,192.000000,0.000000,0.000000,0.000000,0.000000,0.000000,0.000000,0.000000,0.000000,0.000000,1771414700.754352,0.000000
192.000000,2785.072063,-5913.086940,547.550684,4021.704676,-4234.046249,13258.630128,-13656.133551,-8850.553197,2225.071457,2867.013558,-516.727628,-925.071648,16646.484035,13491.714119,-441.402250,-15986.973463,-0.003563,-0.020563,1.003844,192.000000,0.000000,0.000000,0.000000,0.000000,0.000000,0.000000,0.000000,0.000000,0.000000,1771414700.754372,0.000000
194.000000,2872.914418,-5824.439922,613.868310,4041.284804,-4271.418365,13285.586332,-13570.079335,-8770.109268,2260.677786,2924.166968,-455.595607,-873.617932,16727.732626,13540.664439,-671.334645,-16325.602391,-0.004781,-0.022281,1.002922,192.000000,127.500000,104.000000,127.500000,32.000000,15.500000,40.000000,0.000000,0.000000,0.000000,1771414700.754391,0.000000
196.000000,2762.675615,-5936.109237,534.430210,4002.795101,-4204.743112,13236.770122,-13674.886665,-8868.658110,2249.077231,2901.792872,-481.948314,-890.337037,16668.344041,13513.663532,-552.311605,-18021.071615,-0.004781,-0.022281,1.002922,192.000000,0.000000,0.000000,0.000000,0.000000,0.000000,0.000000,0.000000,0.000000,0.000000,1771414700.754410,0.000000
198.000000,2845.779401,-5844.936472,590.711902,4040.323679,-4282.013092,13261.468799,-13587.044309,-8783.565019,2208.195890,2873.719081,-509.865643,-914.476921,16623.864069,13506.667436,-523.410800,-14891.626226,-0.004781,-0.022281,1.002922,192.000000,0.000000,0.000000,0.000000,0.000000,0.000000,0.000000,0.000000,0.000000,0.000000,1771414700.754429,0.000000
200.000000,2816.498615,-5870.506867,573.232838,4007.958354,-4224.971440,13213.524307,-13621.465995,-8810.387112,2253.547579,2948.373908,-449.828857,-853.099031,16706.096137,13545.313602,-683.941029,-18246.444255,-0.004781,-0.022281,1.002922,192.000000,0.000000,0.000000,0.000000,0.000000,0.000000,0.000000,0.000000,0.000000,0.000000,1771414700.754448,0.000000
202.000000,2791.911696,-5915.210356,552.401012,4006.393731,-4236.683755,13205.231810,-13647.818702,-8835.912804,2234.123914,2864.912494,-512.592556,-916.622688,16651.915509,13472.916302,-437.580101,-15986.906408,-0.004781,-0.022281,1.002922,192.000000,0.000000,0.000000,0.000000,0.000000,0.000000,0.000000,0.000000,0.000000,0.000000,1771414700.754467,0.000000
204.000000,2850.875598,-5844.690602,609.867347,4025.146845,-4295.133566,13251.075238,-13562.613852,-8759.045155,2248.987824,2898.596573,-459.887142,-877.931819,16698.585951,13509.327294,-668.741842,-16316.013493,-0.004781,-0.022281,1.002922,192.000000,0.000000,0.000000,0.000000,0.000000,0.000000,0.000000,0.000000,0.000000,0.000000,1771414700.754486,0.000000
206.000000,2752.952606,-5937.651508,525.668326,3997.385978,-4220.635202,13215.737130,-13668.091734,-8851.983708,2209.358181,2894.260334,-477.612076,-886.961923,16677.508256,13503.672302,-563.375719,-18033.767406,-0.002000,-0.024000,1.004000,192.000000,127.500000,120.000000,127.500000,32.000000,15.500000,48.000000,0.000000,0.000000,0.000000,1771414700.754506,0.000000
208.000000,2851.367337,-5838.163893,595.249307,4038.692002,-4289.031540,13260.619433,-13581.322262,-8768.164667,2208.687628,2875.261351,-503.718913,-904.686857,16681.576274,13503.426433,-539.928739,-14867.419287,-0.002000,-0.024000,1.004000,192.000000,0.000000,0.000000,0.000000,0.000000,0.000000,0.000000,0.000000,0.000000,0.000000,1771414701.234080,0.000000
210.000000,2822.466531,-5855.620605,562.213428,4013.635697,-4230.246452,13249.778837,-13616.928591,-8801.736987,2276.301655,2972.893771,-439.345889,-839.687984,16704.531515,13571.576902,-708.170320,-18217.051711,-0.002000,-0.024000,1.004000,192.000000,0.000000,0.000000,0.000000,0.000000,0.000000,0.000000,0.000000,0.000000,0.000000,1771414701.234159,0.000000
212.000000,2781.384025,-5914.785673,543.259149,4003.711522,-4237.264900,13256.484360,-13650.366801,-8838.103275,2187.319361,2877.965913,-512.637259,-913.582851,16645.008820,13495.603322,-469.029006,-15982.681928,-0.002000,-0.024000,1.004000,192.000000,0.000000,0.000000,0.000000,0.000000,0.000000,0.000000,0.000000,0.000000,0.000000,1771414701.234212,0.000000
214.000000,2861.962064,-5838.208596,607.967449,4024.006906,-4293.680703,13277.003262,-13565.251358,-8763.068469,2277.218077,2925.977460,-456.243808,-869.013473,16734.281687,13537.781064,-682.197593,-16275.266263,-0.002000,-0.024000,1.004000,192.000000,0.000000,0.000000,0.000000,0.000000,0.000000,0.000000,0.000000,0.000000,0.000000,1771414701.234261,0.000000
216.000000,2742.737859,-5953.275377,518.851044,3988.579391,-4214.264955,13235.585479,-13671.824476,-8864.925368,2204.329038,2887.867735,-476.762709,-893.041598,16675.720117,13523.006561,-566.527315,-18028.648857,-0.002000,-0.024000,1.004000,192.000000,0.000000,0.000000,127.500000,40.000000,15.500000,64.000000,0.000000,0.000000,0.000000,1771414701.234320,0.000000
218.000000,2835.564653,-5858.638091,593.617629,4025.884453,-4298.553383,13265.223892,-13587.960731,-8786.940132,2217.449512,2874.635503,-504.344762,-914.432217,16674.490771,13506.309808,-537.961786,-14874.817714,-0.002000,-0.024000,1.004000,192.000000,0.000000,0.000000,0.000000,0.000000,0.000000,0.000000,0.000000,0.000000,0.000000,1771414701.234373,0.000000
220.000000,2809.323705,-5876.184210,568.583675,4008.785368,-4226.916042,13247.945994,-13614.671065,-8806.162632,2249.211341,2943.054192,-438.787095,-862.084432,16724.312809,13542.609041,-704.929317,-18225.187746,-0.002000,-0.024000,1.004000,192.000000,0.000000,0.000000,0.000000,0.000000,0.000000,0.000000,0.000000,0.000000,0.000000,1771414701.234430,0.000000
222.000000,2758.808763,-5921.155920,523.053172,3994.502603,-4249.334842,13224.588421,-13661.229749,-8857.616348,2236.113219,2888.225363,-522.360268,-915.594508,16673.283776,13503.068805,-461.027081,-16040.997629,-0.002000,-0.024000,1.004000,192.000000,0.000000,0.000000,0.000000,0.000000,0.000000,0.000000,0.000000,0.000000,0.000000,1771414701.234454,0.000000
224.000000,2844.572406,-5853.988928,597.976219,4003.711522,-4307.672895,13253.578633,-13572.783896,-8775.205466,2203.971410,2912.700523,-467.553791,-888.481842,16696.641349,13504.879296,-672.094604,-16301.328397,-0.002000,-0.024000,1.004000,192.000000,0.000000,0.000000,0.000000,0.000000,0.000000,0.000000,0.000000,0.000000,0.000000,1771414701.234474,0.000000
226.000000,2731.830207,-5955.175275,505.462349,3970.563885,-4228.860644,13217.257049,-13677.054784,-8874.290749,2205.245460,2878.100023,-483.043549,-907.458473,16661.146779,13490.685939,-570.483574,-18076.995680,0.004000,-0.024000,1.010000,192.000000,0.000000,16.000000,127.500000,32.000000,15.500000,72.000000,0.000000,0.000000,0.000000,1771414701.234493,0.000000
228.000000,2847.031098,-5843.528312,580.944190,4009.902955,-4290.663217,13251.902253,-13589.570056,-8787.320112,2201.110387,2872.288569,-515.118303,-920.310726,16649.233299,13486.774383,-534.541969,-14907.987703,0.004000,-0.024000,1.010000,192.000000,0.000000,0.000000,0.000000,0.000000,0.000000,0.000000,0.000000,0.000000,0.000000,1771414701.234512,0.000000
230.000000,2790.794109,-5904.816795,569.097766,3984.556077,-4242.763429,13229.371694,-13615.296914,-8815.192737,2267.048033,2929.039649,-440.351718,-861.860914,16747.290402,13535.456483,-712.841834,-18242.040961,0.004000,-0.024000,1.010000,192.000000,0.000000,0.000000,0.000000,0.000000,0.000000,0.000000,0.000000,0.000000,0.000000,1771414701.234532,0.000000
232.000000,2772.465679,-5918.384304,536.419515,3999.330580,-4247.725516,13236.926584,-13648.243385,-8840.897243,2177.328131,2843.991261,-518.113436,-929.541997,16651.312012,13464.959081,-485.234020,-16076.089868,0.004000,-0.024000,1.010000,192.000000,0.000000,0.000000,0.000000,0.000000,0.000000,0.000000,0.000000,0.000000,0.000000,1771414701.234551,0.000000
234.000000,2864.823087,-5825.177529,608.526243,4017.882528,-4293.010151,13262.340517,-13560.602195,-8758.911044,2249.144286,2927.407971,-448.711270,-866.688891,16730.772463,13536.305849,-710.919584,-16324.551859,0.004000,-0.024000,1.010000,192.000000,0.000000,0.000000,0.000000,0.000000,0.000000,0.000000,0.000000,0.000000,0.000000,1771414701.234569,0.000000
236.000000,2751.276225,-5934.008173,519.387486,3983.483193,-4225.105551,13229.863433,-13667.689403,-8862.354918,2240.985899,2900.854099,-475.488660,-890.962886,16678.983471,13519.273820,-584.945152,-18123.822585,0.004000,-0.020000,1.008000,192.000000,0.000000,16.000000,127.500000,48.000000,15.500000,64.000000,0.000000,0.000000,0.000000,1771414701.234589,0.000000
238.000000,2841.331403,-5847.283405,592.812966,4019.760075,-4299.693322,13275.081012,-13581.188152,-8775.808963,2200.283372,2874.277875,-498.287439,-910.453607,16676.748297,13506.063939,-532.709126,-14927.389017,0.004000,-0.020000,1.008000,192.000000,0.000000,0.000000,0.000000,0.000000,0.000000,0.000000,0.000000,0.000000,0.000000,1771414701.234608,0.000000
240.000000,2795.756196,-5888.768242,550.545818,3988.981722,-4239.567130,13259.255977,-13621.957734,-8816.980877,2240.225940,2936.438076,-441.446953,-859.379871,16736.270992,13539.122169,-699.341381,-18235.715417,0.004000,-0.020000,1.008000,192.000000,0.000000,0.000000,0.000000,0.000000,0.000000,0.000000,0.000000,0.000000,0.000000,1771414701.234626,0.000000
242.000000,2748.325795,-5938.769095,524.394277,3985.740720,-4251.949996,13267.637881,-13662.012060,-8857.236368,2201.713884,2850.562674,-529.356364,-934.884064,16668.142875,13487.132011,-462.479945,-16067.931481,0.004000,-0.020000,1.008000,192.000000,0.000000,0.000000,0.000000,0.000000,0.000000,0.000000,0.000000,0.000000,0.000000,1771414701.234645,0.000000
244.000000,2844.594758,-5836.599271,596.366894,4008.450092,-4286.930476,13322.667876,-13576.650748,-8773.149106,2205.133701,2917.059114,-473.633465,-890.135871,16717.026140,13522.179547,-678.934238,-16258.837731,0.004000,-0.020000,1.008000,192.000000,0.000000,0.000000,0.000000,0.000000,0.000000,0.000000,0.000000,0.000000,0.000000,1771414701.234664,0.000000
246.000000,2754.360766,-5941.987746,522.203806,3977.202353,-4195.265972,13266.006203,-13678.507647,-8868.389889,2235.397963,2905.033875,-477.254448,-899.545956,16721.630600,13504.722834,-558.234818,-18077.733288,0.002000,-0.024000,1.012000,192.000000,0.000000,8.000000,127.500000,32.000000,15.500000,80.000000,0.000000,0.000000,0.000000,1771414701.234683,0.000000
248.000000,2800.383008,-5885.840164,573.366949,4008.070112,-4284.740005,13290.749585,-13605.730367,-8808.464862,2198.495233,2848.036927,-522.315564,-937.052183,16665.684183,13484.315692,-516.146483,-14895.783650,0.002000,-0.024000,1.012000,192.000000,0.000000,0.000000,0.000000,0.000000,0.000000,0.000000,0.000000,0.000000,0.000000,1771414701.234701,0.000000
250.000000,2809.122540,-5872.295007,569.209524,4006.840766,-4234.023897,13286.279236,-13624.528184,-8813.784577,2252.228827,2937.265091,-452.667529,-870.935723,16749.547929,13537.669306,-702.403570,-18155.204434,0.002000,-0.024000,1.012000,192.000000,0.000000,0.000000,0.000000,0.000000,0.000000,0.000000,0.000000,0.000000,0.000000,1771414701.234720,0.000000
252.000000,2764.217885,-5919.725409,536.821847,4003.532708,-4234.605042,13271.549436,-13661.386211,-8853.973014,2199.434006,2882.123337,-519.298079,-923.864654,16661.750276,13476.090250,-463.955160,-16035.297934,0.002000,-0.024000,1.012000,192.000000,0.000000,0.000000,0.000000,0.000000,0.000000,0.000000,0.000000,0.000000,0.000000,1771414701.234738,0.000000
254.000000,2870.455726,-5819.746056,603.810025,4028.164331,-4276.022825,13304.719425,-13572.828600,-8763.984890,2250.127763,2928.749076,-468.358453,-879.943476,16725.698617,13519.519689,-680.901191,-16235.323696,0.002000,-0.024000,1.012000,192.000000,0.000000,0.000000,0.000000,0.000000,0.000000,0.000000,0.000000,0.000000,0.000000,1771414701.234757,0.000000
0.000000,2769.135269,-5928.397885,533.625547,3993.452071,-4190.728568,13264.553340,-13675.110182,-8858.286900,2250.686556,2920.411875,-464.290436,-883.653865,16729.274896,13527.052227,-573.501059,-18076.705107,0.006000,-0.022000,1.006000,192.000000,0.000000,24.000000,127.500000,40.000000,15.500000,56.000000,0.000000,0.000000,0.000000,1771414701.234772,0.000000
2.000000,2840.727906,-5845.003527,591.740083,4028.186682,-4266.098650,13288.670872,-13588.385414,-8783.341501,2235.777943,2873.115584,-505.775274,-916.935613,16716.847326,13489.121317,-525.131884,-14847.414475,0.006000,-0.022000,1.006000,192.000000,0.000000,0.000000,0.000000,0.000000,0.000000,0.000000,0.000000,0.000000,0.000000,1771414701.234785,0.000000
4.000000,2832.010726,-5854.078335,568.918952,4003.555060,-4225.262013,13288.469707,-13617.353275,-8803.391016,2273.015949,2963.751908,-438.004784,-846.706432,16740.562527,13559.730477,-700.906003,-18149.907070,0.006000,-0.022000,1.006000,192.000000,0.000000,0.000000,0.000000,0.000000,0.000000,0.000000,0.000000,0.000000,0.000000,1771414701.234798,0.000000
6.000000,2772.845658,-5909.890641,544.667309,3999.777615,-4247.569054,13271.392974,-13654.010135,-8847.647470,2211.414541,2879.955218,-510.044457,-915.594508,16668.969890,13501.280666,-465.564485,-16013.817908,0.006000,-0.022000,1.006000,192.000000,0.000000,0.000000,0.000000,0.000000,0.000000,0.000000,0.000000,0.000000,0.000000,1771414701.234811,0.000000
8.000000,2853.714270,-5831.793646,606.112254,4017.837825,-4291.557287,13307.446338,-13570.973405,-8773.305568,2235.710887,2924.301079,-459.842439,-875.473127,16723.418739,13525.264087,-681.191764,-16173.163494,0.006000,-0.022000,1.006000,192.000000,0.000000,0.000000,0.000000,0.000000,0.000000,0.000000,0.000000,0.000000,0.000000,1771414701.234823,0.000000
10.000000,2747.096449,-5948.760325,523.857835,3993.407368,-4200.675094,13279.014919,-13679.021737,-8875.520095,2229.161826,2891.488718,-487.603305,-902.742255,16721.652951,13509.617866,-570.081242,-18058.801360,-0.002000,-0.024000,1.004000,192.000000,127.500000,120.000000,127.500000,32.000000,15.500000,48.000000,0.000000,0.000000,0.000000,1771414701.234836,0.000000
12.000000,2826.623956,-5869.523390,588.834356,4026.622060,-4283.108328,13315.381207,-13602.422309,-8806.654371,2216.331925,2854.854209,-511.184396,-932.715944,16682.649157,13489.255427,-509.485663,-14857.606871,-0.002000,-0.024000,1.004000,192.000000,0.000000,0.000000,0.000000,0.000000,0.000000,0.000000,0.000000,0.000000,0.000000,1771414701.234848,0.000000
14.000000,2795.912659,-5891.964542,564.470954,4008.807720,-4219.316449,13316.364684,-13627.813891,-8825.742760,2265.304597,2923.965803,-456.847305,-877.507136,16760.880263,13545.984154,-680.744729,-18155.427951,-0.002000,-0.024000,1.004000,192.000000,0.000000,0.000000,0.000000,0.000000,0.000000,0.000000,0.000000,0.000000,0.000000,1771414701.234861,0.000000
16.000000,2761.513324,-5919.144263,548.467105,4019.558909,-4208.364094,13296.806907,-13659.463961,-8855.582339,2201.780939,2867.013558,-523.723724,-928.469113,16645.277041,13499.648988,-424.437275,-16081.878970,-0.002000,-0.024000,1.004000,192.000000,0.000000,0.000000,0.000000,0.000000,0.000000,0.000000,0.000000,0.000000,0.000000,1771414701.234874,0.000000
18.000000,2857.156438,-5834.073524,620.462074,4036.032145,-4258.208484,13325.886527,-13568.961748,-8770.601007,2230.614690,2918.556681,-448.443049,-884.011493,16740.517824,13536.819939,-628.508702,-16225.041893,-0.002000,-0.024000,1.004000,192.000000,0.000000,0.000000,0.000000,0.000000,0.000000,0.000000,0.000000,0.000000,0.000000,1771414701.234886,0.000000
20.000000,2759.702833,-5922.474673,529.088143,4001.453996,-4181.743167,13297.924494,-13669.835170,-8861.662014,2246.909111,2906.106759,-469.386634,-893.265115,16744.518786,13529.645029,-529.266957,-18120.469823,-0.002000,-0.025000,1.009000,192.000000,127.500000,120.000000,127.500000,24.000000,15.500000,88.000000,0.000000,0.000000,0.000000,1771414701.234899,0.000000
22.000000,2847.969872,-5830.229024,591.628324,4033.774618,-4255.258054,13325.104216,-13586.753736,-8781.396899,2221.673992,2891.667532,-496.231079,-915.102770,16675.697765,13496.653854,-490.441977,-14888.496982,-0.002000,-0.025000,1.009000,192.000000,0.000000,0.000000,0.000000,0.000000,0.000000,0.000000,0.000000,0.000000,0.000000,1771414701.234911,0.000000
24.000000,2824.478188,-5866.192981,591.225993,4008.539499,-4220.389333,13283.127640,-13609.239591,-8798.473632,2297.915792,2962.880190,-426.694802,-845.767658,16799.749947,13568.849989,-671.580514,-18182.004175,-0.002000,-0.025000,1.009000,192.000000,0.000000,0.000000,0.000000,0.000000,0.000000,0.000000,0.000000,0.000000,0.000000,1771414701.234927,0.000000
26.000000,2774.432632,-5913.310458,545.807248,4008.271278,-4222.468045,13255.232663,-13646.276432,-8835.242252,2210.408713,2864.219590,-490.531384,-916.287412,16699.457669,13504.476965,-442.475133,-16094.798278,-0.002000,-0.025000,1.009000,192.000000,0.000000,0.000000,0.000000,0.000000,0.000000,0.000000,0.000000,0.000000,0.000000,1771414701.234940,0.000000
28.000000,2876.490697,-5808.346666,612.907185,4037.194435,-4265.629264,13288.067375,-13552.734381,-8742.907195,2283.364807,2929.151407,-447.414869,-863.157316,16777.532313,13543.167835,-658.795316,-16180.092535,-0.002000,-0.025000,1.009000,192.000000,0.000000,0.000000,0.000000,0.000000,0.000000,0.000000,0.000000,0.000000,0.000000,1771414701.234952,0.000000
30.000000,2765.804859,-5917.445531,535.726611,4012.540461,-4204.184318,13262.251110,-13657.117028,-8839.064400,2241.857617,2911.068846,-438.340061,-873.036787,16731.733588,13530.606154,-565.789707,-18121.162727,-0.003000,-0.023500,1.008500,192.000000,127.500000,112.000000,127.500000,40.000000,15.500000,64.000000,0.000000,0.000000,0.000000,1771414701.234965,0.000000
32.000000,2852.373165,-5830.117265,595.405769,4049.554950,-4285.388206,13292.224800,-13577.455411,-8766.577693,2240.605919,2883.687959,-479.266105,-905.424464,16705.917323,13511.629523,-514.850082,-14886.530028,-0.003000,-0.023500,1.008500,192.000000,0.000000,0.000000,0.000000,0.000000,0.000000,0.000000,0.000000,0.000000,0.000000,1771414701.234978,0.000000
34.000000,2819.471397,-5864.002510,573.366949,4031.673554,-4231.498150,13289.073204,-13607.004417,-8790.851687,2278.805051,2951.167876,-418.603470,-843.845408,16767.116400,13558.568187,-685.952686,-18174.248120,-0.003000,-0.023500,1.008500,192.000000,0.000000,0.000000,0.000000,0.000000,0.000000,0.000000,0.000000,0.000000,0.000000,1771414701.234993,0.000000
36.000000,2787.061368,-5899.050045,536.821847,4034.065191,-4227.206615,13304.384149,-13649.830359,-8835.108141,2228.491274,2881.698654,-491.291343,-903.837491,16690.584027,13526.158157,-445.246750,-16122.760311,-0.003000,-0.023500,1.008500,192.000000,0.000000,0.000000,0.000000,0.000000,0.000000,0.000000,0.000000,0.000000,0.000000,1771414701.235005,0.000000
38.000000,2863.750203,-5801.261163,610.359086,4054.695851,-4267.976197,13340.884547,-13565.117248,-8757.927568,2263.270588,2943.590634,-447.727793,-861.771507,16751.894862,13570.034631,-648.915845,-16166.033288,-0.003000,-0.023500,1.008500,192.000000,0.000000,0.000000,0.000000,0.000000,0.000000,0.000000,0.000000,0.000000,0.000000,1771414701.235018,0.000000
40.000000,2753.958434,-5916.752627,529.535178,4020.743551,-4185.855888,13297.432756,-13664.247234,-8856.185836,2240.851789,2936.013393,-467.062052,-872.790917,16755.918176,13561.406858,-543.817943,-18115.910067,-0.003000,-0.023500,1.008500,192.000000,0.000000,0.000000,127.500000,32.000000,15.500000,56.000000,0.000000,0.000000,0.000000,1771414701.235032,0.000000
42.000000,2833.083610,-5862.840219,587.202679,4042.380040,-4275.598142,13340.728085,-13597.817850,-8799.144184,2217.717733,2863.951369,-496.722817,-927.262119,16677.798829,13516.815128,-488.117395,-14888.340519,-0.003000,-0.023500,1.008500,192.000000,0.000000,0.000000,0.000000,0.000000,0.000000,0.000000,0.000000,0.000000,0.000000,1771414701.235050,0.000000
44.000000,2800.539470,-5882.688568,572.964617,4025.750342,-4212.789740,13338.090579,-13616.414501,-8815.416254,2267.405661,2935.029916,-441.134029,-868.074699,16761.684926,13561.362155,-671.535810,-18118.435814,-0.003000,-0.023500,1.008500,192.000000,0.000000,0.000000,0.000000,0.000000,0.000000,0.000000,0.000000,0.000000,0.000000,1771414701.235068,0.000000
46.000000,2764.888437,-5915.009190,545.181399,4017.279031,-4201.859737,13321.952620,-13659.888644,-8854.151828,2225.630251,2864.644273,-513.844253,-931.330136,16669.640442,13524.839404,-419.631650,-16091.199647,-0.003000,-0.023500,1.008500,192.000000,0.000000,0.000000,0.000000,0.000000,0.000000,0.000000,0.000000,0.000000,0.000000,1771414701.235089,0.000000
48.000000,2856.217665,-5813.822843,621.937289,4040.726011,-4237.197845,13343.276184,-13567.330070,-8767.583521,2253.189952,2940.997832,-450.410003,-877.261266,16802.700377,13564.692565,-615.902318,-16101.906133,-0.003000,-0.023500,1.008500,192.000000,0.000000,0.000000,0.000000,0.000000,0.000000,0.000000,0.000000,0.000000,0.000000,1771414701.235107,0.000000
50.000000,2759.903998,-5915.746798,530.876283,4008.226574,-4160.151382,13290.436660,-13669.432839,-8862.824304,2255.268664,2930.894843,-474.683997,-885.665522,16724.111643,13543.167835,-523.924890,-18074.559340,-0.003000,-0.023500,1.008500,192.000000,0.000000,0.000000,127.500000,24.000000,15.500000,32.000000,0.000000,0.000000,0.000000,1771414701.235126,0.000000
52.000000,2822.533586,-5863.197847,594.757568,4039.608424,-4254.073412,13293.856477,-13589.368890,-8789.935266,2215.951945,2867.281779,-502.467215,-925.451627,16717.272010,13508.455576,-493.526518,-14868.045136,-0.003000,-0.023500,1.008500,192.000000,0.000000,0.000000,0.000000,0.000000,0.000000,0.000000,0.000000,0.000000,0.000000,1771414701.235145,0.000000
54.000000,2821.326592,-5863.778992,572.003492,4026.644412,-4208.498205,13294.817602,-13607.049120,-8800.172365,2275.474641,2939.477913,-431.992165,-862.732632,16749.436170,13555.774219,-695.072197,-18161.708791,-0.003000,-0.023500,1.008500,192.000000,0.000000,0.000000,0.000000,0.000000,0.000000,0.000000,0.000000,0.000000,0.000000,1771414701.235163,0.000000
56.000000,2765.581341,-5918.987801,525.847140,4023.269298,-4230.581728,13282.010052,-13649.092752,-8840.830188,2232.626347,2867.907628,-502.020180,-921.584776,16692.394518,13503.337026,-467.106756,-16205.618227,-0.003000,-0.023500,1.008500,192.000000,0.000000,0.000000,0.000000,0.000000,0.000000,0.000000,0.000000,0.000000,0.000000,1771414701.235186,0.000000
58.000000,2866.767689,-5817.779102,606.916917,4053.086526,-4285.209392,13330.558041,-13558.635242,-8752.965480,2272.412452,2926.804474,-445.202046,-876.210734,16747.022181,13536.708181,-691.585325,-16226.159480,-0.003000,-0.023500,1.008500,192.000000,0.000000,0.000000,0.000000,0.000000,0.000000,0.000000,0.000000,0.000000,0.000000,1771414701.235204,0.000000
60.000000,2751.924426,-5932.376496,518.895748,4018.262508,-4214.868452,13290.526067,-13662.459095,-8853.660089,2245.970338,2910.845329,-457.830782,-890.158223,16733.208803,13523.520651,-587.359141,-18217.409339,-0.003000,-0.023500,1.008500,192.000000,0.000000,0.000000,127.500000,32.000000,15.500000,56.000000,0.000000,0.000000,0.000000,1771414701.235222,0.000000
62.000000,2835.654060,-5849.205655,584.252248,4047.409182,-4291.445528,13317.191698,-13585.837315,-8783.229742,2206.631268,2866.857096,-492.967724,-927.999726,16696.283721,13483.891008,-536.084239,-14941.314154,-0.003000,-0.023500,1.008500,192.000000,0.000000,0.000000,0.000000,0.000000,0.000000,0.000000,0.000000,0.000000,0.000000,1771414701.235241,0.000000
64.000000,2794.012760,-5880.632207,551.708108,4024.185720,-4244.059830,13294.728195,-13615.721597,-8815.036275,2266.265722,2948.463315,-436.328404,-866.197153,16750.173777,13534.025971,-724.352983,-18151.762265,-0.003000,-0.023500,1.008500,192.000000,0.000000,0.000000,0.000000,0.000000,0.000000,0.000000,0.000000,0.000000,0.000000,1771414701.235260,0.000000
66.000000,2753.198475,-5920.977106,515.252413,4025.348011,-4251.882941,13290.235494,-13663.442572,-8862.131400,2190.314494,2861.984415,-530.161027,-946.261102,16654.888291,13488.562523,-464.089270,-16140.798168,-0.003000,-0.023500,1.008500,192.000000,0.000000,0.000000,0.000000,0.000000,0.000000,0.000000,0.000000,0.000000,0.000000,1771414701.235279,0.000000
68.000000,2844.035964,-5835.526387,589.750777,4046.313947,-4281.007264,13338.582318,-13571.554550,-8777.686510,2217.427160,2924.502245,-469.140764,-895.723807,16739.422588,13522.045436,-656.604845,-16089.724432,-0.003000,-0.023500,1.008500,192.000000,0.000000,0.000000,0.000000,0.000000,0.000000,0.000000,0.000000,0.000000,0.000000,1771414701.235298,0.000000
70.000000,2762.519152,-5925.268641,514.358343,4012.182833,-4172.288379,13292.381262,-13674.841961,-8869.820400,2239.041297,2904.251564,-482.417701,-907.190252,16727.017370,13508.969666,-550.836390,-18069.418439,-0.004500,-0.023750,1.006250,192.000000,127.500000,104.000000,127.500000,32.000000,15.500000,48.000000,0.000000,0.000000,0.000000,1771414701.235317,0.000000
72.000000,2835.139970,-5855.106515,587.940286,4043.832903,-4235.879092,13330.200413,-13589.637111,-8792.215144,2237.588434,2873.450860,-509.508015,-934.258215,16744.362324,13483.935712,-482.082424,-14797.100699,-0.004500,-0.023750,1.006250,192.000000,0.000000,0.000000,0.000000,0.000000,0.000000,0.000000,0.000000,0.000000,0.000000,1771414701.715030,0.000000
74.000000,2805.903888,-5875.737175,570.394167,4027.583185,-4189.298056,13305.501736,-13615.028693,-8815.550365,2282.828365,2931.565396,-449.962968,-877.283618,16762.690754,13542.162006,-666.841944,-18060.164816,-0.004500,-0.023750,1.006250,192.000000,0.000000,0.000000,0.000000,0.000000,0.000000,0.000000,0.000000,0.000000,0.000000,1771414701.715104,0.000000
76.000000,2774.365577,-5904.816795,543.192094,4023.381057,-4189.946257,13294.907009,-13653.764266,-8846.686345,2220.042315,2871.997997,-509.709181,-930.994860,16710.946466,13494.821011,-428.035906,-16130.046979,-0.004500,-0.023750,1.006250,192.000000,0.000000,0.000000,0.000000,0.000000,0.000000,0.000000,0.000000,0.000000,0.000000,1771414701.715159,0.000000
78.000000,2875.194296,-5798.824823,607.967449,4041.105991,-4249.558359,13339.588146,-13568.805286,-8765.325995,2256.498010,2944.819980,-452.175790,-879.407034,16733.544079,13536.059980,-639.729278,-16129.287020,-0.004500,-0.023750,1.006250,192.000000,0.000000,0.000000,0.000000,0.000000,0.000000,0.000000,0.000000,0.000000,0.000000,1771414701.715214,0.000000
80.000000,2766.855391,-5921.625307,531.166855,4007.019580,-4168.801507,13286.145125,-13663.777848,-8857.862217,2264.589341,2928.704372,-465.206857,-891.722845,16757.169873,13529.197994,-551.641053,-18204.601789,-0.004500,-0.023750,1.006250,192.000000,0.000000,0.000000,0.000000,0.000000,0.000000,0.000000,0.000000,0.000000,0.000000,1771414701.715268,0.000000
82.000000,2828.903833,-5854.055983,584.118138,4035.339240,-4272.223028,13304.250038,-13588.921856,-8792.237495,2233.207492,2863.481982,-503.316582,-926.680973,16694.205009,13474.615034,-497.639239,-14992.276131,-0.004000,-0.024000,1.000000,192.000000,127.500000,112.000000,127.500000,32.000000,15.500000,32.000000,0.000000,0.000000,0.000000,1771414701.715323,0.000000
84.000000,2815.805711,-5863.801344,570.193001,4014.596822,-4206.486548,13289.810811,-13611.407710,-8807.414330,2278.134498,2949.603254,-433.243863,-862.576170,16766.021164,13524.504128,-698.044979,-18211.910810,-0.004000,-0.024000,1.000000,192.000000,0.000000,0.000000,0.000000,0.000000,0.000000,0.000000,0.000000,0.000000,0.000000,1771414701.715363,0.000000
86.000000,2758.920522,-5931.907109,523.053172,4008.807720,-4229.620603,13274.723384,-13660.313327,-8861.393793,2215.303745,2856.195313,-515.118303,-939.376764,16702.519858,13455.034906,-457.584912,-16239.324658,-0.004000,-0.024000,1.000000,192.000000,0.000000,0.000000,0.000000,0.000000,0.000000,0.000000,0.000000,0.000000,0.000000,1771414701.715381,0.000000
88.000000,2851.747316,-5838.298003,593.796443,4032.411162,-4276.380453,13298.572695,-13571.129867,-8777.775917,2246.149152,2901.256430,-464.022215,-901.423502,16761.863740,13481.320558,-668.183049,-16104.610694,-0.004000,-0.024000,1.000000,192.000000,0.000000,0.000000,0.000000,0.000000,0.000000,0.000000,0.000000,0.000000,0.000000,1771414701.715409,0.000000
90.000000,2754.986615,-5930.767170,524.662498,4001.923383,-4182.279609,13274.768087,-13672.763249,-8870.669767,2254.620463,2893.902706,-481.523631,-909.291316,16711.080576,13463.193293,-568.941303,-18115.351273,-0.004000,-0.024000,1.000000,192.000000,0.000000,0.000000,0.000000,0.000000,0.000000,0.000000,0.000000,0.000000,0.000000,1771414701.715426,0.000000
92.000000,2828.903833,-5855.598254,587.627362,4039.742534,-4265.003415,13333.664934,-13595.694434,-8796.529030,2211.861576,2867.147668,-501.506090,-935.286395,16692.618035,13453.090305,-493.392407,-14822.335818,0.002000,-0.022000,1.002000,192.000000,0.000000,8.000000,127.500000,40.000000,15.500000,40.000000,0.000000,0.000000,0.000000,1771414701.715443,0.000000
94.000000,2818.063237,-5869.143411,574.551591,4026.845578,-4204.273725,13325.484195,-13618.269696,-8813.158728,2277.799222,2941.578977,-441.111677,-876.031920,16765.663536,13512.143613,-674.285075,-18048.541909,0.002000,-0.022000,1.002000,192.000000,0.000000,0.000000,0.000000,0.000000,0.000000,0.000000,0.000000,0.000000,0.000000,1771414701.715460,0.000000
96.000000,2774.454984,-5910.583545,534.698431,4023.470464,-4183.084271,13312.341370,-13663.733144,-8858.644528,2216.778960,2868.265255,-505.730570,-937.141590,16689.891123,13449.290508,-421.688011,-16138.674753,0.002000,-0.022000,1.002000,192.000000,0.000000,0.000000,0.000000,0.000000,0.000000,0.000000,0.000000,0.000000,0.000000,1771414701.715477,0.000000
98.000000,2872.288569,-5815.610983,612.862481,4048.035031,-4226.871339,13344.282012,-13565.676041,-8763.202579,2273.999426,2924.122265,-461.541171,-888.481842,16777.241740,13484.762726,-627.860502,-16050.497121,0.002000,-0.022000,1.002000,192.000000,0.000000,0.000000,0.000000,0.000000,0.000000,0.000000,0.000000,0.000000,0.000000,1771414701.715495,0.000000
100.000000,2763.435574,-5920.105388,523.075524,4009.634734,-4150.987166,13298.013901,-13671.600958,-8864.366575,2250.999481,2908.520747,-468.447860,-896.126139,16768.144580,13483.801601,-544.287329,-18158.981879,0.002000,-0.022000,1.002000,192.000000,0.000000,0.000000,0.000000,0.000000,0.000000,0.000000,0.000000,0.000000,0.000000,1771414701.715512,0.000000
102.000000,2833.083610,-5851.105553,590.197812,4035.607461,-4250.117153,13319.560983,-13593.123984,-8793.980932,2217.605974,2871.953293,-508.949221,-930.838398,16685.778402,13447.882348,-486.753939,-14863.239510,-0.004000,-0.026000,1.010000,192.000000,127.500000,112.000000,127.500000,24.000000,15.500000,72.000000,0.000000,0.000000,0.000000,1771414701.715529,0.000000
104.000000,2814.509310,-5861.901446,563.509829,4018.687191,-4208.319391,13298.796213,-13612.391187,-8807.079054,2267.226847,2939.455562,-440.441124,-869.616970,16768.211635,13486.170886,-694.513404,-18090.384375,-0.004000,-0.026000,1.010000,192.000000,0.000000,0.000000,0.000000,0.000000,0.000000,0.000000,0.000000,0.000000,0.000000,1771414701.715546,0.000000
106.000000,2772.465679,-5914.875080,525.757733,4011.936964,-4225.351420,13275.460991,-13656.647641,-8849.189740,2207.972373,2866.633578,-506.468178,-929.609052,16683.945559,13428.861014,-459.753032,-16188.206218,-0.004000,-0.026000,1.010000,192.000000,0.000000,0.000000,0.000000,0.000000,0.000000,0.000000,0.000000,0.000000,0.000000,1771414701.715563,0.000000
108.000000,2851.009709,-5851.060850,599.406731,4027.270261,-4297.614610,13319.560983,-13567.240663,-8771.808001,2275.631103,2898.373055,-465.095099,-892.236935,16761.908443,13461.762781,-672.251066,-16073.877045,-0.004000,-0.026000,1.010000,192.000000,0.000000,0.000000,0.000000,0.000000,0.000000,0.000000,0.000000,0.000000,0.000000,1771414701.715582,0.000000
110.000000,2756.797106,-5933.069400,524.371925,4003.599763,-4207.380618,13281.942997,-13668.963452,-8860.700889,2235.755591,2879.441128,-464.983340,-902.675200,16744.317620,13443.546110,-586.442719,-18191.682481,-0.004000,-0.026000,1.010000,192.000000,0.000000,0.000000,0.000000,0.000000,0.000000,0.000000,0.000000,0.000000,0.000000,1771414701.715600,0.000000
112.000000,2827.316860,-5857.989890,577.434966,4031.338278,-4274.704072,13329.127530,-13590.620588,-8787.186001,2210.609878,2851.456744,-508.457483,-933.364145,16728.202013,13432.549051,-522.159102,-14884.116040,-0.002000,-0.024000,1.012000,192.000000,127.500000,120.000000,127.500000,32.000000,15.500000,80.000000,0.000000,0.000000,0.000000,1771414701.715618,0.000000
114.000000,2813.704647,-5868.562265,566.437908,4014.216842,-4236.057906,13298.416233,-13610.267772,-8802.608705,2289.600943,2934.091143,-437.937729,-861.235066,16788.998757,13481.633482,-719.659116,-18098.989797,-0.002000,-0.024000,1.012000,192.000000,0.000000,0.000000,0.000000,0.000000,0.000000,0.000000,0.000000,0.000000,0.000000,1771414701.715635,0.000000
116.000000,2755.545408,-5923.704019,526.718858,4012.674572,-4237.086086,13282.367680,-13659.776885,-8855.247063,2194.851899,2851.456744,-515.207710,-928.849093,16696.976626,13425.508252,-472.873506,-16231.546251,-0.002000,-0.024000,1.012000,192.000000,0.000000,0.000000,0.000000,0.000000,0.000000,0.000000,0.000000,0.000000,0.000000,1771414701.715652,0.000000
118.000000,2853.982491,-5831.860701,588.655542,4044.123476,-4291.624342,13342.627983,-13570.995757,-8773.685548,2247.534960,2894.908535,-471.912381,-891.521679,16784.953092,13461.874540,-655.219037,-16062.388249,-0.002000,-0.024000,1.012000,192.000000,0.000000,0.000000,0.000000,0.000000,0.000000,0.000000,0.000000,0.000000,0.000000,1771414701.715670,0.000000
120.000000,2733.014850,-5947.955662,515.788855,4003.823281,-4189.745091,13311.939038,-13677.144191,-8876.548276,2233.542768,2876.490697,-482.663570,-903.435159,16743.870585,13461.941595,-564.269789,-18176.997385,-0.002000,-0.024000,1.012000,192.000000,0.000000,0.000000,0.000000,0.000000,0.000000,0.000000,0.000000,0.000000,0.000000,1771414701.715690,0.000000
122.000000,2830.915490,-5851.910216,584.453414,4046.336299,-4260.801287,13341.286879,-13600.902391,-8802.921629,2204.932535,2842.046659,-523.388448,-942.707174,16697.848344,13441.199176,-483.535288,-14861.764295,-0.002000,-0.022000,1.016000,192.000000,127.500000,120.000000,127.500000,40.000000,15.500000,96.000000,0.000000,0.000000,0.000000,1771414701.715716,0.000000
124.000000,2812.967040,-5873.144373,562.504001,4023.492816,-4206.732417,13342.650335,-13626.338676,-8825.988630,2281.107280,2925.105742,-453.114564,-877.753005,16794.363176,13491.177677,-676.542601,-18062.020011,-0.002000,-0.022000,1.016000,192.000000,0.000000,0.000000,0.000000,0.000000,0.000000,0.000000,0.000000,0.000000,0.000000,1771414701.715734,0.000000
126.000000,2756.104202,-5930.118970,534.676079,4015.535595,-4200.250411,13317.839899,-13672.405621,-8871.474430,2211.928631,2843.186598,-528.819922,-945.747011,16710.521783,13434.940688,-428.885273,-16196.990454,-0.002000,-0.022000,1.016000,192.000000,0.000000,0.000000,0.000000,0.000000,0.000000,0.000000,0.000000,0.000000,0.000000,1771414701.715752,0.000000
128.000000,2856.977625,-5831.257204,605.955792,4037.127380,-4230.246452,13346.003097,-13579.891751,-8779.340539,2249.099582,2891.533421,-473.968741,-906.474996,16768.077525,13481.007633,-626.072362,-15996.808230,-0.002000,-0.022000,1.016000,192.000000,0.000000,0.000000,0.000000,0.000000,0.000000,0.000000,0.000000,0.000000,0.000000,1771414701.715770,0.000000
130.000000,2765.290769,-5919.613650,522.494378,4005.142034,-4154.764611,13291.867172,-13676.317176,-8861.617310,2257.012100,2894.170927,-478.036759,-903.368104,16758.287461,13476.157305,-537.000661,-18151.829320,-0.002000,-0.022000,1.016000,192.000000,0.000000,0.000000,0.000000,0.000000,0.000000,0.000000,0.000000,0.000000,0.000000,1771414701.715788,0.000000
132.000000,2831.183711,-5854.435963,591.896545,4034.154598,-4226.871339,13304.540611,-13599.829507,-8792.013978,2241.567044,2856.999976,-507.719875,-934.057049,16731.040684,13456.711287,-469.699558,-14869.989737,-0.002000,-0.026000,1.012000,192.000000,127.500000,120.000000,127.500000,24.000000,15.500000,80.000000,0.000000,0.000000,0.000000,1771414701.715806,0.000000
134.000000,2820.991316,-5860.873265,570.751795,4019.044819,-4185.051225,13322.176137,-13616.235687,-8802.429891,2285.376464,2929.576091,-437.066011,-869.169935,16803.907371,13504.611075,-662.125726,-18102.744890,-0.002000,-0.026000,1.012000,192.000000,0.000000,0.000000,0.000000,0.000000,0.000000,0.000000,0.000000,0.000000,0.000000,1771414701.715824,0.000000
136.000000,2778.523001,-5912.841071,521.890881,4010.953487,-4193.947219,13317.996361,-13667.108258,-8854.867083,2238.124876,2861.157401,-509.463311,-933.855883,16727.464405,13463.081534,-429.466418,-16276.137981,-0.002000,-0.026000,1.012000,192.000000,0.000000,0.000000,0.000000,0.000000,0.000000,0.000000,0.000000,0.000000,0.000000,1771414701.715842,0.000000
138.000000,2845.757049,-5842.947166,585.638056,4026.756171,-4260.197790,13349.266452,-13574.750850,-8775.384280,2282.090757,2890.996980,-478.684959,-905.804444,16774.470124,13491.714119,-644.445496,-16052.374667,-0.002000,-0.026000,1.012000,192.000000,0.000000,0.000000,0.000000,0.000000,0.000000,0.000000,0.000000,0.000000,0.000000,1771414701.715860,0.000000
140.000000,2741.419106,-5931.929461,507.451654,4000.738740,-4191.376769,13292.336558,-13672.651490,-8863.427802,2225.764361,2888.404177,-483.758805,-910.632421,16730.593649,13487.757860,-565.096803,-18201.830173,-0.002000,-0.026000,1.012000,192.000000,0.000000,0.000000,0.000000,0.000000,0.000000,0.000000,0.000000,0.000000,0.000000,1771414701.715878,0.000000
142.000000,2829.887310,-5839.147370,572.428176,4043.296461,-4266.143354,13328.300515,-13594.085109,-8788.728272,2199.746931,2876.758918,-511.363210,-928.245595,16703.101004,13479.778287,-498.019218,-14874.057755,-0.004000,-0.022000,1.010000,192.000000,127.500000,112.000000,127.500000,40.000000,15.500000,72.000000,0.000000,0.000000,0.000000,1771414701.715896,0.000000
144.000000,2795.912659,-5889.394091,548.176533,4017.144920,-4214.980211,13321.170309,-13615.162804,-8812.711693,2270.154926,2920.367172,-453.941578,-874.042615,16779.275749,13512.054206,-695.563936,-18057.951994,-0.004000,-0.022000,1.010000,192.000000,0.000000,0.000000,0.000000,0.000000,0.000000,0.000000,0.000000,0.000000,0.000000,1771414701.715914,0.000000
146.000000,2760.909827,-5916.394999,520.885053,4023.872796,-4214.689638,13294.571733,-13658.413429,-8850.866121,2224.065629,2846.382898,-523.924890,-936.895721,16683.520875,13471.843418,-456.310863,-16222.404387,-0.004000,-0.022000,1.010000,192.000000,0.000000,0.000000,0.000000,0.000000,0.000000,0.000000,0.000000,0.000000,0.000000,1771414701.715932,0.000000
148.000000,2851.657909,-5829.379657,592.522394,4041.374211,-4256.822676,13339.565794,-13568.492361,-8768.298777,2262.197705,2906.866718,-469.856020,-894.360351,16749.592632,13495.156288,-654.772002,-16001.256228,-0.004000,-0.022000,1.010000,192.000000,0.000000,0.000000,0.000000,0.000000,0.000000,0.000000,0.000000,0.000000,0.000000,1771414701.715949,0.000000
150.000000,2756.819458,-5928.286127,521.712067,4006.684304,-4166.633387,13291.308378,-13668.918749,-8857.549293,2255.581588,2886.057244,-479.847250,-903.166938,16740.562527,13485.790907,-559.330053,-18184.954606,-0.004000,-0.022000,1.010000,192.000000,0.000000,0.000000,0.000000,0.000000,0.000000,0.000000,0.000000,0.000000,0.000000,1771414701.715967,0.000000
152.000000,2828.345040,-5849.920911,584.766338,4047.208017,-4239.835350,13347.388905,-13592.811059,-8786.560152,2225.138512,2853.155476,-504.702390,-935.509912,16724.357513,13470.390555,-475.421605,-14865.631147,-0.004000,-0.024000,1.010000,192.000000,127.500000,112.000000,127.500000,24.000000,15.500000,72.000000,0.000000,0.000000,0.000000,1771414701.715988,0.000000
154.000000,2797.544336,-5874.776050,559.017129,4022.062304,-4197.925830,13323.763111,-13616.392149,-8807.257868,2278.805051,2922.647050,-446.833723,-876.993045,16770.558568,13514.647009,-674.687406,-18050.195938,-0.004000,-0.024000,1.010000,192.000000,0.000000,0.000000,0.000000,0.000000,0.000000,0.000000,0.000000,0.000000,0.000000,1771414701.716006,0.000000
156.000000,2774.700853,-5897.686588,535.078411,4022.822264,-4207.715894,13315.962352,-13656.178255,-8835.935156,2216.823663,2856.351776,-506.714047,-936.493389,16700.977588,13469.652947,-450.700575,-16261.721106,-0.004000,-0.024000,1.010000,192.000000,0.000000,0.000000,0.000000,0.000000,0.000000,0.000000,0.000000,0.000000,0.000000,1771414701.716038,0.000000
158.000000,2853.446049,-5822.405913,606.738103,4040.323679,-4248.396069,13339.409332,-13560.579844,-8752.764315,2265.885742,2918.601384,-446.990186,-889.711188,16757.728667,13495.782136,-650.458115,-16011.470975,-0.004000,-0.024000,1.010000,192.000000,0.000000,0.000000,0.000000,0.000000,0.000000,0.000000,0.000000,0.000000,0.000000,1771414701.716055,0.000000
160.000000,2748.929292,-5934.477560,516.571166,4004.739702,-4177.272818,13297.119832,-13671.176275,-8859.918578,2244.495123,2884.716139,-469.923075,-905.379761,16721.496489,13487.690805,-575.803289,-18219.242182,-0.004000,-0.024000,1.010000,192.000000,0.000000,0.000000,0.000000,0.000000,0.000000,0.000000,0.000000,0.000000,0.000000,1771414701.716073,0.000000
162.000000,2827.540377,-5862.840219,589.862536,4036.836807,-4250.027746,13328.635791,-13592.364024,-8786.537801,2243.042260,2849.936825,-507.585765,-941.008442,16704.933847,13466.166075,-501.304925,-14896.163630,-0.003000,-0.024000,1.011000,192.000000,127.500000,120.000000,127.500000,32.000000,15.500000,80.000000,0.000000,0.000000,0.000000,1771414701.716091,0.000000
164.000000,2821.304240,-5859.889789,567.868420,4022.330525,-4206.486548,13309.078015,-13606.713844,-8793.355083,2275.608751,2922.512939,-419.877520,-874.176726,16787.747060,13514.892878,-704.817558,-18069.239625,-0.003000,-0.024000,1.011000,192.000000,0.000000,0.000000,0.000000,0.000000,0.000000,0.000000,0.000000,0.000000,0.000000,1771414701.716109,0.000000
166.000000,2778.299484,-5891.361045,529.870454,4017.547252,-4210.085179,13317.437567,-13655.462999,-8834.996383,2225.809065,2869.338139,-500.857890,-926.993898,16729.856042,13468.065973,-465.430375,-16298.467374,-0.003000,-0.024000,1.011000,192.000000,0.000000,0.000000,0.000000,0.000000,0.000000,0.000000,0.000000,0.000000,0.000000,1771414701.716126,0.000000
168.000000,2866.454764,-5811.162986,606.894565,4035.003964,-4259.035499,13356.217844,-13562.300928,-8749.277443,2272.524211,2927.810303,-449.270064,-880.256400,16716.422643,13508.813203,-662.483354,-15997.322321,-0.003000,-0.024000,1.011000,192.000000,0.000000,0.000000,0.000000,0.000000,0.000000,0.000000,0.000000,0.000000,0.000000,1771414701.716144,0.000000
170.000000,2771.906885,-5923.346391,520.929756,3990.076958,-4175.328216,13333.597879,-13671.131572,-8849.547368,2259.291978,2885.990189,-462.681110,-894.695627,16724.156347,13500.274837,-571.824678,-18218.817499,-0.003000,-0.024000,1.011000,192.000000,0.000000,0.000000,0.000000,0.000000,0.000000,0.000000,0.000000,0.000000,0.000000,1771414701.716161,0.000000
172.000000,2834.067086,-5851.843161,570.349463,4029.706601,-4258.811982,13370.210036,-13598.890734,-8788.884734,2259.269626,2848.551017,-512.927832,-934.213511,16713.159289,13474.413869,-492.364227,-14880.204484,-0.003000,-0.024000,1.011000,192.000000,0.000000,0.000000,127.500000,40.000000,15.500000,80.000000,0.000000,0.000000,0.000000,1771414701.716179,0.000000
174.000000,2809.010781,-5868.294045,562.906332,4010.864080,-4206.330086,13348.819417,-13614.693417,-8803.860403,2278.201554,2917.729666,-449.203008,-878.535316,16780.348632,13521.419587,-700.950706,-18058.577843,-0.003000,-0.024000,1.011000,192.000000,0.000000,0.000000,0.000000,0.000000,0.000000,0.000000,0.000000,0.000000,0.000000,1771414701.716197,0.000000
176.000000,2774.499687,-5905.844975,527.702335,4003.264487,-4204.005504,13334.514300,-13665.320118,-8849.860293,2213.292088,2850.897950,-506.490529,-935.107581,16709.895934,13471.105811,-461.943503,-16349.094075,-0.003000,-0.024000,1.011000,192.000000,0.000000,0.000000,0.000000,0.000000,0.000000,0.000000,0.000000,0.000000,0.000000,1771414701.716215,0.000000
178.000000,2876.870677,-5800.814128,598.020923,4034.936909,-4247.770220,13377.675519,-13567.218312,-8759.045155,2266.578646,2912.119378,-463.955160,-890.359389,16722.524669,13512.702407,-659.465868,-16030.358199,-0.003000,-0.024000,1.011000,192.000000,0.000000,0.000000,0.000000,0.000000,0.000000,0.000000,0.000000,0.000000,0.000000,1771414701.716233,0.000000
180.000000,2762.161525,-5915.478577,517.085256,3996.246039,-4177.205763,13319.337466,-13673.433801,-8860.365613,2265.729280,2897.791910,-480.026064,-900.507081,16734.304039,13496.318578,-577.859649,-18290.544247,-0.003000,-0.024000,1.011000,192.000000,0.000000,0.000000,0.000000,0.000000,0.000000,0.000000,0.000000,0.000000,0.000000,1771414701.716252,0.000000
182.000000,2826.199272,-5847.216350,565.007396,4024.029258,-4264.288159,13360.576434,-13600.947094,-8794.696187,2220.265832,2853.468401,-514.224233,-942.058974,16688.594721,13467.127200,-503.651858,-14956.155712,-0.003500,-0.023000,1.007500,192.000000,127.500000,112.000000,127.500000,40.000000,15.500000,48.000000,0.000000,0.000000,0.000000,1771414701.716269,0.000000
184.000000,2823.628822,-5846.970480,551.909274,4010.282935,-4223.026839,13344.594937,-13612.458242,-8803.346312,2279.587362,2934.627585,-454.679186,-875.875458,16773.374888,13525.241736,-719.033267,-18094.742965,-0.003500,-0.023000,1.007500,192.000000,0.000000,0.000000,0.000000,0.000000,0.000000,0.000000,0.000000,0.000000,0.000000,1771414701.716290,0.000000
186.000000,2773.493859,-5899.430025,516.615870,4011.333467,-4215.606060,13349.758190,-13662.481447,-8851.961357,2231.508759,2872.512087,-521.890881,-926.569215,16700.374091,13499.537229,-479.400215,-16377.547846,-0.003500,-0.023000,1.007500,192.000000,0.000000,0.000000,0.000000,0.000000,0.000000,0.000000,0.000000,0.000000,0.000000,1771414701.716312,0.000000
188.000000,2858.855171,-5813.532271,589.370798,4029.639546,-4271.016034,13375.619158,-13568.537065,-8765.437754,2260.566027,2907.134939,-475.242791,-891.745197,16740.003734,13518.446805,-671.982845,-15969.025012,-0.003500,-0.023000,1.007500,192.000000,0.000000,0.000000,0.000000,0.000000,0.000000,0.000000,0.000000,0.000000,0.000000,1771414701.716331,0.000000
190.000000,2757.937045,-5911.879946,508.815111,3997.028350,-4180.089138,13336.972992,-13667.912920,-8855.761153,2273.865315,2903.960991,-477.969703,-895.053255,16724.871603,13521.710160,-590.868365,-18193.515324,-0.003500,-0.023000,1.007500,192.000000,0.000000,0.000000,0.000000,0.000000,0.000000,0.000000,0.000000,0.000000,0.000000,1771414701.716349,0.000000
192.000000,2819.784322,-5851.463181,562.928684,4032.098238,-4261.136563,13383.598731,-13600.790632,-8797.311341,2214.320268,2867.997035,-508.636297,-931.039564,16691.723966,13484.338043,-506.334067,-14838.429074,-0.003750,-0.023500,1.003750,192.000000,127.500000,112.000000,127.500000,32.000000,15.500000,32.000000,0.000000,0.000000,0.000000,1771414702.196095,0.000000
194.000000,2800.003028,-5868.674024,543.393259,4009.299458,-4220.702257,13376.177952,-13617.509737,-8813.650467,2265.394004,2927.117399,-454.008633,-880.278752,16745.189338,13524.191204,-711.433674,-17972.613033,-0.003750,-0.023500,1.003750,192.000000,0.000000,0.000000,0.000000,0.000000,0.000000,0.000000,0.000000,0.000000,0.000000,1771414702.196162,0.000000
196.000000,2739.206283,-5932.845883,494.867622,3998.972952,-4228.614775,13343.857329,-13673.500857,-8866.735860,2209.157015,2844.147723,-532.418553,-946.864599,16686.270140,13473.408040,-465.899761,-16295.986330,-0.003750,-0.023500,1.003750,192.000000,0.000000,0.000000,0.000000,0.000000,0.000000,0.000000,0.000000,0.000000,0.000000,1771414702.196210,0.000000
198.000000,2841.465514,-5826.876262,579.200754,4025.705639,-4280.560229,13365.203245,-13573.610911,-8771.204504,2256.006271,2888.851212,-494.442939,-906.407941,16714.813318,13504.320503,-667.065462,-15930.669419,-0.003750,-0.023500,1.003750,192.000000,0.000000,0.000000,0.000000,0.000000,0.000000,0.000000,0.000000,0.000000,0.000000,1771414702.196264,0.000000
200.000000,2734.758286,-5937.696211,501.751960,3985.830127,-4206.195975,13338.783483,-13673.120877,-8869.641586,2228.401867,2889.566468,-466.838535,-905.089188,16696.976626,13497.235000,-586.040388,-18239.492862,-0.003750,-0.023500,1.003750,192.000000,0.000000,0.000000,0.000000,0.000000,0.000000,0.000000,0.000000,0.000000,0.000000,1771414702.196308,0.000000
202.000000,2803.244031,-5868.718728,553.540951,4016.072037,-4278.034482,13344.527882,-13604.501021,-8808.688379,2204.194928,2835.363488,-528.864626,-951.826686,16660.230358,13453.827912,-504.009486,-14915.386130,-0.005875,-0.022750,1.003875,192.000000,127.500000,96.000000,127.500000,40.000000,15.500000,48.000000,0.000000,0.000000,0.000000,1771414702.196352,0.000000
204.000000,2801.679409,-5870.775088,550.501114,4007.667781,-4232.101647,13328.613440,-13613.866402,-8811.951734,2298.787510,2912.946393,-460.714157,-883.385644,16739.154367,13500.230134,-714.540567,-18053.571052,-0.005875,-0.022750,1.003875,192.000000,0.000000,0.000000,0.000000,0.000000,0.000000,0.000000,0.000000,0.000000,0.000000,1771414702.196388,0.000000
206.000000,2764.374347,-5910.561193,512.324335,4009.053589,-4226.111379,13324.724236,-13657.720525,-8848.899168,2195.611858,2850.540322,-514.626564,-938.236825,16659.649212,13459.348793,-481.031892,-16409.399081,-0.005875,-0.022750,1.003875,192.000000,0.000000,0.000000,0.000000,0.000000,0.000000,0.000000,0.000000,0.000000,0.000000,1771414702.196403,0.000000
208.000000,2858.877523,-5812.772311,584.364007,4034.489874,-4286.237572,13341.890376,-13560.021050,-8754.910082,2254.128725,2904.184509,-454.768593,-896.617877,16713.651027,13487.959026,-679.470680,-16027.899507,-0.005875,-0.022750,1.003875,192.000000,0.000000,0.000000,0.000000,0.000000,0.000000,0.000000,0.000000,0.000000,0.000000,1771414702.196420,0.000000
210.000000,2762.385042,-5913.422217,508.949221,4002.571583,-4197.970533,13291.420137,-13661.497970,-8843.422990,2262.376519,2900.608230,-465.340968,-894.539165,16712.645198,13500.945389,-603.184176,-18340.142767,-0.005875,-0.022750,1.003875,192.000000,0.000000,0.000000,0.000000,0.000000,0.000000,0.000000,0.000000,0.000000,0.000000,1771414702.196436,0.000000
212.000000,2833.865921,-5840.533178,556.021995,4038.557892,-4275.776956,13337.911765,-13592.319321,-8780.838106,2230.972318,2858.028157,-499.427378,-921.718886,16676.927111,13458.678241,-515.095951,-14960.067267,-0.005875,-0.022750,1.003875,192.000000,0.000000,0.000000,0.000000,0.000000,0.000000,0.000000,0.000000,0.000000,0.000000,1771414702.196453,0.000000
214.000000,2807.423807,-5862.482591,545.494323,4011.065246,-4236.750810,13323.986629,-13614.022865,-8804.665065,2300.419188,2922.289422,-451.661700,-866.040691,16759.449751,13499.246657,-714.451160,-18044.965630,-0.002000,-0.020000,1.012000,192.000000,127.500000,120.000000,127.500000,48.000000,15.500000,80.000000,0.000000,0.000000,0.000000,1771414702.196470,0.000000
216.000000,2767.034205,-5907.610763,514.470102,4012.071074,-4210.576917,13306.284047,-13662.392040,-8845.077019,2207.368875,2855.122430,-511.251451,-927.195063,16668.165227,13457.694764,-472.404119,-16371.132895,-0.002000,-0.020000,1.012000,192.000000,0.000000,0.000000,0.000000,0.000000,0.000000,0.000000,0.000000,0.000000,0.000000,1771414702.196498,0.000000
218.000000,2859.391613,-5813.129939,589.393150,4035.987441,-4278.794441,13342.806797,-13566.100724,-8758.508713,2265.997501,2900.854099,-459.395404,-885.777281,16735.533385,13501.191259,-666.461964,-15925.908497,-0.002000,-0.020000,1.012000,192.000000,0.000000,0.000000,0.000000,0.000000,0.000000,0.000000,0.000000,0.000000,0.000000,1771414702.196514,0.000000
220.000000,2761.580379,-5910.181214,498.622715,3999.151766,-4193.187260,13323.047855,-13670.237502,-8858.197493,2259.046109,2895.668494,-463.552828,-886.358426,16720.513012,13495.759785,-596.121025,-18262.403400,-0.002000,-0.020000,1.012000,192.000000,0.000000,0.000000,0.000000,0.000000,0.000000,0.000000,0.000000,0.000000,0.000000,1771414702.196530,0.000000
222.000000,2823.070028,-5845.316451,552.535123,4026.733819,-4282.393072,13348.394733,-13604.992760,-8801.021731,2248.473733,2854.742450,-521.309736,-931.821875,16681.933902,13473.832723,-507.183433,-14880.673871,-0.002000,-0.020000,1.012000,192.000000,0.000000,0.000000,0.000000,0.000000,0.000000,0.000000,0.000000,0.000000,0.000000,1771414702.196548,0.000000
224.000000,2809.636630,-5859.733326,559.531219,4007.265449,-4222.825673,13324.210146,-13614.402844,-8810.141243,2263.672920,2919.808378,-440.776401,-873.975560,16729.833690,13514.736416,-709.958459,-17968.410905,0.002000,-0.022000,1.012000,192.000000,0.000000,8.000000,127.500000,40.000000,15.500000,80.000000,0.000000,0.000000,0.000000,1771414702.196561,0.000000
226.000000,2754.517228,-5917.736103,511.072637,4004.158557,-4210.599269,13323.316076,-13666.325947,-8860.522075,2230.793504,2843.723040,-515.274765,-936.716907,16673.350832,13467.998918,-464.648064,-16380.565331,0.002000,-0.022000,1.012000,192.000000,0.000000,0.000000,0.000000,0.000000,0.000000,0.000000,0.000000,0.000000,0.000000,1771414702.196579,0.000000
228.000000,2854.809505,-5818.650820,584.676931,4030.645374,-4295.625305,13349.892300,-13569.341727,-8767.829391,2253.994614,2890.996980,-472.828802,-898.540127,16692.863905,13501.124203,-670.574685,-15912.720968,0.002000,-0.022000,1.012000,192.000000,0.000000,0.000000,0.000000,0.000000,0.000000,0.000000,0.000000,0.000000,0.000000,1771414702.196594,0.000000
230.000000,2760.261626,-5913.109292,508.993925,3992.781519,-4183.061920,13303.333617,-13668.918749,-8854.040069,2252.854675,2888.113605,-471.733567,-896.081435,16698.697710,13505.818070,-603.944135,-18280.485961,0.002000,-0.022000,1.012000,192.000000,0.000000,0.000000,0.000000,0.000000,0.000000,0.000000,0.000000,0.000000,0.000000,1771414702.196610,0.000000
232.000000,2837.308089,-5841.069620,565.968521,4026.845578,-4268.110307,13335.117797,-13596.119117,-8785.531972,2234.079210,2848.483962,-501.573146,-929.318479,16684.772573,13474.413869,-521.197977,-14924.080959,0.002000,-0.022000,1.012000,192.000000,0.000000,0.000000,0.000000,0.000000,0.000000,0.000000,0.000000,0.000000,0.000000,1771414702.196625,0.000000
234.000000,2818.577328,-5855.933530,563.420422,4007.310153,-4241.981118,13319.002190,-13608.367873,-8798.048949,2316.445388,2923.630526,-434.562616,-864.610179,16764.076562,13522.447768,-738.389878,-18013.494374,0.002000,-0.022000,1.012000,192.000000,0.000000,0.000000,127.500000,32.000000,15.500000,56.000000,0.000000,0.000000,0.000000,1771414702.196642,0.000000
236.000000,2754.897208,-5920.641830,512.279631,3995.955467,-4217.349496,13297.790384,-13666.884740,-8853.280110,2209.268774,2830.669621,-504.188300,-942.126029,16671.272119,13448.731714,-502.310753,-16393.574046,0.002000,-0.022000,1.012000,192.000000,0.000000,0.000000,0.000000,0.000000,0.000000,0.000000,0.000000,0.000000,0.000000,1771414702.196660,0.000000
238.000000,2853.736622,-5825.043419,588.409673,4020.676496,-4287.198697,13319.583335,-13568.246492,-8760.766239,2266.221019,2881.922171,-461.027081,-902.518738,16741.166024,13480.292378,-688.165508,-15905.657817,0.002000,-0.022000,1.012000,192.000000,0.000000,0.000000,0.000000,0.000000,0.000000,0.000000,0.000000,0.000000,0.000000,1771414702.196673,0.000000
240.000000,2741.799085,-5931.705944,501.774311,3981.225667,-4209.526385,13280.691300,-13678.060612,-8865.260645,2255.223960,2865.806564,-467.956122,-910.319496,16707.705463,13477.431354,-624.910071,-18294.098174,0.002000,-0.022000,1.012000,192.000000,0.000000,0.000000,0.000000,0.000000,0.000000,0.000000,0.000000,0.000000,0.000000,1771414702.196691,0.000000
242.000000,2820.834854,-5853.228969,565.119155,4026.331487,-4278.034482,13343.991440,-13600.924742,-8791.231667,2211.191024,2827.294508,-508.792759,-944.517665,16649.143892,13445.401304,-532.239739,-14913.776805,0.002000,-0.022000,1.012000,192.000000,0.000000,0.000000,0.000000,0.000000,0.000000,0.000000,0.000000,0.000000,0.000000,1771414702.196706,0.000000
244.000000,2817.146816,-5853.050155,557.787783,4016.072037,-4231.542853,13325.685361,-13606.557382,-8792.125737,2288.416301,2912.477006,-433.601491,-872.030958,16735.533385,13522.268954,-736.244111,-18018.501165,0.002000,-0.022000,1.008000,192.000000,0.000000,8.000000,127.500000,40.000000,15.500000,64.000000,0.000000,0.000000,0.000000,1771414702.196723,0.000000
246.000000,2757.445306,-5913.355161,515.900614,3999.598801,-4230.201749,13307.982780,-13667.778810,-8850.374383,2216.577794,2837.911587,-494.152366,-934.124104,16656.967003,13471.709308,-496.544003,-16450.191015,0.002000,-0.022000,1.008000,192.000000,0.000000,0.000000,0.000000,0.000000,0.000000,0.000000,0.000000,0.000000,0.000000,1771414702.196737,0.000000
248.000000,2862.297340,-5810.224212,585.928629,4023.917499,-4284.181211,13344.304364,-13571.912178,-8758.933396,2256.922693,2883.084462,-458.970721,-898.674238,16709.337140,13494.821011,-680.409453,-15895.465421,0.002000,-0.022000,1.008000,192.000000,0.000000,0.000000,0.000000,0.000000,0.000000,0.000000,0.000000,0.000000,0.000000,1771414702.196769,0.000000
250.000000,2756.350071,-5911.298801,508.837463,3990.144013,-4195.198917,13304.607666,-13671.355089,-8851.983708,2274.804088,2887.867735,-463.932808,-891.678142,16698.675358,13507.650913,-614.762379,-18262.939842,0.002000,-0.022000,1.008000,192.000000,0.000000,0.000000,0.000000,0.000000,0.000000,0.000000,0.000000,0.000000,0.000000,1771414702.196781,0.000000
252.000000,2835.028211,-5831.301907,567.063757,4025.392714,-4282.214258,13340.884547,-13598.846030,-8779.295835,2224.423256,2843.745392,-493.392407,-926.502159,16660.409172,13471.374031,-524.483684,-14885.457144,0.002000,-0.022000,1.008000,192.000000,0.000000,0.000000,0.000000,0.000000,0.000000,0.000000,0.000000,0.000000,0.000000,1771414702.196794,0.000000
254.000000,2823.494711,-5846.188169,561.654635,4003.733874,-4240.260034,13318.331637,-13604.970408,-8789.018844,2291.232621,2919.741323,-426.806560,-861.123307,16728.403178,13519.184413,-737.048773,-17932.737521,0.004000,-0.022000,1.004000,192.000000,0.000000,16.000000,127.500000,40.000000,15.500000,48.000000,0.000000,0.000000,0.000000,1771414702.196806,0.000000
0.000000,2774.097356,-5899.944115,517.040553,3995.664894,-4231.274632,13292.090689,-13655.574758,-8834.996383,2243.310481,2840.549092,-505.015314,-925.921014,16668.813428,13455.414886,-502.444864,-16409.600247,0.004000,-0.022000,1.004000,192.000000,0.000000,0.000000,0.000000,0.000000,0.000000,0.000000,0.000000,0.000000,0.000000,1771414702.196818,0.000000
2.000000,2865.627750,-5808.391369,594.846975,4020.900014,-4273.430022,13311.514355,-13560.825713,-8748.763352,2262.376519,2886.884259,-448.510104,-884.145604,16728.649047,13505.281628,-695.698046,-15883.596645,0.004000,-0.022000,1.004000,192.000000,0.000000,0.000000,0.000000,0.000000,0.000000,0.000000,0.000000,0.000000,0.000000,1771414702.196831,0.000000
4.000000,2762.765022,-5908.080150,507.719875,3983.058510,-4211.582746,13265.268596,-13667.711755,-8848.966223,2250.910074,2875.216648,-456.064994,-896.841395,16677.776477,13485.746203,-622.674897,-18308.090366,0.004000,-0.022000,1.004000,192.000000,0.000000,0.000000,0.000000,0.000000,0.000000,0.000000,0.000000,0.000000,0.000000,1771414702.196843,0.000000
6.000000,2818.219700,-5851.105553,553.920931,4014.172138,-4291.512584,13305.948771,-13602.779937,-8793.600952,2238.840132,2839.655023,-505.216480,-934.682898,16652.474302,13463.953252,-528.842274,-14914.156784,0.004000,-0.022000,1.004000,192.000000,0.000000,0.000000,0.000000,0.000000,0.000000,0.000000,0.000000,0.000000,0.000000,1771414702.196855,0.000000
8.000000,2815.381028,-5856.738193,562.325187,3991.194545,-4231.788722,13287.709747,-13611.541821,-8798.585391,2270.132574,2902.888108,-443.011575,-882.625685,16733.342914,13511.942448,-738.747506,-17965.773400,-0.002000,-0.018000,1.008000,192.000000,127.500000,120.000000,127.500000,56.000000,15.500000,64.000000,0.000000,0.000000,0.000000,1771414702.196868,0.000000
10.000000,2761.826248,-5906.649638,511.273803,3996.201336,-4198.439920,13266.967328,-13667.778810,-8850.083810,2226.658431,2835.698764,-503.808320,-940.337889,16682.872675,13459.996994,-491.000770,-16459.735210,-0.002000,-0.018000,1.008000,192.000000,0.000000,0.000000,0.000000,0.000000,0.000000,0.000000,0.000000,0.000000,0.000000,1771414702.196882,0.000000
12.000000,2854.764802,-5818.762579,588.543783,4029.058400,-4261.203618,13294.638788,-13571.196922,-8765.638920,2265.349301,2875.171945,-467.665549,-906.922031,16714.992132,13495.111584,-663.958569,-15871.437296,-0.002000,-0.018000,1.008000,192.000000,0.000000,0.000000,0.000000,0.000000,0.000000,0.000000,0.000000,0.000000,0.000000,1771414702.196901,0.000000
14.000000,2737.641661,-5937.629156,499.472082,3990.635752,-4200.675094,13257.378430,-13679.222903,-8871.429726,2247.646719,2854.340119,-481.635390,-921.227148,16683.386765,13484.785078,-596.590411,-18297.495639,-0.002000,-0.018000,1.008000,192.000000,0.000000,0.000000,0.000000,0.000000,0.000000,0.000000,0.000000,0.000000,0.000000,1771414702.196914,0.000000
16.000000,2807.334400,-5865.880056,549.964672,4022.866967,-4276.425156,13284.647558,-13611.117138,-8805.648542,2202.160919,2805.412150,-525.511864,-970.289227,16635.576384,13456.286604,-508.211614,-14871.934339,-0.002000,-0.018000,1.008000,192.000000,0.000000,0.000000,0.000000,0.000000,0.000000,0.000000,0.000000,0.000000,0.000000,1771414702.196931,0.000000
18.000000,2805.166281,-5866.237684,557.631321,4003.197432,-4237.354307,13267.615529,-13616.950943,-8811.527051,2269.439670,2885.744320,-452.198142,-906.162072,16717.786100,13512.657703,-721.559015,-17868.766829,-0.002000,-0.018000,1.008000,192.000000,0.000000,0.000000,127.500000,56.000000,15.500000,56.000000,0.000000,0.000000,0.000000,1771414702.196946,0.000000
20.000000,2761.490972,-5916.953792,514.783027,3992.356836,-4216.231908,13251.768142,-13671.265682,-8853.861255,2230.122951,2813.347019,-521.466198,-965.081270,16648.182767,13455.481941,-466.257389,-16400.436032,-0.002000,-0.018000,1.008000,192.000000,0.000000,0.000000,0.000000,0.000000,0.000000,0.000000,0.000000,0.000000,0.000000,1771414702.196964,0.000000
22.000000,2866.410061,-5811.788835,591.427158,4017.927232,-4276.022825,13277.785573,-13570.526370,-8756.430001,2260.074289,2866.812392,-464.201029,-920.176616,16736.002771,13488.026081,-660.471697,-15824.655095,-0.002000,-0.018000,1.008000,192.000000,0.000000,0.000000,0.000000,0.000000,0.000000,0.000000,0.000000,0.000000,0.000000,1771414702.196977,0.000000
24.000000,2771.191629,-5905.017961,513.285460,3981.493888,-4202.552641,13230.377523,-13666.325947,-8842.350107,2271.585437,2872.020349,-467.531439,-911.951174,16716.266181,13494.373977,-622.473731,-18307.822145,-0.002000,-0.018000,1.008000,192.000000,0.000000,0.000000,0.000000,0.000000,0.000000,0.000000,0.000000,0.000000,0.000000,1771414702.196997,0.000000
26.000000,2847.254616,-5829.491416,566.281446,4018.821301,-4275.844011,13271.124753,-13595.649731,-8774.959597,2247.758478,2833.329479,-501.126111,-942.818933,16673.283776,13482.684014,-530.809227,-14931.971125,-0.002000,-0.018000,1.008000,192.000000,0.000000,0.000000,0.000000,0.000000,0.000000,0.000000,0.000000,0.000000,0.000000,1771414702.197016,0.000000
28.000000,2841.778438,-5831.860701,568.248399,4006.281973,-4239.723592,13254.360945,-13601.885867,-8779.027614,2278.514478,2910.353590,-428.460589,-882.156298,16723.843422,13523.297134,-740.759163,-17951.870615,-0.002000,-0.022000,1.008000,192.000000,127.500000,120.000000,127.500000,24.000000,15.500000,64.000000,0.000000,0.000000,0.000000,1771414702.197028,0.000000
30.000000,2783.708606,-5893.238591,521.175625,4003.689170,-4227.005449,13241.598098,-13661.497970,-8838.527958,2250.619501,2849.176866,-491.693675,-935.778133,16680.101058,13488.584875,-491.827785,-16470.687565,-0.002000,-0.022000,1.008000,192.000000,0.000000,0.000000,0.000000,0.000000,0.000000,0.000000,0.000000,0.000000,0.000000,1771414702.197046,0.000000
32.000000,2871.685072,-5803.943372,593.930554,4024.409237,-4293.680703,13287.173305,-13566.503056,-8754.351289,2295.725321,2882.838593,-462.256427,-910.252441,16729.520765,13504.052282,-679.828308,-15839.966040,-0.002000,-0.022000,1.008000,192.000000,0.000000,0.000000,0.000000,0.000000,0.000000,0.000000,0.000000,0.000000,0.000000,1771414702.197062,0.000000
34.000000,2759.613426,-5913.533975,498.756826,3993.854403,-4210.688676,13249.532968,-13674.149057,-8857.459886,2242.930501,2874.143764,-465.519782,-921.115389,16697.513067,13498.307884,-617.265775,-18303.932941,-0.002000,-0.022000,1.008000,192.000000,0.000000,0.000000,0.000000,0.000000,0.000000,0.000000,0.000000,0.000000,0.000000,1771414702.197078,0.000000
36.000000,2820.521929,-5857.878132,556.401975,4030.690078,-4293.725406,13275.639805,-13609.977199,-8801.021731,2216.868367,2819.024362,-527.523521,-966.735299,16675.876579,13458.298261,-509.932698,-14894.017863,-0.002000,-0.022000,1.008000,192.000000,0.000000,0.000000,0.000000,0.000000,0.000000,0.000000,0.000000,0.000000,0.000000,1771414702.197096,0.000000
38.000000,2817.370333,-5862.348481,554.569132,4012.652220,-4226.446656,13280.065451,-13616.012170,-8804.553307,2277.866277,2893.187451,-448.957139,-903.010476,16726.324466,13497.816145,-717.938032,-17895.164239,-0.002000,-0.022000,1.008000,192.000000,0.000000,0.000000,127.500000,16.000000,15.500000,80.000000,0.000000,0.000000,0.000000,1771414702.197114,0.000000
40.000000,2756.439478,-5915.970315,504.031837,4004.762054,-4199.311638,13284.379337,-13680.251083,-8865.372403,2224.914995,2813.414075,-525.511864,-969.059881,16672.948500,13451.860959,-473.991093,-16444.781893,-0.002000,-0.022000,1.008000,192.000000,0.000000,0.000000,0.000000,0.000000,0.000000,0.000000,0.000000,0.000000,0.000000,1771414702.197132,0.000000
42.000000,2857.759936,-5818.203785,587.336789,4030.824188,-4255.302758,13318.264582,-13580.897579,-8768.924626,2277.106318,2871.618017,-489.793776,-928.200892,16713.852193,13501.928866,-649.899322,-15773.871931,-0.002000,-0.022000,1.008000,192.000000,0.000000,0.000000,0.000000,0.000000,0.000000,0.000000,0.000000,0.000000,0.000000,1771414702.197150,0.000000
44.000000,2774.365577,-5907.476653,512.123169,3989.294647,-4162.207742,13269.269558,-13676.071307,-8853.302461,2270.043167,2868.734642,-473.409948,-920.824816,16726.503280,13494.999825,-585.056911,-18269.600662,-0.002000,-0.022000,1.008000,192.000000,0.000000,0.000000,0.000000,0.000000,0.000000,0.000000,0.000000,0.000000,0.000000,1771414702.197169,0.000000
46.000000,2823.494711,-5853.899521,563.420422,4021.078828,-4233.599214,13275.013956,-13612.994684,-8797.624266,2237.722544,2816.498615,-514.604213,-962.533171,16683.632634,13450.229281,-476.740357,-14891.447412,-0.002000,-0.022000,1.008000,192.000000,0.000000,0.000000,0.000000,0.000000,0.000000,0.000000,0.000000,0.000000,0.000000,1771414702.197187,0.000000
48.000000,2821.594813,-5852.603120,554.747946,4015.937926,-4201.569164,13261.647613,-13613.262905,-8796.909010,2286.181126,2889.141785,-449.493581,-896.953153,16751.336068,13508.120299,-694.111072,-17898.025262,-0.002000,-0.023000,1.008000,192.000000,127.500000,120.000000,127.500000,32.000000,15.500000,64.000000,0.000000,0.000000,0.000000,1771414702.197205,0.000000
50.000000,2756.305368,-5917.870214,512.011410,4007.243098,-4196.920001,13227.024761,-13669.723412,-8854.621214,2230.748800,2818.219700,-512.749018,-954.486543,16682.380936,13454.677278,-456.713194,-16482.198713,-0.002000,-0.023000,1.008000,192.000000,0.000000,0.000000,0.000000,0.000000,0.000000,0.000000,0.000000,0.000000,0.000000,1771414702.197224,0.000000
52.000000,2858.564598,-5816.728570,592.924725,4026.577357,-4266.635092,13241.687505,-13572.716841,-8761.347385,2264.768155,2859.391613,-474.147555,-922.769418,16703.413928,13478.370127,-649.206418,-15803.733862,-0.002000,-0.023000,1.008000,192.000000,0.000000,0.000000,0.000000,0.000000,0.000000,0.000000,0.000000,0.000000,0.000000,1771414702.197242,0.000000
54.000000,2759.591074,-5914.718618,514.157178,3994.569659,-4184.268914,13202.437842,-13668.516418,-8850.888473,2277.955684,2865.046604,-462.949331,-916.443874,16709.247733,13480.784116,-599.384379,-18305.274046,-0.002000,-0.023000,1.008000,192.000000,0.000000,0.000000,0.000000,0.000000,0.000000,0.000000,0.000000,0.000000,0.000000,1771414702.197259,0.000000
56.000000,2812.140025,-5860.672100,561.051138,4026.219729,-4275.374624,13223.314372,-13605.283333,-8797.467804,2235.017983,2816.766836,-512.480797,-958.018119,16683.565579,13446.675354,-505.976439,-14923.589220,-0.002000,-0.023000,1.008000,192.000000,0.000000,0.000000,0.000000,0.000000,0.000000,0.000000,0.000000,0.000000,0.000000,1771414702.197282,0.000000
58.000000,2808.630801,-5865.701242,549.741155,4016.496720,-4248.954862,13240.838139,-13611.005379,-8800.105309,2268.836173,2882.749186,-454.768593,-903.971601,16756.968708,13494.798660,-738.099305,-17900.685120,-0.003000,-0.023500,1.005000,192.000000,127.500000,112.000000,127.500000,32.000000,15.500000,40.000000,0.000000,0.000000,0.000000,1771414702.677557,0.000000
60.000000,2751.723260,-5919.010153,504.389465,4009.187699,-4225.932565,13221.123901,-13669.589301,-8857.728107,2241.120010,2821.460703,-529.043440,-955.760593,16664.365430,13473.989186,-506.535233,-16487.205504,-0.003000,-0.023500,1.005000,192.000000,0.000000,0.000000,0.000000,0.000000,0.000000,0.000000,0.000000,0.000000,0.000000,1771414702.677629,0.000000
62.000000,2848.886293,-5823.076465,577.904353,4035.652165,-4287.131642,13239.966421,-13572.605082,-8768.119963,2253.569931,2868.153497,-477.746186,-919.126084,16698.697710,13494.530439,-673.301598,-15788.467620,-0.003000,-0.023500,1.005000,192.000000,0.000000,0.000000,0.000000,0.000000,0.000000,0.000000,0.000000,0.000000,0.000000,1771414702.677681,0.000000
64.000000,2745.330661,-5927.481464,505.954087,4002.616287,-4199.021065,13208.428110,-13674.573740,-8862.869008,2268.210324,2862.140878,-491.201936,-919.886043,16714.813318,13491.937636,-615.634098,-18306.481040,-0.003000,-0.023500,1.005000,192.000000,0.000000,0.000000,0.000000,0.000000,0.000000,0.000000,0.000000,0.000000,0.000000,1771414702.677748,0.000000
66.000000,2818.242051,-5853.765411,559.553571,4036.725049,-4265.182229,13254.003317,-13605.328036,-8792.863344,2223.506835,2822.868862,-517.375829,-954.799468,16677.374146,13464.266177,-501.819015,-14887.625264,-0.003000,-0.023500,1.005000,192.000000,0.000000,0.000000,0.000000,0.000000,0.000000,0.000000,0.000000,0.000000,0.000000,1771414702.677800,0.000000
68.000000,2811.692990,-5862.706108,559.754736,4021.391752,-4221.506920,13243.654459,-13614.156975,-8799.591219,2280.682597,2892.427491,-450.700575,-895.790863,16762.668403,13520.033779,-708.237375,-17854.998154,-0.005500,-0.025750,1.005500,192.000000,127.500000,96.000000,127.500000,16.000000,15.500000,56.000000,0.000000,0.000000,0.000000,1771414702.677853,0.000000
70.000000,2753.690213,-5922.944060,512.212576,4018.731894,-4196.182394,13223.269668,-13673.344394,-8854.487104,2243.891626,2825.327554,-517.152311,-948.138648,16663.985451,13472.245750,-461.630578,-16480.343518,-0.005500,-0.025750,1.005500,192.000000,0.000000,0.000000,0.000000,0.000000,0.000000,0.000000,0.000000,0.000000,0.000000,1771414702.677873,0.000000
72.000000,2862.453802,-5809.911288,593.036484,4047.297424,-4243.702202,13252.572805,-13572.090992,-8755.602986,2263.762327,2873.383805,-470.660683,-912.688781,16706.230248,13501.303017,-647.083002,-15750.201434,-0.005500,-0.025750,1.005500,192.000000,0.000000,0.000000,0.000000,0.000000,0.000000,0.000000,0.000000,0.000000,0.000000,1771414702.677891,0.000000
74.000000,2767.414185,-5903.386283,521.086218,4009.813548,-4164.711137,13197.319293,-13666.191836,-8841.388982,2282.828365,2888.694750,-461.652930,-897.668409,16739.176719,13520.838442,-604.368818,-18310.817279,-0.005500,-0.025750,1.005500,192.000000,0.000000,0.000000,0.000000,0.000000,0.000000,0.000000,0.000000,0.000000,0.000000,1771414702.677909,0.000000
76.000000,2835.274081,-5838.812094,568.650731,4037.037973,-4236.639051,13229.796377,-13598.242533,-8777.284178,2248.585492,2839.453857,-504.970611,-940.047317,16723.731664,13482.102869,-513.441922,-14909.932305,-0.005500,-0.025750,1.005500,192.000000,0.000000,0.000000,0.000000,0.000000,0.000000,0.000000,0.000000,0.000000,0.000000,1771414702.677928,0.000000
78.000000,2821.036019,-5853.296024,580.363045,4011.132301,-4211.538042,13228.119997,-13603.517545,-8785.822545,2303.414321,2905.793834,-436.596624,-880.815194,16783.164952,13512.389483,-724.487093,-17870.890244,-0.008750,-0.025875,1.005750,192.000000,127.500000,80.000000,127.500000,24.000000,15.500000,56.000000,0.000000,0.000000,0.000000,1771414702.677947,0.000000
80.000000,2759.546370,-5914.808025,521.466198,4002.616287,-4199.959838,13219.156947,-13665.320118,-8847.468656,2263.047071,2836.615185,-502.623678,-942.684822,16685.599588,13472.983357,-483.267067,-16522.789481,-0.008750,-0.025875,1.005750,192.000000,0.000000,0.000000,0.000000,0.000000,0.000000,0.000000,0.000000,0.000000,0.000000,1771414702.677966,0.000000
82.000000,2861.872657,-5820.394256,603.765321,4027.449075,-4272.781822,13241.419285,-13563.172646,-8751.825541,2283.185993,2867.661758,-466.749128,-917.181482,16753.593594,13494.664549,-663.846810,-15766.160579,-0.008750,-0.025875,1.005750,192.000000,0.000000,0.000000,0.000000,0.000000,0.000000,0.000000,0.000000,0.000000,0.000000,1771414702.677985,0.000000
84.000000,2756.126554,-5918.898394,520.058038,3993.385016,-4186.638199,13194.994711,-13664.694269,-8846.351069,2266.757460,2872.936770,-455.819125,-906.698514,16757.549853,13516.345741,-625.558272,-18355.632526,-0.008750,-0.025875,1.005750,192.000000,0.000000,0.000000,0.000000,0.000000,0.000000,0.000000,0.000000,0.000000,0.000000,1771414702.678004,0.000000
86.000000,2820.901909,-5851.306719,565.946170,4030.064229,-4273.608836,13235.518424,-13604.590428,-8791.119908,2251.625329,2826.825121,-518.493416,-951.267892,16676.457724,13472.245750,-514.648916,-14967.219826,-0.008750,-0.025875,1.005750,192.000000,0.000000,0.000000,0.000000,0.000000,0.000000,0.000000,0.000000,0.000000,0.000000,1771414702.678023,0.000000
88.000000,2821.773627,-5851.284367,560.045309,4018.597784,-4210.688676,13221.190956,-13606.713844,-8788.080071,2293.445443,2908.006657,-438.049488,-885.643171,16768.949243,13514.758767,-729.113904,-17897.824096,-0.008750,-0.025875,1.005750,192.000000,0.000000,0.000000,0.000000,0.000000,0.000000,0.000000,0.000000,0.000000,0.000000,1771414702.678055,0.000000
90.000000,2758.205266,-5919.434836,517.778160,4011.646391,-4215.851929,13199.330950,-13668.561121,-8850.329679,2248.719603,2831.720153,-512.860777,-949.412697,16707.817222,13467.998918,-478.282628,-16567.090639,-0.010000,-0.026000,1.006000,192.000000,127.500000,88.000000,127.500000,24.000000,15.500000,56.000000,0.000000,0.000000,0.000000,1771414702.678074,0.000000
92.000000,2858.519895,-5815.543928,602.357161,4041.709488,-4265.182229,13217.972305,-13568.224140,-8753.859550,2289.712702,2877.094195,-474.929866,-916.645040,16721.854117,13498.665511,-655.509610,-15781.784449,-0.010000,-0.026000,1.006000,192.000000,0.000000,0.000000,0.000000,0.000000,0.000000,0.000000,0.000000,0.000000,0.000000,1771414702.678094,0.000000
94.000000,2759.524019,-5915.746798,524.215463,4006.751359,-4193.209612,13174.766383,-13667.644700,-8846.731048,2281.151984,2872.288569,-469.386634,-911.191214,16737.992077,13485.209761,-605.352295,-18361.354573,-0.010000,-0.026000,1.006000,192.000000,0.000000,0.000000,0.000000,0.000000,0.000000,0.000000,0.000000,0.000000,0.000000,1771414702.678113,0.000000
96.000000,2822.645345,-5853.228969,564.694472,4040.234273,-4244.395106,13218.329932,-13605.529202,-8790.739929,2254.262835,2819.918432,-528.931681,-953.659529,16676.457724,13442.473226,-488.810299,-14962.324794,-0.010000,-0.026000,1.006000,192.000000,0.000000,0.000000,0.000000,0.000000,0.000000,0.000000,0.000000,0.000000,0.000000,1771414702.678131,0.000000
98.000000,2837.017517,-5840.399067,576.071510,4027.203205,-4205.815995,13246.806055,-13600.187135,-8778.222952,2303.146100,2897.568392,-442.899816,-881.195173,16774.425420,13513.574125,-701.665962,-17863.760038,-0.010000,-0.026000,1.006000,192.000000,0.000000,0.000000,0.000000,0.000000,0.000000,0.000000,0.000000,0.000000,0.000000,1771414702.678151,0.000000
100.000000,2772.845658,-5903.699208,524.774256,4019.760075,-4192.427301,13224.722531,-13665.253063,-8839.690249,2257.995577,2832.793037,-505.462349,-935.599319,16708.554829,13481.320558,-470.347759,-16542.146092,-0.008000,-0.022000,1.006000,192.000000,127.500000,96.000000,127.500000,40.000000,15.500000,56.000000,0.000000,0.000000,0.000000,1771414702.678169,0.000000
102.000000,2883.978532,-5794.421529,607.095731,4040.882473,-4261.851819,13260.865302,-13562.010355,-8741.700201,2298.541641,2881.855116,-460.512991,-900.663543,16751.246661,13508.768500,-648.781735,-15735.471634,-0.008000,-0.022000,1.006000,192.000000,0.000000,0.000000,0.000000,0.000000,0.000000,0.000000,0.000000,0.000000,0.000000,1771414702.678188,0.000000
104.000000,2785.563801,-5893.506812,529.825751,4008.472444,-4170.142611,13231.763331,-13659.195740,-8832.314173,2320.379295,2885.856078,-461.161192,-894.293296,16757.952184,13506.756843,-605.106426,-18360.996945,-0.008000,-0.022000,1.006000,192.000000,0.000000,0.000000,0.000000,0.000000,0.000000,0.000000,0.000000,0.000000,0.000000,1771414702.678207,0.000000
106.000000,2849.109810,-5830.094913,583.067606,4040.390735,-4242.919891,13258.339555,-13596.923780,-8772.590312,2257.816763,2841.487866,-489.838480,-931.352488,16718.993094,13471.999880,-481.054244,-14968.940910,-0.008000,-0.022000,1.006000,192.000000,0.000000,0.000000,0.000000,0.000000,0.000000,0.000000,0.000000,0.000000,0.000000,1771414702.678226,0.000000
108.000000,2844.952386,-5830.094913,572.942266,4032.835845,-4220.612850,13251.365811,-13597.594332,-8772.210332,2325.140217,2914.913346,-426.203063,-866.979464,16791.837429,13522.738340,-709.556128,-17876.813457,-0.008000,-0.022000,1.006000,192.000000,0.000000,0.000000,0.000000,0.000000,0.000000,0.000000,0.000000,0.000000,0.000000,1771414702.678244,0.000000
110.000000,2773.583266,-5903.788615,516.101779,4007.556022,-4211.001600,13213.323142,-13669.835170,-8846.239310,2253.838152,2830.468456,-503.920079,-937.409811,16695.590817,13467.037793,-474.304017,-16593.197476,-0.006000,-0.026000,1.010000,192.000000,127.500000,104.000000,127.500000,24.000000,15.500000,72.000000,0.000000,0.000000,0.000000,1771414702.678270,0.000000
112.000000,2862.498505,-5812.124111,589.147280,4031.405333,-4276.894543,13228.678790,-13572.023937,-8760.810943,2273.351225,2861.447973,-472.046491,-912.755837,16739.534347,13486.684976,-646.814781,-15761.846693,-0.006000,-0.026000,1.010000,192.000000,0.000000,0.000000,0.000000,0.000000,0.000000,0.000000,0.000000,0.000000,0.000000,1771414702.678289,0.000000
114.000000,2780.221734,-5897.083091,527.769390,4002.593935,-4184.201859,13211.132671,-13659.173388,-8834.884624,2295.412397,2866.544171,-471.845325,-908.419598,16732.627658,13490.641235,-620.082095,-18366.674288,-0.006000,-0.026000,1.010000,192.000000,0.000000,0.000000,0.000000,0.000000,0.000000,0.000000,0.000000,0.000000,0.000000,1771414702.678307,0.000000
116.000000,2834.894101,-5843.170684,570.796498,4029.974822,-4263.215275,13243.341535,-13600.857687,-8781.754527,2237.811951,2824.344078,-506.579936,-944.204741,16674.736640,13450.743371,-502.914250,-14956.133360,-0.006000,-0.026000,1.010000,192.000000,0.000000,0.000000,0.000000,0.000000,0.000000,0.000000,0.000000,0.000000,0.000000,1771414702.678326,0.000000
118.000000,2852.171999,-5823.925832,575.445661,4022.352877,-4220.121112,13244.235604,-13600.388300,-8772.165629,2323.888519,2910.755922,-430.807523,-869.594618,16762.333126,13524.727645,-723.570672,-17822.141090,-0.006000,-0.026000,1.010000,192.000000,0.000000,0.000000,0.000000,0.000000,0.000000,0.000000,0.000000,0.000000,0.000000,1771414702.678344,0.000000
120.000000,2782.725129,-5890.668141,521.689716,4015.803816,-4195.645952,13233.640877,-13668.471714,-8839.198511,2261.504800,2840.437334,-502.087236,-929.743162,16669.662794,13477.878389,-480.450747,-16547.197586,-0.002000,-0.022000,1.006000,192.000000,127.500000,120.000000,127.500000,40.000000,15.500000,56.000000,0.000000,0.000000,0.000000,1771414702.678368,0.000000
122.000000,2892.114567,-5776.517782,603.564156,4052.594787,-4263.058813,13277.807924,-13565.139599,-8740.783780,2305.068350,2892.159270,-462.189372,-893.846261,16726.726797,13509.617866,-645.920711,-15655.318279,-0.002000,-0.022000,1.006000,192.000000,0.000000,0.000000,0.000000,0.000000,0.000000,0.000000,0.000000,0.000000,0.000000,1771414702.678387,0.000000
124.000000,2793.163394,-5874.194905,517.420532,4027.449075,-4189.208649,13249.063581,-13664.448400,-8830.347220,2292.663132,2902.195204,-447.817200,-883.139775,16737.075655,13512.233020,-609.934403,-18293.852305,-0.002000,-0.022000,1.006000,192.000000,0.000000,0.000000,0.000000,0.000000,0.000000,0.000000,0.000000,0.000000,0.000000,1771414702.678407,0.000000
126.000000,2850.048584,-5818.181433,567.488440,4059.546180,-4258.566112,13274.164590,-13602.511716,-8773.283216,2271.339568,2848.036927,-502.333105,-931.084267,16677.396497,13484.650968,-502.020180,-14872.359022,-0.002000,-0.022000,1.006000,192.000000,0.000000,0.000000,0.000000,0.000000,0.000000,0.000000,0.000000,0.000000,0.000000,1771414702.678431,0.000000
128.000000,2860.240979,-5809.352494,575.020978,4037.708525,-4213.795568,13265.805038,-13595.582675,-8762.062640,2333.924453,2924.904576,-422.425618,-865.794821,16790.898656,13533.109550,-719.279137,-17766.306432,-0.002000,-0.022000,1.006000,192.000000,0.000000,0.000000,0.000000,0.000000,0.000000,0.000000,0.000000,0.000000,0.000000,1771414702.678464,0.000000
130.000000,2778.880629,-5888.231801,521.756771,4012.853386,-4196.651780,13225.862470,-13665.320118,-8835.376362,2274.915847,2849.020404,-494.465291,-929.519645,16699.211800,13479.867694,-474.169907,-16556.160635,-0.004000,-0.022000,1.000000,192.000000,127.500000,112.000000,127.500000,40.000000,15.500000,32.000000,0.000000,0.000000,0.000000,1771414702.678484,0.000000
132.000000,2890.818166,-5777.210686,614.225938,4043.497627,-4250.564188,13270.208331,-13556.735344,-8731.999544,2306.923545,2885.923134,-461.630578,-899.188328,16776.213560,13513.261201,-635.705964,-15677.178285,-0.004000,-0.022000,1.000000,192.000000,0.000000,0.000000,0.000000,0.000000,0.000000,0.000000,0.000000,0.000000,0.000000,1771414702.678503,0.000000
134.000000,2792.649304,-5877.257094,527.009431,4007.511319,-4173.696539,13235.630183,-13654.613633,-8825.519243,2302.542603,2894.148576,-449.940616,-891.119348,16717.316713,13510.199012,-596.612763,-18368.417724,-0.004000,-0.022000,1.000000,192.000000,0.000000,0.000000,0.000000,0.000000,0.000000,0.000000,0.000000,0.000000,0.000000,1771414702.678521,0.000000
136.000000,2856.262369,-5814.202823,575.199792,4037.283842,-4244.372755,13263.122828,-13592.006396,-8770.176324,2271.339568,2855.033023,-497.661590,-926.569215,16690.338157,13476.872561,-484.608172,-14975.154695,-0.004000,-0.022000,1.000000,192.000000,0.000000,0.000000,0.000000,0.000000,0.000000,0.000000,0.000000,0.000000,0.000000,1771414702.678540,0.000000
138.000000,2847.545188,-5822.092989,578.172574,4021.481159,-4221.126940,13233.126787,-13595.023882,-8773.819658,2323.374429,2922.200015,-431.053392,-872.165069,16776.012394,13512.948276,-702.023590,-17887.139963,-0.004000,-0.022000,1.000000,192.000000,0.000000,0.000000,0.000000,0.000000,0.000000,0.000000,0.000000,0.000000,0.000000,1771414702.678558,0.000000
140.000000,2784.982656,-5883.515583,529.825751,4014.172138,-4179.150364,13210.350360,-13659.374554,-8834.370534,2293.043112,2853.803677,-498.510957,-930.458418,16719.060149,13474.346813,-461.742337,-16661.392648,-0.004000,-0.024000,1.004000,192.000000,127.500000,112.000000,127.500000,32.000000,15.500000,48.000000,0.000000,0.000000,0.000000,1771414702.678577,0.000000
142.000000,2890.281724,-5776.428375,611.186100,4046.671575,-4241.511731,13241.553395,-13557.405896,-8735.285251,2316.445388,2900.787044,-455.394442,-894.963848,16784.237836,13502.286494,-623.971298,-15726.955620,-0.004000,-0.024000,1.004000,192.000000,0.000000,0.000000,0.000000,0.000000,0.000000,0.000000,0.000000,0.000000,0.000000,1771414702.678595,0.000000
144.000000,2794.303333,-5871.847972,529.803399,4009.612383,-4163.593550,13192.960703,-13656.893510,-8825.921574,2294.428920,2903.603363,-455.036814,-893.399226,16721.876469,13504.544020,-584.207545,-18353.866739,-0.004000,-0.024000,1.004000,192.000000,0.000000,0.000000,0.000000,0.000000,0.000000,0.000000,0.000000,0.000000,0.000000,1771414702.678614,0.000000
146.000000,2856.597645,-5810.023047,584.252248,4042.134171,-4246.853798,13227.360037,-13594.398033,-8764.789553,2274.893495,2860.218627,-493.571221,-930.167846,16701.804602,13467.261310,-458.590741,-14912.301590,-0.004000,-0.024000,1.004000,192.000000,0.000000,0.000000,0.000000,0.000000,0.000000,0.000000,0.000000,0.000000,0.000000,1771414702.678632,0.000000
148.000000,2846.896988,-5821.444788,582.374702,4027.180854,-4226.781932,13214.641895,-13593.034577,-8766.912969,2325.184920,2923.451713,-417.016496,-866.510077,16772.078487,13513.127090,-689.193689,-17745.049923,-0.004000,-0.024000,1.004000,192.000000,0.000000,0.000000,0.000000,0.000000,0.000000,0.000000,0.000000,0.000000,0.000000,1771414702.678650,0.000000
150.000000,2781.384025,-5885.884867,530.518655,4027.918461,-4197.456443,13191.664301,-13655.060667,-8826.569775,2261.102469,2844.952386,-493.012427,-932.559482,16698.563599,13454.386706,-463.038738,-16546.996420,-0.004000,-0.024000,1.004000,192.000000,0.000000,0.000000,127.500000,32.000000,15.500000,80.000000,0.000000,0.000000,0.000000,1771414702.678669,0.000000
152.000000,2889.365302,-5773.187372,611.387266,4059.903808,-4258.297891,13236.881880,-13549.605137,-8724.623468,2324.715534,2897.054302,-451.505238,-890.068816,16780.683909,13493.099927,-640.735107,-15610.480679,-0.004000,-0.024000,1.004000,192.000000,0.000000,0.000000,0.000000,0.000000,0.000000,0.000000,0.000000,0.000000,0.000000,1771414702.678692,0.000000
154.000000,2786.480223,-5879.156992,534.117286,4019.380095,-4178.502164,13193.519496,-13653.049010,-8823.596993,2298.094606,2907.224346,-436.909549,-876.054272,16739.400237,13501.951218,-601.574850,-18322.395482,-0.004000,-0.024000,1.004000,192.000000,0.000000,0.000000,0.000000,0.000000,0.000000,0.000000,0.000000,0.000000,0.000000,1771414702.678711,0.000000
156.000000,2845.064145,-5819.679000,580.340693,4051.633662,-4254.252226,13213.390197,-13594.688606,-8765.571864,2272.635969,2842.359584,-501.796663,-932.224206,16691.075765,13458.208854,-480.249581,-14904.836107,-0.004000,-0.024000,1.004000,192.000000,0.000000,0.000000,0.000000,0.000000,0.000000,0.000000,0.000000,0.000000,0.000000,1771414702.678729,0.000000
158.000000,2858.139915,-5807.787872,585.548649,4036.076848,-4209.727551,13210.283304,-13590.642940,-8758.665175,2329.610566,2933.398239,-419.095209,-856.854124,16771.989080,13522.671285,-701.576555,-17767.289909,-0.004000,-0.024000,1.004000,192.000000,0.000000,0.000000,0.000000,0.000000,0.000000,0.000000,0.000000,0.000000,0.000000,1771414702.678748,0.000000
160.000000,2825.327554,-5849.719745,542.320376,4024.610403,-4179.552696,13224.633124,-13651.394981,-8808.464862,2315.193691,2877.608285,-480.160174,-911.660601,16703.369224,13477.230189,-465.139802,-16631.351904,-0.003000,-0.026000,1.010000,192.000000,127.500000,120.000000,127.500000,16.000000,15.500000,96.000000,0.000000,0.000000,0.000000,1771414702.678767,0.000000
162.000000,2872.914418,-5791.426395,611.275507,4042.312985,-4262.477668,13259.054811,-13553.114361,-8727.596250,2314.009048,2910.621811,-443.168037,-881.731615,16754.219443,13518.715026,-635.504798,-15698.591256,-0.003000,-0.026000,1.010000,192.000000,0.000000,0.000000,0.000000,0.000000,0.000000,0.000000,0.000000,0.000000,0.000000,1771414702.678785,0.000000
164.000000,2795.510327,-5864.203675,531.300966,4007.421912,-4151.009518,13218.754616,-13654.792446,-8816.802063,2295.010065,2904.117454,-442.162209,-883.028016,16724.648085,13497.860849,-613.220109,-18386.567341,-0.003000,-0.026000,1.010000,192.000000,0.000000,0.000000,0.000000,0.000000,0.000000,0.000000,0.000000,0.000000,0.000000,1771414702.678803,0.000000
166.000000,2840.727906,-5822.718838,580.675969,4028.968993,-4232.325164,13219.559278,-13595.448565,-8766.734155,2295.792376,2869.047567,-487.715064,-924.401095,16707.347835,13474.391517,-494.621753,-14923.030427,-0.003000,-0.026000,1.010000,192.000000,0.000000,0.000000,0.000000,0.000000,0.000000,0.000000,0.000000,0.000000,0.000000,1771414702.678822,0.000000
168.000000,2837.173979,-5826.339820,574.238667,4008.740665,-4211.225118,13232.322125,-13598.443699,-8776.233646,2317.026534,2921.216538,-434.070877,-873.014435,16759.270937,13506.130994,-711.903061,-17728.487280,-0.003000,-0.026000,1.010000,192.000000,0.000000,0.000000,0.000000,0.000000,0.000000,0.000000,0.000000,0.000000,0.000000,1771414702.678841,0.000000
170.000000,2746.984690,-5908.258964,516.034724,4004.672647,-4202.105606,13211.825575,-13666.638871,-8845.769923,2238.415448,2837.889235,-500.634372,-942.103677,16683.520875,13447.457665,-472.940561,-16594.024491,-0.003000,-0.026000,1.010000,192.000000,0.000000,0.000000,127.500000,16.000000,15.500000,72.000000,0.000000,0.000000,0.000000,1771414702.678859,0.000000
172.000000,2877.273008,-5779.043529,591.538917,4047.163313,-4253.425211,13258.808942,-13563.038535,-8746.774047,2283.655379,2886.951314,-471.286532,-905.849148,16733.633486,13487.489639,-651.173371,-15613.185240,-0.003000,-0.026000,1.010000,192.000000,0.000000,0.000000,0.000000,0.000000,0.000000,0.000000,0.000000,0.000000,0.000000,1771414702.678878,0.000000
174.000000,2765.335472,-5887.516545,524.953070,4010.685266,-4163.325329,13203.063691,-13662.861426,-8843.557101,2281.509612,2897.523689,-450.387651,-895.165014,16735.846309,13493.591665,-611.007286,-18350.513977,-0.003000,-0.026000,1.010000,192.000000,0.000000,0.000000,0.000000,0.000000,0.000000,0.000000,0.000000,0.000000,0.000000,1771414702.678895,0.000000
176.000000,2840.660851,-5810.090102,567.309626,4046.470409,-4226.938394,13231.942145,-13600.254190,-8779.519353,2255.447478,2857.536418,-501.819015,-937.074535,16708.711291,13458.477075,-488.206802,-14921.376398,-0.003000,-0.026000,1.010000,192.000000,0.000000,0.000000,0.000000,0.000000,0.000000,0.000000,0.000000,0.000000,0.000000,1771414702.678913,0.000000
178.000000,2842.963081,-5821.020105,576.831469,4033.349935,-4213.057961,13219.469871,-13593.571018,-8773.529085,2335.801999,2929.889015,-423.386743,-868.722900,16763.070734,13510.176660,-726.990488,-17735.393969,-0.003000,-0.026000,1.010000,192.000000,0.000000,0.000000,0.000000,0.000000,0.000000,0.000000,0.000000,0.000000,0.000000,1771414703.156573,0.000000
180.000000,2764.262589,-5903.565097,524.953070,4023.179891,-4188.918077,13206.237639,-13658.502836,-8835.957508,2256.967396,2841.487866,-479.154346,-933.073572,16660.476227,13444.015496,-488.810299,-16625.115767,-0.004500,-0.027000,1.011000,192.000000,127.500000,104.000000,127.500000,16.000000,15.500000,80.000000,0.000000,0.000000,0.000000,1771414703.156644,0.000000
182.000000,2866.722985,-5791.761672,605.911089,4051.119572,-4263.662310,13260.977061,-13556.534178,-8740.984945,2281.330798,2874.970779,-460.647101,-904.999781,16716.936733,13474.659738,-652.045089,-15625.925735,-0.004500,-0.027000,1.011000,192.000000,0.000000,0.000000,0.000000,0.000000,0.000000,0.000000,0.000000,0.000000,0.000000,1771414703.156697,0.000000
184.000000,2774.075004,-5879.112289,523.969594,4012.115778,-4172.266027,13226.398912,-13653.004307,-8828.089694,2285.734091,2906.129111,-438.854151,-889.085339,16733.588783,13488.853096,-619.813874,-18381.068812,-0.004500,-0.027000,1.011000,192.000000,0.000000,0.000000,0.000000,0.000000,0.000000,0.000000,0.000000,0.000000,0.000000,1771414703.156759,0.000000
186.000000,2832.927147,-5824.328163,566.259094,4041.754191,-4238.449542,13247.163683,-13599.360120,-8779.117021,2259.627254,2854.518933,-494.867622,-935.956947,16689.466439,13459.080572,-499.047398,-14966.683384,-0.004500,-0.027000,1.011000,192.000000,0.000000,0.000000,0.000000,0.000000,0.000000,0.000000,0.000000,0.000000,0.000000,1771414703.156812,0.000000
188.000000,2825.640479,-5839.125018,571.020016,4031.539444,-4223.250356,13236.948936,-13593.995702,-8774.244341,2307.884670,2918.847253,-410.154511,-870.198115,16752.230138,13506.913305,-738.412230,-17742.770045,-0.004500,-0.027000,1.011000,192.000000,0.000000,0.000000,0.000000,0.000000,0.000000,0.000000,0.000000,0.000000,0.000000,1771414703.156860,0.000000
190.000000,2766.900094,-5894.400882,525.176588,4024.096313,-4171.439012,13222.152081,-13660.447438,-8828.939060,2259.336681,2845.064145,-477.656779,-928.424409,16679.966948,13462.366278,-493.973552,-16647.713381,-0.003250,-0.025500,1.013500,192.000000,127.500000,120.000000,127.500000,32.000000,15.500000,96.000000,0.000000,0.000000,0.000000,1771414703.156879,0.000000
192.000000,2861.582084,-5804.435111,604.949964,4040.033107,-4265.249284,13256.350250,-13560.356326,-8740.180283,2289.310371,2878.100023,-434.406153,-900.887060,16719.015446,13478.280721,-653.497953,-15605.607999,-0.003250,-0.025500,1.013500,192.000000,0.000000,0.000000,0.000000,0.000000,0.000000,0.000000,0.000000,0.000000,0.000000,1771414703.156897,0.000000
194.000000,2775.214943,-5883.292065,522.114399,3999.330580,-4178.055129,13210.976209,-13658.324022,-8829.073170,2291.992580,2885.878430,-427.790037,-896.595525,16752.341897,13482.974587,-624.083057,-18356.660707,-0.003250,-0.025500,1.013500,192.000000,0.000000,0.000000,0.000000,0.000000,0.000000,0.000000,0.000000,0.000000,0.000000,1771414703.156915,0.000000
196.000000,2839.632671,-5825.825730,580.430100,4036.188607,-4246.764391,13254.651517,-13600.075376,-8776.591274,2247.199684,2849.355680,-466.525610,-937.610976,16699.770594,13448.955232,-496.007561,-14954.121703,-0.003250,-0.025500,1.013500,192.000000,0.000000,0.000000,0.000000,0.000000,0.000000,0.000000,0.000000,0.000000,0.000000,1771414703.156933,0.000000
198.000000,2842.583101,-5819.880166,577.747891,4026.599708,-4197.232926,13267.101439,-13596.566152,-8770.399841,2333.700935,2919.070771,-408.411075,-874.579057,16754.420609,13498.352587,-729.382125,-17748.156816,-0.003250,-0.025500,1.013500,192.000000,0.000000,0.000000,0.000000,0.000000,0.000000,0.000000,0.000000,0.000000,0.000000,1771414703.156951,0.000000
200.000000,2772.935065,-5892.746853,530.652765,4014.015676,-4180.536172,13248.035401,-13666.214188,-8838.885586,2252.184123,2849.914473,-464.558657,-934.459380,16683.073841,13452.531511,-498.801529,-16687.566541,-0.002625,-0.024750,1.017750,192.000000,127.500000,120.000000,127.500000,32.000000,15.500000,120.000000,0.000000,0.000000,0.000000,1771414703.156968,0.000000
202.000000,2892.069863,-5770.371052,603.653563,4043.877607,-4239.522426,13280.378375,-13560.803361,-8735.352306,2294.875955,2887.957142,-436.529569,-904.440988,16759.941490,13473.095116,-662.840982,-15619.734302,-0.002625,-0.024750,1.017750,192.000000,0.000000,0.000000,0.000000,0.000000,0.000000,0.000000,0.000000,0.000000,0.000000,1771414703.156986,0.000000
204.000000,2781.451080,-5880.632207,527.098838,4008.338333,-4159.234960,13223.157909,-13661.296804,-8836.672763,2305.291868,2909.951259,-426.761857,-886.090205,16755.918176,13492.228209,-637.963490,-18388.511942,-0.002625,-0.024750,1.017750,192.000000,0.000000,0.000000,0.000000,0.000000,0.000000,0.000000,0.000000,0.000000,0.000000,1771414703.157004,0.000000
206.000000,2828.099171,-5834.229986,566.974350,4040.234273,-4240.505903,13261.737020,-13606.915010,-8790.650522,2250.977129,2836.928110,-495.046436,-952.363128,16704.285646,13452.933842,-495.672285,-14954.300517,-0.002625,-0.024750,1.017750,192.000000,0.000000,0.000000,0.000000,0.000000,0.000000,0.000000,0.000000,0.000000,0.000000,1771414703.157022,0.000000
208.000000,2833.061258,-5828.440884,579.156051,4027.940813,-4212.387408,13270.878884,-13595.537972,-8781.151030,2310.164548,2923.317602,-414.647211,-879.831717,16748.698562,13513.417663,-732.690183,-17697.753632,-0.002625,-0.024750,1.017750,192.000000,0.000000,0.000000,0.000000,0.000000,0.000000,0.000000,0.000000,0.000000,0.000000,1771414703.157038,0.000000
210.000000,2765.447231,-5895.987856,525.869492,4013.836862,-4175.954065,13239.631145,-13664.716621,-8846.686345,2249.121934,2846.092325,-489.346741,-944.472962,16683.342061,13461.785133,-493.682980,-16668.187579,-0.002625,-0.024750,1.017750,192.000000,0.000000,0.000000,127.500000,16.000000,15.500000,88.000000,0.000000,0.000000,0.000000,1771414703.157066,0.000000
212.000000,2864.264293,-5795.896744,598.847937,4042.223578,-4246.540874,13282.166515,-13560.915120,-8750.864416,2307.392932,2888.605343,-459.373052,-911.325325,16759.561510,13480.091212,-657.878895,-15554.824836,-0.002625,-0.024750,1.017750,192.000000,0.000000,0.000000,0.000000,0.000000,0.000000,0.000000,0.000000,0.000000,0.000000,1771414703.157083,0.000000
214.000000,2770.454022,-5894.646751,530.630413,4002.906859,-4172.511896,13222.666171,-13654.501874,-8836.583356,2279.542658,2881.072805,-445.850247,-913.024058,16719.306018,13461.628671,-633.090810,-18353.866739,-0.002625,-0.024750,1.017750,192.000000,0.000000,0.000000,0.000000,0.000000,0.000000,0.000000,0.000000,0.000000,0.000000,1771414703.157100,0.000000
216.000000,2818.733790,-5845.696431,570.014187,4036.322717,-4249.848932,13237.887709,-13596.409690,-8787.096594,2252.809972,2836.235206,-484.608172,-948.317462,16684.012614,13427.743426,-503.495396,-14963.978823,-0.002625,-0.024750,1.017750,192.000000,0.000000,0.000000,0.000000,0.000000,0.000000,0.000000,0.000000,0.000000,0.000000,1771414703.157122,0.000000
218.000000,2832.793037,-5829.849044,579.938362,4027.113799,-4220.612850,13228.522328,-13587.245475,-8774.780783,2299.793339,2900.787044,-420.570424,-890.068816,16750.933737,13466.747220,-741.429715,-17710.181202,-0.002625,-0.024750,1.017750,192.000000,0.000000,0.000000,0.000000,0.000000,0.000000,0.000000,0.000000,0.000000,0.000000,1771414703.157140,0.000000
220.000000,2763.770850,-5901.844013,522.762599,4013.032200,-4198.171699,13198.705101,-13658.301670,-8840.472560,2254.687518,2843.477171,-482.596515,-941.880160,16695.881390,13429.866842,-501.327276,-16693.154477,-0.002625,-0.024750,1.017750,192.000000,0.000000,0.000000,127.500000,24.000000,15.500000,72.000000,0.000000,0.000000,0.000000,1771414703.157158,0.000000
222.000000,2882.302151,-5780.451689,608.660353,4051.030165,-4283.130680,13240.413456,-13548.956936,-8735.531120,2296.418225,2880.156384,-443.659776,-910.207738,16751.291365,13451.436275,-668.831249,-15583.435069,-0.002625,-0.024750,1.017750,192.000000,0.000000,0.000000,0.000000,0.000000,0.000000,0.000000,0.000000,0.000000,0.000000,1771414703.157176,0.000000
224.000000,2777.740690,-5884.856687,517.375829,4009.120644,-4178.859792,13216.541793,-13651.305574,-8832.314173,2290.651475,2899.803567,-423.096171,-892.907488,16719.306018,13474.838552,-649.675804,-18393.831658,-0.002625,-0.024750,1.017750,192.000000,0.000000,0.000000,0.000000,0.000000,0.000000,0.000000,0.000000,0.000000,0.000000,1771414703.157194,0.000000
226.000000,2835.519950,-5826.429227,572.182306,4042.290633,-4255.369813,13240.234642,-13594.330978,-8779.385242,2271.317216,2843.454819,-490.553736,-941.723697,16690.986358,13419.070949,-511.653782,-14976.674614,-0.002625,-0.024750,1.017750,192.000000,0.000000,0.000000,0.000000,0.000000,0.000000,0.000000,0.000000,0.000000,0.000000,1771414703.157213,0.000000
228.000000,2831.787209,-5829.111436,577.859649,4027.136150,-4232.481627,13226.957706,-13590.307664,-8778.379414,2313.338496,2910.107721,-415.206005,-880.457566,16736.852138,13466.568406,-738.859265,-17705.643798,-0.002625,-0.024750,1.017750,192.000000,0.000000,0.000000,0.000000,0.000000,0.000000,0.000000,0.000000,0.000000,0.000000,1771414703.157232,0.000000
230.000000,2762.630911,-5896.479594,526.562396,4019.447150,-4199.736321,13206.885839,-13658.435781,-8840.673726,2253.279359,2836.346964,-490.397273,-940.829628,16673.663756,13424.189499,-497.728646,-16718.300190,-0.002625,-0.024750,1.017750,192.000000,0.000000,0.000000,0.000000,0.000000,0.000000,0.000000,0.000000,0.000000,0.000000,1771414703.157250,0.000000
232.000000,2860.933883,-5797.081387,608.727408,4044.324642,-4283.108328,13261.424096,-13555.975384,-8746.639937,2274.848792,2879.999921,-447.236055,-906.162072,16699.703538,13460.376973,-662.617464,-15562.737353,0.004000,-0.028000,1.012000,192.000000,0.000000,16.000000,127.500000,16.000000,15.500000,80.000000,0.000000,0.000000,0.000000,1771414703.157269,0.000000
234.000000,2773.046824,-5886.175440,524.997774,4009.679438,-4181.229077,13225.169566,-13647.885757,-8834.236423,2294.004237,2892.651009,-436.551921,-892.885136,16716.020312,13474.033889,-642.322080,-18362.293346,0.004000,-0.028000,1.012000,192.000000,0.000000,0.000000,0.000000,0.000000,0.000000,0.000000,0.000000,0.000000,0.000000,1771414703.157287,0.000000
236.000000,2802.059388,-5858.213408,561.028786,4028.589014,-4246.853798,13244.325011,-13601.774109,-8802.541650,2255.514533,2827.808598,-498.108625,-950.060898,16704.084480,13420.926144,-507.228137,-14964.939948,0.004000,-0.028000,1.012000,192.000000,0.000000,0.000000,0.000000,0.000000,0.000000,0.000000,0.000000,0.000000,0.000000,1771414703.157306,0.000000
