Sample_index,EXG Channel 0,EXG Channel 1,EXG Channel 2,EXG Channel 3,EXG Channel 4,EXG Channel 5,EXG Channel 6,EXG Channel 7,EXG Channel 8,EXG Channel 9,EXG Channel 10,EXG Channel 11,EXG Channel 12,EXG Channel 13,EXG Channel 14,EXG Channel 15,Accel Channel 0,Accel Channel 1,Accel Channel 2,Not Used,Digital Channel 0 (D11),Digital Channel 1 (D12),Digital Channel 2 (D13),Digital Channel 3 (D17),Not Used,Digital Channel 4 (D18),Analog Channel 0,Analog Channel 1,Analog Channel 2,Timestamp,Marker Channel
90.000000,15522.615972,14446.401828,4273.139450,-2536.431257,6070.733794,-10273.331138,614.740028,-18079.834352,12367.019041,11184.388242,-8889.154659,748.604625,21691.161000,12279.824886,-267.148050,4343.592148,0.002000,-0.024000,1.004000,192.000000,0.000000,0.000000,0.000000,0.000000,0.000000,0.000000,0.000000,0.000000,0.000000,1769524664.599644,101.000000
92.000000,15496.285617,14421.457281,4301.347351,-2503.887117,6057.009823,-10256.612033,642.232673,-18043.803339,12264.111610,11217.379417,-8793.176269,820.018449,21736.870317,12338.252346,-185.832403,4394.151794,0.002000,-0.024000,1.004000,192.000000,0.000000,0.000000,0.000000,0.000000,0.000000,0.000000,0.000000,0.000000,0.000000,1769524664.599698,0.000000
94.000000,15505.650998,14429.190985,4236.035554,-2573.445746,6059.177942,-10293.805336,581.100652,-18125.051931,12311.921991,11190.132641,-8862.176104,771.761033,21704.348529,12295.538163,-234.581558,4357.427878,0.008000,-0.026000,1.008000,192.000000,0.000000,32.000000,127.500000,24.000000,15.500000,64.000000,0.000000,0.000000,0.000000,1769524664.599740,0.000000
96.000000,15510.233105,14441.037409,4314.400770,-2490.587829,6075.405309,-10241.479902,656.090755,-18026.436034,12334.363143,11208.841051,-8847.401601,783.294533,21717.379596,12313.508965,-225.976136,4358.366651,0.008000,-0.026000,1.008000,192.000000,0.000000,0.000000,0.000000,0.000000,0.000000,0.000000,0.000000,0.000000,0.000000,1769524664.599778,0.000000
98.000000,15483.746288,14408.940304,4253.805191,-2550.758725,6043.196445,-10281.511877,599.607897,-18102.744890,12245.112627,11204.728330,-8815.058627,807.188548,21719.257142,12328.954021,-196.270668,4386.753367,0.008000,-0.026000,1.008000,192.000000,0.000000,0.000000,0.000000,0.000000,0.000000,0.000000,0.000000,0.000000,0.000000,1769524664.599818,0.000000
100.000000,15512.781204,14435.985915,4267.551514,-2538.934653,6070.398518,-10275.476906,611.297859,-18088.506828,12350.769323,11177.347443,-8901.068139,742.502599,21684.321366,12278.439078,-262.543590,4345.894378,0.008000,-0.026000,1.008000,192.000000,0.000000,0.000000,0.000000,0.000000,0.000000,0.000000,0.000000,0.000000,0.000000,1769524664.599860,0.000000
102.000000,15493.245780,14415.735235,4300.162709,-2504.602373,6050.527817,-10255.919129,641.785639,-18047.580784,12254.857988,11214.652504,-8799.077129,816.620984,21735.506861,12340.979259,-189.676903,4395.179974,0.008000,-0.026000,1.008000,192.000000,0.000000,0.000000,0.000000,0.000000,0.000000,0.000000,0.000000,0.000000,0.000000,1769524664.599897,0.000000
104.000000,15500.018358,14422.150185,4232.101647,-2573.132822,6046.213930,-10289.424394,578.887830,-18130.706922,12307.876326,11186.601065,-8866.087659,767.447146,21703.297997,12298.108613,-243.321090,4359.931273,0.006000,-0.025000,1.008000,192.000000,0.000000,16.000000,127.500000,32.000000,15.500000,64.000000,0.000000,0.000000,0.000000,1769524664.599908,0.000000
106.000000,15506.813289,14437.461130,4312.947907,-2495.438158,6070.845553,-10252.968699,654.727299,-18031.755749,12332.999686,11205.443586,-8850.575548,777.572486,21720.754709,12312.167861,-234.335689,4369.900151,0.006000,-0.025000,1.008000,192.000000,0.000000,0.000000,0.000000,0.000000,0.000000,0.000000,0.000000,0.000000,0.000000,1769524664.599919,0.000000
108.000000,15484.036861,14409.789671,4258.744926,-2554.022080,6045.252805,-10284.886990,602.603031,-18100.912047,12245.693773,11199.878001,-8813.538708,803.411103,21724.912134,12329.222242,-193.431997,4384.540544,0.006000,-0.025000,1.008000,192.000000,0.000000,0.000000,0.000000,0.000000,0.000000,0.000000,0.000000,0.000000,0.000000,1769524664.599929,0.000000
110.000000,15513.697626,14443.294936,4272.737118,-2538.979356,6067.783364,-10279.299054,615.634098,-18082.538913,12355.932576,11177.950940,-8893.580305,743.128448,21695.050203,12276.203904,-263.325901,4339.144151,0.006000,-0.025000,1.008000,192.000000,0.000000,0.000000,0.000000,0.000000,0.000000,0.000000,0.000000,0.000000,0.000000,1769524664.599940,0.000000
112.000000,15492.999910,14421.501985,4303.828395,-2501.495481,6050.617224,-10253.996879,646.412450,-18041.434055,12252.689869,11214.294876,-8795.277333,818.587937,21739.418416,12338.095884,-188.179337,4389.882611,0.006000,-0.025000,1.008000,192.000000,0.000000,0.000000,0.000000,0.000000,0.000000,0.000000,0.000000,0.000000,0.000000,1769524664.599950,0.000000
114.000000,15500.845373,14426.978162,4238.226025,-2572.931656,6049.097305,-10295.816993,581.592391,-18125.029579,12305.395282,11184.142373,-8860.522075,770.866963,21704.482639,12296.991026,-241.845875,4360.579474,0.006000,-0.025500,1.006000,192.000000,0.000000,24.000000,127.500000,24.000000,15.500000,48.000000,0.000000,0.000000,0.000000,1769524664.599960,0.000000
116.000000,15514.703454,14444.680744,4318.178215,-2489.760815,6069.124468,-10246.062010,656.716604,-18022.725644,12333.781997,11203.051949,-8843.691211,781.081710,21723.481622,12313.508965,-228.412477,4364.200457,0.006000,-0.025500,1.006000,192.000000,0.000000,0.000000,0.000000,0.000000,0.000000,0.000000,0.000000,0.000000,0.000000,1769524664.599971,0.000000
118.000000,15499.347806,14423.357180,4267.439755,-2543.695574,6054.394669,-10271.051260,606.089903,-18087.635110,12258.657784,11207.589353,-8800.574696,812.172987,21734.791605,12336.978297,-196.695351,4387.178050,0.006000,-0.025500,1.006000,192.000000,0.000000,0.000000,0.000000,0.000000,0.000000,0.000000,0.000000,0.000000,0.000000,1769524664.599981,0.000000
120.000000,15524.538222,14447.944098,4274.569961,-2536.587720,6071.717271,-10275.476906,614.136531,-18076.816866,12374.886855,11189.529144,-8879.319892,753.119678,21707.343663,12291.201924,-253.893465,4341.692250,0.006000,-0.025500,1.006000,192.000000,0.000000,0.000000,0.000000,0.000000,0.000000,0.000000,0.000000,0.000000,0.000000,1769524664.599992,0.000000
122.000000,15502.745271,14427.112273,4305.214203,-2500.556707,6059.580274,-10254.354507,645.317214,-18036.740188,12266.816171,11222.117987,-8787.856554,821.337202,21766.329916,12346.522492,-174.835345,4394.978809,0.006000,-0.025500,1.006000,192.000000,0.000000,0.000000,0.000000,0.000000,0.000000,0.000000,0.000000,0.000000,0.000000,1769524664.600002,0.000000
124.000000,15514.077605,14435.449473,4239.388316,-2569.467136,6055.221683,-10286.339854,581.838260,-18117.362930,12320.370951,11195.094728,-8852.363688,778.175983,21702.962721,12305.708206,-229.552416,4365.116878,0.006000,-0.025750,1.005000,192.000000,0.000000,24.000000,127.500000,24.000000,15.500000,48.000000,0.000000,0.000000,0.000000,1769524664.600013,0.000000
126.000000,15528.092149,14453.733200,4320.681610,-2483.412919,6076.075861,-10237.009554,658.415336,-18015.461327,12350.881082,11219.212260,-8836.695115,792.034065,21727.303770,12323.120215,-226.020840,4368.581399,0.006000,-0.025750,1.005000,192.000000,0.000000,0.000000,0.000000,0.000000,0.000000,0.000000,0.000000,0.000000,0.000000,1769524664.600023,0.000000
128.000000,15509.786071,14429.079226,4267.238589,-2540.275757,6052.874750,-10267.676147,606.961621,-18083.030651,12276.293311,11224.040237,-8792.639827,823.035934,21739.999561,12347.014230,-197.187090,4390.374349,0.006000,-0.025750,1.005000,192.000000,0.000000,0.000000,0.000000,0.000000,0.000000,0.000000,0.000000,0.000000,0.000000,1769524664.600034,0.000000
130.000000,15534.037713,14453.196758,4277.006302,-2535.201911,6076.947579,-10271.855923,614.829435,-18072.614738,12388.186143,11200.347388,-8875.944778,757.254750,21710.338796,12297.907448,-258.542628,4346.855503,0.006000,-0.025750,1.005000,192.000000,0.000000,0.000000,0.000000,0.000000,0.000000,0.000000,0.000000,0.000000,0.000000,1769524664.600044,0.000000
132.000000,15516.044559,14435.829453,4310.310401,-2498.656809,6063.581236,-10243.692725,645.808953,-18030.034665,12291.067814,11237.495987,-8777.284178,828.221539,21758.484454,12359.575911,-182.591400,4393.123614,0.006000,-0.025750,1.005000,192.000000,0.000000,0.000000,0.000000,0.000000,0.000000,0.000000,0.000000,0.000000,0.000000,1769524664.600055,0.000000
134.000000,15516.357483,14433.527223,4239.790647,-2571.881124,6058.417983,-10284.529362,578.217277,-18120.000436,12335.637192,11205.734158,-8848.720354,779.248867,21719.681826,12313.710131,-235.788552,4361.630006,0.006000,-0.023875,1.005500,192.000000,0.000000,24.000000,127.500000,40.000000,15.500000,56.000000,0.000000,0.000000,0.000000,1769524664.600065,0.000000
136.000000,15525.812271,14446.558290,4318.155863,-2488.799690,6078.825126,-10237.389533,654.593188,-18021.339836,12357.921881,11221.380379,-8839.623194,785.932039,21731.371788,12332.776169,-234.603910,4369.631931,0.006000,-0.023875,1.005500,192.000000,0.000000,0.000000,0.000000,0.000000,0.000000,0.000000,0.000000,0.000000,0.000000,1769524664.600075,0.000000
138.000000,15506.567419,14421.233764,4265.897485,-2544.097906,6050.997204,-10267.407926,604.569984,-18088.640939,12274.192247,11213.177289,-8798.853612,812.620021,21739.977210,12342.901509,-196.807110,4386.798070,0.006000,-0.023875,1.005500,192.000000,0.000000,0.000000,0.000000,0.000000,0.000000,0.000000,0.000000,0.000000,0.000000,1769524664.600085,0.000000
140.000000,15523.107710,14441.484444,4270.881924,-2540.253406,6076.008806,-10273.509952,610.068513,-18084.975253,12382.486449,11192.814850,-8882.002101,751.465649,21710.025872,12293.325340,-264.979931,4346.408468,0.006000,-0.023875,1.005500,192.000000,0.000000,0.000000,0.000000,0.000000,0.000000,0.000000,0.000000,0.000000,0.000000,1769524664.600096,0.000000
142.000000,15498.945474,14418.059816,4303.828395,-2505.921126,6055.624015,-10255.539150,641.003327,-18044.831520,12268.045517,11216.440644,-8794.629132,812.016524,21735.439805,12340.845149,-178.813956,4402.868975,0.006000,-0.023875,1.005500,192.000000,0.000000,0.000000,0.000000,0.000000,0.000000,0.000000,0.000000,0.000000,0.000000,1769524664.600106,0.000000
144.000000,15508.333207,14426.173499,4239.254205,-2574.138650,6062.016614,-10293.738281,579.111347,-18124.426082,12323.231974,11188.947998,-8855.850560,768.698844,21707.991863,12303.025997,-232.458142,4369.453117,0.006000,-0.022937,1.005750,192.000000,0.000000,24.000000,127.500000,40.000000,15.500000,56.000000,0.000000,0.000000,0.000000,1769524664.600116,0.000000
146.000000,15520.067873,14446.290069,4319.765189,-2487.749158,6082.669626,-10239.825873,656.627197,-18023.373845,12347.282451,11210.495080,-8843.825322,781.618152,21725.046244,12318.694570,-226.154950,4372.805878,0.006000,-0.022937,1.005750,192.000000,0.000000,0.000000,0.000000,0.000000,0.000000,0.000000,0.000000,0.000000,0.000000,1769524664.600127,0.000000
148.000000,15494.430422,14418.708017,4262.388261,-2544.969624,6054.729945,-10267.072650,603.564156,-18095.391166,12264.022203,11217.267658,-8804.463900,816.196301,21733.316390,12342.812102,-191.420340,4393.190669,0.006000,-0.022937,1.005750,192.000000,0.000000,0.000000,0.000000,0.000000,0.000000,0.000000,0.000000,0.000000,0.000000,1769524664.600137,0.000000
150.000000,15514.055254,14442.959659,4267.551514,-2537.146513,6079.070995,-10261.305900,611.499025,-18085.981081,12367.041393,11188.791536,-8896.128404,748.604625,21697.195971,12290.307854,-256.508619,4347.190779,0.006000,-0.022937,1.005750,192.000000,0.000000,0.000000,0.000000,0.000000,0.000000,0.000000,0.000000,0.000000,0.000000,1769524664.600148,0.000000
152.000000,15494.877457,14422.373703,4300.185061,-2501.271963,6064.631768,-10237.903623,643.037336,-18042.685752,12267.240854,11226.610688,-8800.217068,821.672478,21742.547660,12354.703230,-185.385369,4399.203288,0.006000,-0.022937,1.005750,192.000000,0.000000,0.000000,0.000000,0.000000,0.000000,0.000000,0.000000,0.000000,0.000000,1769524664.600158,0.000000
154.000000,15501.091242,14423.871270,4233.599214,-2574.540982,6061.435468,-10282.629464,578.284333,-18126.951829,12319.186308,11191.853725,-8864.679499,771.403405,21709.467078,12307.429291,-236.839084,4366.860314,0.006000,-0.023469,1.005875,192.000000,0.000000,24.000000,127.500000,32.000000,15.500000,56.000000,0.000000,0.000000,0.000000,1769524664.600169,0.000000
156.000000,15514.278771,14441.730314,4314.579584,-2489.425539,6083.697806,-10238.417713,654.414374,-18027.441863,12347.193044,11209.109272,-8850.732011,780.142937,21718.564238,12319.566288,-226.870206,4372.939989,0.006000,-0.023469,1.005875,192.000000,0.000000,0.000000,0.000000,0.000000,0.000000,0.000000,0.000000,0.000000,0.000000,1769524664.600179,0.000000
158.000000,15493.357538,14413.880040,4260.175438,-2546.422487,6053.992337,-10268.346699,603.720618,-18094.362985,12266.682061,11210.450376,-8809.582449,810.250737,21734.411625,12337.335925,-191.867374,4397.661018,0.006000,-0.023469,1.005875,192.000000,0.000000,0.000000,0.000000,0.000000,0.000000,0.000000,0.000000,0.000000,0.000000,1769524664.600189,0.000000
160.000000,15517.162146,14440.903299,4268.289121,-2536.341850,6075.964102,-10266.916188,612.527205,-18083.432982,12379.357204,11188.232742,-8892.038034,748.425811,21702.538038,12288.519715,-265.069337,4354.164523,0.006000,-0.023469,1.005875,192.000000,0.000000,0.000000,0.000000,0.000000,0.000000,0.000000,0.000000,0.000000,0.000000,1769524664.600199,0.000000
162.000000,15498.230219,14419.132700,4301.570869,-2499.215603,6065.704652,-10242.239862,645.116048,-18041.344648,12273.097011,11219.748702,-8797.780728,817.090370,21741.765349,12347.461265,-179.529211,4404.299486,0.006000,-0.023469,1.005875,192.000000,0.000000,0.000000,0.000000,0.000000,0.000000,0.000000,0.000000,0.000000,0.000000,1769524664.600210,0.000000
164.000000,15509.026111,14424.005380,4236.057906,-2568.796583,6063.558884,-10283.054147,581.726501,-18123.308494,12325.847128,11194.692396,-8859.225674,770.889315,21718.228962,12308.949209,-229.664174,4370.302483,0.005000,-0.023734,1.005937,192.000000,0.000000,16.000000,127.500000,32.000000,15.500000,56.000000,0.000000,0.000000,0.000000,1769524664.600220,0.000000
166.000000,15523.822966,14442.959659,4316.613593,-2485.692797,6082.893143,-10239.445894,658.683557,-18020.669284,12352.736277,11213.847841,-8845.993441,782.288704,21731.192974,12321.130910,-223.584500,4373.521134,0.005000,-0.023734,1.005937,192.000000,0.000000,0.000000,0.000000,0.000000,0.000000,0.000000,0.000000,0.000000,0.000000,1769524664.600230,0.000000
168.000000,15503.147602,14417.344560,4262.477668,-2541.236882,6059.043832,-10269.106659,607.587470,-18089.110325,12269.520732,11218.072321,-8802.005208,817.045667,21739.999561,12341.560404,-187.911116,4389.234410,0.005000,-0.023734,1.005937,192.000000,0.000000,0.000000,0.000000,0.000000,0.000000,0.000000,0.000000,0.000000,0.000000,1769524664.600241,0.000000
170.000000,15526.259306,14442.110293,4267.573865,-2532.899682,6077.461669,-10264.345737,615.298821,-18080.415497,12377.189085,11192.457222,-8887.992369,752.873808,21701.398099,12291.805421,-259.570808,4349.358898,0.005000,-0.023734,1.005937,192.000000,0.000000,0.000000,0.000000,0.000000,0.000000,0.000000,0.000000,0.000000,0.000000,1769524664.600251,0.000000
172.000000,15500.152469,14417.232802,4298.754549,-2498.656809,6063.849457,-10246.799618,646.323043,-18042.775159,12272.694680,11223.392036,-8794.740891,820.241966,21741.631239,12349.204701,-186.346494,4399.784434,0.005000,-0.023734,1.005937,192.000000,0.000000,0.000000,0.000000,0.000000,0.000000,0.000000,0.000000,0.000000,0.000000,1769524664.600262,0.000000
174.000000,15505.539239,14416.875174,4230.492321,-2570.249447,6058.417983,-10284.663473,581.033597,-18129.589335,12318.649866,11188.456260,-8862.801953,769.659969,21703.074479,12306.177593,-234.738020,4376.762137,0.005000,-0.023734,1.005937,192.000000,0.000000,0.000000,0.000000,0.000000,0.000000,0.000000,0.000000,0.000000,0.000000,1769524664.600272,0.000000
176.000000,15512.870611,14429.414502,4308.321096,-2489.202021,6074.600646,-10244.475036,654.101450,-18032.046322,12341.001611,11202.627266,-8853.548330,776.812527,21713.870372,12314.760663,-231.094686,4379.042015,0.006000,-0.024000,1.012000,192.000000,0.000000,24.000000,127.500000,32.000000,15.500000,80.000000,0.000000,0.000000,0.000000,1769524664.600298,0.000000
178.000000,15493.558704,14408.381511,4257.314415,-2542.890911,6061.793096,-10264.055164,604.033542,-18095.279407,12256.377906,11206.292952,-8810.834147,809.960164,21726.812032,12335.659544,-195.577764,4399.337399,0.006000,-0.024000,1.012000,192.000000,0.000000,0.000000,0.000000,0.000000,0.000000,0.000000,0.000000,0.000000,0.000000,1769524664.600308,0.000000
180.000000,15519.218507,14438.936345,4268.378528,-2537.057106,6081.552038,-10262.647004,609.979106,-18085.645805,12371.467039,11189.260923,-8890.384005,750.817448,21704.192067,12292.744195,-259.682567,4357.517285,0.006000,-0.024000,1.012000,192.000000,0.000000,0.000000,0.000000,0.000000,0.000000,0.000000,0.000000,0.000000,0.000000,1769524664.600318,0.000000
182.000000,15497.358501,14418.618610,4303.291953,-2501.830757,6073.237189,-10240.675240,642.187970,-18044.831520,12272.918197,11221.827414,-8794.830298,819.794931,21747.666210,12350.881082,-180.736206,4398.242163,0.006000,-0.024000,1.012000,192.000000,0.000000,0.000000,0.000000,0.000000,0.000000,0.000000,0.000000,0.000000,0.000000,1769524664.600329,0.000000
184.000000,15506.656826,14422.530165,4235.722630,-2572.775194,6071.694919,-10282.875333,577.971408,-18127.801195,12322.248497,11193.865382,-8858.599825,772.856268,21714.876201,12310.267962,-229.105381,4372.939989,0.006000,-0.024000,1.012000,192.000000,0.000000,0.000000,0.000000,0.000000,0.000000,0.000000,0.000000,0.000000,0.000000,1769524664.600339,0.000000
186.000000,15523.890021,14442.154997,4317.530014,-2490.163146,6091.185640,-10236.070780,654.660243,-18023.463252,12356.379611,11211.880888,-8843.221825,782.109890,21732.064692,12325.802425,-221.885767,4377.231524,0.014000,-0.028000,1.014000,192.000000,0.000000,56.000000,127.500000,16.000000,15.500000,88.000000,0.000000,0.000000,0.000000,1769524664.600350,0.000000
188.000000,15505.628646,14419.467976,4265.338691,-2544.299071,6068.297454,-10264.211627,603.921783,-18088.260959,12279.914293,11214.518394,-8796.953714,817.246833,21748.403817,12340.174596,-191.263877,4398.577440,0.014000,-0.028000,1.014000,192.000000,0.000000,0.000000,0.000000,0.000000,0.000000,0.000000,0.000000,0.000000,0.000000,1769524664.600360,0.000000
190.000000,15529.232088,14446.647697,4271.083089,-2537.168865,6087.542306,-10267.653795,610.403789,-18078.314433,12389.124917,11190.870248,-8882.225619,755.556018,21716.038491,12291.850125,-252.507657,4358.031375,0.014000,-0.028000,1.014000,192.000000,0.000000,0.000000,0.000000,0.000000,0.000000,0.000000,0.000000,0.000000,0.000000,1769524664.600370,0.000000
192.000000,15515.575172,14434.667162,4309.997476,-2496.578097,6075.159439,-10246.866673,647.485333,-18027.933601,12285.748099,11225.202528,-8783.229742,829.450885,21755.288155,12349.517626,-177.159927,4402.824271,0.014000,-0.028000,1.014000,192.000000,0.000000,0.000000,0.000000,0.000000,0.000000,0.000000,0.000000,0.000000,0.000000,1769524664.600380,0.000000
194.000000,15517.922106,14435.807101,4238.762467,-2569.981226,6065.458782,-10289.849077,582.352350,-18113.809003,12332.865576,11196.346426,-8844.495874,784.009789,21728.287247,12308.032788,-231.944052,4367.329701,0.014000,-0.028000,1.014000,192.000000,0.000000,0.000000,0.000000,0.000000,0.000000,0.000000,0.000000,0.000000,0.000000,1769524664.600390,0.000000
196.000000,15525.387588,14449.687535,4315.652468,-2486.072777,6080.501506,-10239.468245,659.041185,-18014.902534,12353.138608,11210.897411,-8837.231557,791.184698,21726.655570,12318.403997,-232.927529,4371.688291,0.012000,-0.022000,1.012000,192.000000,0.000000,48.000000,127.500000,40.000000,15.500000,80.000000,0.000000,0.000000,0.000000,1769524664.600400,0.000000
198.000000,15502.991140,14420.809081,4262.656482,-2541.929786,6051.980680,-10270.112487,609.241499,-18081.577788,12264.312776,11213.020827,-8794.606780,823.751190,21729.226020,12338.945250,-201.903308,4397.169280,0.012000,-0.022000,1.012000,192.000000,0.000000,0.000000,0.000000,0.000000,0.000000,0.000000,0.000000,0.000000,0.000000,1769524664.600411,0.000000
200.000000,15522.705379,14444.054895,4268.624397,-2535.403077,6076.254675,-10268.436106,616.282298,-18074.000546,12370.058879,11186.891638,-8880.817459,758.618207,21695.810163,12285.591636,-263.482364,4350.767058,0.012000,-0.022000,1.012000,192.000000,0.000000,0.000000,0.000000,0.000000,0.000000,0.000000,0.000000,0.000000,0.000000,1769524664.600421,0.000000
202.000000,15497.939646,14419.915011,4304.633058,-2498.768568,6067.559846,-10248.878330,649.988729,-18031.979267,12267.263206,11216.731217,-8786.649559,824.958184,21738.345532,12342.990916,-182.613752,4404.031265,0.012000,-0.022000,1.012000,192.000000,0.000000,0.000000,0.000000,0.000000,0.000000,0.000000,0.000000,0.000000,0.000000,1769524664.600431,0.000000
204.000000,15500.845373,14420.026770,4233.420400,-2571.925827,6060.340233,-10288.597380,581.637094,-18122.749701,12309.955038,11182.175420,-8854.531807,772.968027,21704.035604,12297.952151,-232.681660,4374.437556,0.012000,-0.022000,1.012000,192.000000,0.000000,0.000000,0.000000,0.000000,0.000000,0.000000,0.000000,0.000000,0.000000,1769524664.600441,0.000000
206.000000,15506.500364,14430.979124,4311.182119,-2493.247687,6080.479155,-10247.716039,655.017871,-18028.090063,12336.173634,11200.079167,-8848.720354,776.924286,21718.877163,12312.123157,-226.914910,4384.384082,0.010000,-0.022000,1.008000,192.000000,0.000000,40.000000,127.500000,40.000000,15.500000,64.000000,0.000000,0.000000,0.000000,1769524664.600452,0.000000
208.000000,15485.020338,14404.581714,4257.001490,-2548.657662,6055.936939,-10279.857848,602.468920,-18095.458221,12250.432342,11200.794423,-8809.247173,807.166196,21730.075387,12330.496291,-191.889726,4404.902983,0.010000,-0.022000,1.008000,192.000000,0.000000,0.000000,0.000000,0.000000,0.000000,0.000000,0.000000,0.000000,0.000000,1769524664.600462,0.000000
210.000000,15514.792861,14434.309534,4266.098650,-2540.320461,6082.379053,-10262.870522,610.806121,-18085.131715,12365.029736,11180.253170,-8892.440366,745.743602,21694.446706,12283.065889,-257.492096,4360.870047,0.010000,-0.022000,1.008000,192.000000,0.000000,0.000000,0.000000,0.000000,0.000000,0.000000,0.000000,0.000000,0.000000,1769524665.080218,0.000000
212.000000,15499.571323,14420.183232,4306.868232,-2499.081492,6076.634655,-10236.339001,647.619444,-18038.349514,12270.615968,11216.686513,-8793.511545,818.699696,21749.074370,12348.310631,-178.255162,4410.982658,0.010000,-0.022000,1.008000,192.000000,0.000000,0.000000,0.000000,0.000000,0.000000,0.000000,0.000000,0.000000,0.000000,1769524665.080318,0.000000
214.000000,15507.036806,14422.932496,4240.550606,-2572.350511,6076.120564,-10274.716946,580.765376,-18125.364855,12324.751893,11191.518449,-8853.905958,774.264428,21724.822727,12310.290314,-227.116075,4378.036186,0.010000,-0.022000,1.008000,192.000000,0.000000,0.000000,0.000000,0.000000,0.000000,0.000000,0.000000,0.000000,0.000000,1769524665.080404,0.000000
216.000000,15522.079530,14443.138473,4322.089770,-2490.587829,6099.947524,-10234.282641,656.783659,-18023.686769,12360.425277,11211.009170,-8840.673726,781.148765,21747.308582,12321.108558,-216.141369,4376.359806,0.014000,-0.020000,1.010000,192.000000,0.000000,56.000000,127.500000,48.000000,15.500000,72.000000,0.000000,0.000000,0.000000,1769524665.080428,0.000000
218.000000,15506.746233,14424.921802,4272.424194,-2540.566330,6077.126393,-10257.819028,608.749760,-18085.399936,12280.718956,11218.318190,-8793.578600,815.682210,21753.701181,12342.789750,-184.759520,4395.582306,0.014000,-0.020000,1.010000,192.000000,0.000000,0.000000,0.000000,0.000000,0.000000,0.000000,0.000000,0.000000,0.000000,1769524665.080501,0.000000
220.000000,15524.225297,14445.977145,4275.374624,-2534.643118,6092.459690,-10262.177618,613.465978,-18082.337747,12391.807126,11195.206487,-8877.196476,753.767878,21720.933523,12294.822907,-257.246227,4355.751497,0.014000,-0.020000,1.010000,192.000000,0.000000,0.000000,0.000000,0.000000,0.000000,0.000000,0.000000,0.000000,0.000000,1769524665.080539,0.000000
222.000000,15500.286579,14421.256116,4306.220032,-2498.545050,6074.153611,-10242.597490,644.266682,-18043.065732,12280.249569,11224.263754,-8790.181135,818.789103,21759.825559,12348.601204,-176.467022,4406.668771,0.014000,-0.020000,1.010000,192.000000,0.000000,0.000000,0.000000,0.000000,0.000000,0.000000,0.000000,0.000000,0.000000,1769524665.080581,0.000000
224.000000,15508.959056,14426.799348,4239.343612,-2568.975397,6077.729890,-10277.980301,578.977237,-18126.795367,12326.964715,11192.658388,-8854.308290,771.716329,21721.872297,12305.462337,-224.769142,4377.767966,0.014000,-0.020000,1.010000,192.000000,0.000000,0.000000,0.000000,0.000000,0.000000,0.000000,0.000000,0.000000,0.000000,1769524665.080618,0.000000
226.000000,15518.726768,14441.931479,4316.658296,-2489.358483,6096.438300,-10238.685934,653.565008,-18030.481700,12358.279509,11206.337655,-8845.479351,778.868887,21739.820747,12315.990009,-212.386276,4382.171259,0.010000,-0.022000,1.008000,192.000000,0.000000,40.000000,127.500000,40.000000,15.500000,64.000000,0.000000,0.000000,0.000000,1769524665.080630,0.000000
228.000000,15499.794841,14419.825604,4262.097688,-2541.035717,6070.331463,-10261.685879,605.620516,-18092.016052,12271.532389,11210.696246,-8801.848746,812.374152,21745.095759,12339.258175,-181.943200,4403.271306,0.010000,-0.022000,1.008000,192.000000,0.000000,0.000000,0.000000,0.000000,0.000000,0.000000,0.000000,0.000000,0.000000,1769524665.080641,0.000000
230.000000,15516.446890,14438.690476,4266.724499,-2534.441952,6090.336274,-10254.421562,610.023810,-18086.852799,12378.060803,11189.730309,-8887.210058,749.588102,21706.002558,12291.425442,-259.570808,4363.060518,0.010000,-0.022000,1.008000,192.000000,0.000000,0.000000,0.000000,0.000000,0.000000,0.000000,0.000000,0.000000,0.000000,1769524665.080652,0.000000
232.000000,15488.194285,14413.947095,4301.079130,-2499.103844,6077.372262,-10236.763684,643.014984,-18045.904403,12269.431325,11217.871155,-8795.433795,815.883376,21749.119073,12353.049201,-176.444671,4416.056504,0.010000,-0.022000,1.008000,192.000000,0.000000,0.000000,0.000000,0.000000,0.000000,0.000000,0.000000,0.000000,0.000000,1769524665.080662,0.000000
234.000000,15491.837620,14416.361084,4233.308641,-2567.924865,6075.025329,-10270.917150,577.502021,-18131.824509,12308.949209,11183.315359,-8861.997290,765.614303,21706.449593,12304.590619,-225.126770,4384.652303,0.010000,-0.022000,1.008000,192.000000,0.000000,0.000000,0.000000,0.000000,0.000000,0.000000,0.000000,0.000000,0.000000,1769524665.080673,0.000000
236.000000,15508.824946,14439.025752,4314.043142,-2484.418748,6095.298361,-10224.738446,653.497953,-18028.604153,12343.974393,11208.192850,-8848.832112,780.500565,21730.991808,12323.746064,-222.489264,4387.088643,0.016000,-0.020000,1.006000,192.000000,0.000000,64.000000,127.500000,48.000000,15.500000,56.000000,0.000000,0.000000,0.000000,1769524665.080684,0.000000
238.000000,15492.061137,14415.511717,4263.595255,-2540.275757,6070.979663,-10257.550807,605.486406,-18090.160857,12259.060116,11211.098577,-8804.419196,814.363457,21744.715779,12340.889852,-183.954857,4407.384027,0.016000,-0.020000,1.006000,192.000000,0.000000,0.000000,0.000000,0.000000,0.000000,0.000000,0.000000,0.000000,0.000000,1769524665.080695,0.000000
240.000000,15524.068835,14450.358087,4275.821659,-2531.580929,6099.746358,-10250.308842,615.231766,-18075.811038,12379.200742,11190.490269,-8882.985578,754.438431,21718.921866,12294.241761,-252.015919,4362.881704,0.016000,-0.020000,1.006000,192.000000,0.000000,0.000000,0.000000,0.000000,0.000000,0.000000,0.000000,0.000000,0.000000,1769524665.080706,0.000000
242.000000,15504.354597,14431.672029,4314.020790,-2492.443024,6092.392634,-10227.644173,648.178237,-18031.778101,12292.095994,11233.807949,-8778.290007,831.574301,21773.862454,12364.403887,-176.891706,4411.496748,0.016000,-0.020000,1.006000,192.000000,0.000000,0.000000,0.000000,0.000000,0.000000,0.000000,0.000000,0.000000,0.000000,1769524665.080717,0.000000
244.000000,15505.695701,14432.677857,4242.338746,-2564.415641,6084.748338,-10276.259217,580.564210,-18120.112195,12333.781997,11199.721539,-8845.926386,779.494736,21742.368846,12317.018189,-219.941165,4377.432689,0.016000,-0.020000,1.006000,192.000000,0.000000,0.000000,0.000000,0.000000,0.000000,0.000000,0.000000,0.000000,0.000000,1769524665.080728,0.000000
246.000000,15522.615972,14451.140398,4320.234575,-2480.998931,6103.724969,-10220.961001,655.509610,-18018.836441,12363.263948,11216.083016,-8836.806874,788.457786,21745.922774,12328.462282,-215.694334,4384.048806,0.013000,-0.018000,1.010000,192.000000,0.000000,40.000000,127.500000,64.000000,15.500000,88.000000,0.000000,0.000000,0.000000,1769524665.080739,0.000000
248.000000,15504.064024,14424.072435,4271.016034,-2536.028926,6085.262428,-10251.515836,607.274545,-18084.125886,12279.623721,11218.407597,-8790.337597,821.448960,21760.920794,12349.808198,-178.612790,4404.612411,0.013000,-0.018000,1.010000,192.000000,0.000000,0.000000,0.000000,0.000000,0.000000,0.000000,0.000000,0.000000,0.000000,1769524665.080750,0.000000
250.000000,15523.733559,14446.535939,4278.772089,-2535.425429,6102.048588,-10254.779190,610.940231,-18080.303738,12393.237638,11193.552458,-8873.933121,757.634730,21730.969457,12298.108613,-243.432849,4360.199494,0.013000,-0.018000,1.010000,192.000000,0.000000,0.000000,0.000000,0.000000,0.000000,0.000000,0.000000,0.000000,0.000000,1769524665.080762,0.000000
252.000000,15499.750137,14423.088959,4312.992610,-2500.132024,6084.211896,-10232.785074,644.065516,-18039.020066,12288.653825,11219.681647,-8781.978045,822.253623,21782.043193,12351.283413,-169.895610,4407.831062,0.013000,-0.018000,1.010000,192.000000,0.000000,0.000000,0.000000,0.000000,0.000000,0.000000,0.000000,0.000000,0.000000,1769524665.080773,0.000000
254.000000,15503.169954,14423.513642,4241.444676,-2574.161002,6079.026291,-10277.443859,577.233801,-18128.538803,12331.099788,11187.137507,-8847.714525,772.006902,21742.257087,12307.742215,-218.823578,4375.197515,0.013000,-0.018000,1.010000,192.000000,0.000000,0.000000,0.000000,0.000000,0.000000,0.000000,0.000000,0.000000,0.000000,1769524665.080784,0.000000
0.000000,15505.494536,14430.487386,4311.763264,-2492.957114,6088.659893,-10237.523644,649.161714,-18039.176528,12351.797503,11197.776937,-8846.440476,772.990378,21743.978172,12314.693608,-214.286174,4380.293713,0.013500,-0.017000,1.010000,192.000000,0.000000,56.000000,127.500000,64.000000,15.500000,72.000000,0.000000,0.000000,0.000000,1769524665.080795,0.000000
2.000000,15480.237064,14402.637112,4255.392165,-2545.349603,6064.654120,-10263.228150,598.758530,-18107.617570,12256.601424,11196.458184,-8810.051836,800.483024,21744.626372,12337.805311,-184.312485,4411.139120,0.013500,-0.017000,1.010000,192.000000,0.000000,0.000000,0.000000,0.000000,0.000000,0.000000,0.000000,0.000000,0.000000,1769524665.080807,0.000000
4.000000,15504.265190,14431.470863,4261.293025,-2540.812199,6087.676416,-10256.187350,603.988839,-18100.263846,12364.135666,11175.916931,-8897.357750,737.384050,21706.851924,12290.509020,-248.596102,4372.492954,0.013500,-0.017000,1.010000,192.000000,0.000000,0.000000,0.000000,0.000000,0.000000,0.000000,0.000000,0.000000,0.000000,1769524665.080822,0.000000
6.000000,15491.100012,14419.490328,4299.246287,-2502.501309,6074.310073,-10230.460492,638.946967,-18050.128883,12267.911407,11218.854632,-8799.121833,811.010696,21757.456274,12353.473884,-170.364996,4414.268364,0.013500,-0.017000,1.010000,192.000000,0.000000,0.000000,0.000000,0.000000,0.000000,0.000000,0.000000,0.000000,0.000000,1769524665.080833,0.000000
8.000000,15507.841469,14431.314401,4236.102609,-2568.617769,6077.752242,-10260.255368,577.636132,-18128.136471,12320.750930,11196.301722,-8855.694098,771.157535,21728.644875,12319.298067,-223.740962,4387.155698,0.013500,-0.017000,1.010000,192.000000,0.000000,0.000000,0.000000,0.000000,0.000000,0.000000,0.000000,0.000000,0.000000,1769524665.080844,0.000000
10.000000,15518.503251,14447.742933,4316.703000,-2485.715149,6107.390655,-10217.652943,652.715642,-18027.888897,12355.686707,11217.424121,-8841.590147,783.495698,21747.129768,12330.116311,-219.628241,4385.881649,0.009750,-0.020500,1.011000,192.000000,0.000000,24.000000,127.500000,32.000000,15.500000,80.000000,0.000000,0.000000,0.000000,1769524665.080855,0.000000
12.000000,15499.079585,14425.502947,4266.992720,-2539.985185,6084.055434,-10248.543054,604.190004,-18090.943169,12271.822962,11220.575717,-8795.411443,817.760923,21762.284251,12354.278547,-177.875182,4412.435521,0.009750,-0.020500,1.011000,192.000000,0.000000,0.000000,0.000000,0.000000,0.000000,0.000000,0.000000,0.000000,0.000000,1769524665.080865,0.000000
14.000000,15528.896812,14455.878968,4273.787650,-2535.403077,6105.289591,-10250.264138,609.532071,-18078.806171,12385.101603,11199.118042,-8878.850505,758.081765,21732.064692,12303.741253,-240.415363,4365.161582,0.009750,-0.020500,1.011000,192.000000,0.000000,0.000000,0.000000,0.000000,0.000000,0.000000,0.000000,0.000000,0.000000,1769524665.080878,0.000000
16.000000,15511.618914,14438.623421,4313.126721,-2495.080530,6090.671550,-10229.029981,647.440630,-18028.760615,12287.290369,11237.495987,-8780.815754,832.915405,21781.283233,12362.101658,-162.050147,4409.932126,0.009750,-0.020500,1.011000,192.000000,0.000000,0.000000,0.000000,0.000000,0.000000,0.000000,0.000000,0.000000,0.000000,1769524665.080889,0.000000
18.000000,15513.652922,14437.394075,4241.847007,-2569.467136,6080.792079,-10273.688766,581.681798,-18117.072358,12331.747989,11209.288086,-8842.037182,789.195393,21741.094797,12319.141605,-218.197729,4374.348149,0.009750,-0.020500,1.011000,192.000000,0.000000,0.000000,0.000000,0.000000,0.000000,0.000000,0.000000,0.000000,0.000000,1769524665.080900,0.000000
20.000000,15513.295294,14443.406694,4317.105331,-2491.303085,6092.236172,-10231.756894,654.190857,-18025.318447,12358.011288,11218.474653,-8837.030391,789.061283,21748.694390,12320.549765,-223.271575,4379.310236,0.010875,-0.021250,1.012500,192.000000,0.000000,48.000000,127.500000,40.000000,15.500000,88.000000,0.000000,0.000000,0.000000,1769524665.080911,0.000000
22.000000,15483.925102,14412.985970,4262.008281,-2548.076516,6064.832934,-10269.196066,601.373685,-18094.430041,12261.407049,11209.511603,-8801.468766,813.156463,21748.761445,12335.771303,-178.031645,4404.590059,0.010875,-0.021250,1.012500,192.000000,0.000000,0.000000,0.000000,0.000000,0.000000,0.000000,0.000000,0.000000,0.000000,1769524665.080922,0.000000
24.000000,15514.189364,14448.122912,4266.210409,-2539.359336,6087.877582,-10262.848170,609.017981,-18079.297910,12370.818838,11187.785707,-8885.064290,754.326672,21712.149288,12287.513886,-249.333709,4359.528942,0.010875,-0.021250,1.012500,192.000000,0.000000,0.000000,0.000000,0.000000,0.000000,0.000000,0.000000,0.000000,0.000000,1769524665.080932,0.000000
26.000000,15498.498440,14432.811967,4302.666104,-2499.148548,6075.405309,-10235.422580,644.959586,-18029.162947,12272.918197,11230.254022,-8785.330806,833.094219,21757.500977,12352.356297,-173.561296,4409.842719,0.010875,-0.021250,1.012500,192.000000,0.000000,0.000000,0.000000,0.000000,0.000000,0.000000,0.000000,0.000000,0.000000,1769524665.080945,0.000000
28.000000,15497.716129,14424.072435,4228.212443,-2576.127955,6063.491829,-10286.988054,576.071510,-18124.291971,12314.447738,11199.140394,-8848.988575,784.501527,21716.619637,12306.289352,-222.645727,4374.348149,0.010875,-0.021250,1.012500,192.000000,0.000000,0.000000,0.000000,0.000000,0.000000,0.000000,0.000000,0.000000,0.000000,1769524665.080956,0.000000
30.000000,15510.210754,14440.657430,4306.734122,-2493.225335,6087.184678,-10239.803522,650.614578,-18026.771310,12339.593451,11202.448452,-8849.033278,779.539440,21731.997637,12305.842317,-221.617546,4386.105166,0.013438,-0.020625,1.010250,192.000000,0.000000,64.000000,127.500000,48.000000,15.500000,64.000000,0.000000,0.000000,0.000000,1769524665.080966,0.000000
32.000000,15492.172896,14418.819775,4256.934435,-2544.746106,6063.536532,-10264.524551,602.379513,-18088.305663,12256.556720,11210.785652,-8800.082958,816.375114,21731.975285,12334.653715,-188.604020,4409.015704,0.013438,-0.020625,1.010250,192.000000,0.000000,0.000000,0.000000,0.000000,0.000000,0.000000,0.000000,0.000000,0.000000,1769524665.080977,0.000000
34.000000,15516.156318,14447.966450,4261.471839,-2542.957967,6088.369320,-10263.541074,606.559289,-18080.169628,12370.483562,11191.317283,-8883.522020,757.254750,21708.081270,12291.358386,-253.088802,4364.893361,0.013438,-0.020625,1.010250,192.000000,0.000000,0.000000,0.000000,0.000000,0.000000,0.000000,0.000000,0.000000,0.000000,1769524665.080988,0.000000
36.000000,15500.733614,14433.862499,4305.460072,-2496.689856,6083.809565,-10236.115484,646.658319,-18026.212517,12268.783125,11224.107292,-8788.147126,829.003850,21750.907213,12345.181387,-176.690540,4414.044847,0.013438,-0.020625,1.010250,192.000000,0.000000,0.000000,0.000000,0.000000,0.000000,0.000000,0.000000,0.000000,0.000000,1769524665.080998,0.000000
38.000000,15505.226315,14434.175424,4240.349441,-2569.891819,6082.110832,-10268.436106,581.279466,-18112.736119,12320.348599,11202.023769,-8842.417162,791.363512,21724.956837,12310.178555,-220.477607,4384.361730,0.013438,-0.020625,1.010250,192.000000,0.000000,0.000000,0.000000,0.000000,0.000000,0.000000,0.000000,0.000000,0.000000,1769524665.081009,0.000000
40.000000,15515.821042,14450.492197,4317.127683,-2490.096091,6101.489794,-10223.777321,653.609711,-18018.344703,12352.535111,11216.105368,-8838.595013,791.877603,21738.658457,12320.907393,-214.442636,4385.725187,0.011719,-0.022312,1.007125,192.000000,0.000000,40.000000,127.500000,32.000000,15.500000,48.000000,0.000000,0.000000,0.000000,1769524665.081020,0.000000
42.000000,15502.298236,14432.364933,4269.250246,-2537.593548,6082.088480,-10246.933728,609.800292,-18078.157971,12272.158238,11225.649563,-8791.365777,826.813379,21752.762407,12349.405867,-179.238639,4409.283925,0.011719,-0.022312,1.007125,192.000000,0.000000,0.000000,0.000000,0.000000,0.000000,0.000000,0.000000,0.000000,0.000000,1769524665.081031,0.000000
44.000000,15529.656771,14463.746782,4272.670063,-2531.871501,6096.125376,-10249.727696,615.499987,-18068.949052,12390.466021,11210.629190,-8869.619235,770.554038,21731.908230,12305.819965,-244.684547,4363.060518,0.011719,-0.022312,1.007125,192.000000,0.000000,0.000000,0.000000,0.000000,0.000000,0.000000,0.000000,0.000000,0.000000,1769524665.081042,0.000000
46.000000,15503.058195,14438.891642,4307.248212,-2493.739425,6077.886352,-10233.299164,649.832267,-18024.558487,12286.932741,11236.154882,-8777.217123,838.279824,21775.628242,12359.933538,-169.359168,4410.446216,0.011719,-0.022312,1.007125,192.000000,0.000000,0.000000,0.000000,0.000000,0.000000,0.000000,0.000000,0.000000,0.000000,1769524665.081053,0.000000
48.000000,15506.254495,14437.237613,4236.817865,-2568.036624,6077.416966,-10284.529362,582.218240,-18115.217163,12326.763550,11203.946019,-8840.293746,791.251754,21722.878125,12315.028884,-223.159817,4377.611503,0.011719,-0.022312,1.007125,192.000000,0.000000,0.000000,0.000000,0.000000,0.000000,0.000000,0.000000,0.000000,0.000000,1769524665.081064,0.000000
50.000000,15515.865745,14449.151093,4313.171424,-2486.788033,6093.890201,-10235.601394,656.403679,-18020.445767,12354.300899,11216.261830,-8839.712601,791.207050,21739.574878,12324.707189,-213.548567,4380.763099,0.008859,-0.024156,1.004563,192.000000,0.000000,24.000000,127.500000,24.000000,15.500000,40.000000,0.000000,0.000000,0.000000,1769524665.081075,0.000000
52.000000,15495.011567,14424.407712,4260.644825,-2538.934653,6070.286759,-10261.149438,606.961621,-18084.707032,12267.978462,11220.598068,-8794.405615,825.338164,21749.968439,12348.757666,-185.854755,4405.238259,0.008859,-0.024156,1.004563,192.000000,0.000000,0.000000,0.000000,0.000000,0.000000,0.000000,0.000000,0.000000,0.000000,1769524665.081086,0.000000
54.000000,15507.975579,14441.998534,4261.538894,-2543.405002,6083.854268,-10271.900627,607.207490,-18086.964558,12373.746917,11191.898428,-8885.332511,757.120640,21709.556485,12293.571209,-250.518352,4358.567817,0.008859,-0.024156,1.004563,192.000000,0.000000,0.000000,0.000000,0.000000,0.000000,0.000000,0.000000,0.000000,0.000000,1769524665.081096,0.000000
56.000000,15487.546085,14420.026770,4298.843956,-2499.841452,6070.890256,-10240.719943,644.803124,-18039.578860,12270.481857,11219.458129,-8793.824469,821.448960,21753.879995,12347.640079,-176.534078,4412.524928,0.008859,-0.024156,1.004563,192.000000,0.000000,0.000000,0.000000,0.000000,0.000000,0.000000,0.000000,0.000000,0.000000,1769524665.081107,0.000000
58.000000,15486.562608,14416.070511,4227.050153,-2573.758671,6070.353814,-10280.975435,577.211449,-18131.243364,12310.782052,11191.049062,-8856.409354,775.963161,21721.492317,12307.809270,-235.900311,4388.429748,0.008859,-0.024156,1.004563,192.000000,0.000000,0.000000,0.000000,0.000000,0.000000,0.000000,0.000000,0.000000,0.000000,1769524665.081119,0.000000
60.000000,15499.079585,14433.214299,4304.811872,-2495.549917,6085.128317,-10239.691763,649.854618,-18034.616772,12337.157111,11198.291027,-8856.029374,772.878620,21728.466061,12310.849108,-222.913947,4388.943838,0.008859,-0.024156,1.004563,192.000000,0.000000,0.000000,0.000000,0.000000,0.000000,0.000000,0.000000,0.000000,0.000000,1769524665.081129,0.000000
62.000000,15489.267169,14419.535031,4258.968444,-2541.236882,6064.520009,-10255.628557,604.972315,-18090.876113,12256.355555,11211.791481,-8801.736987,813.536443,21743.777006,12342.812102,-190.727435,4415.207137,0.002000,-0.022000,1.000000,192.000000,0.000000,8.000000,127.500000,40.000000,15.500000,32.000000,0.000000,0.000000,0.000000,1769524665.081140,0.000000
64.000000,15516.066911,14449.218148,4267.193886,-2536.922996,6094.739568,-10251.359373,609.934403,-18083.097706,12377.747879,11196.681702,-8880.772755,755.891294,21719.212439,12300.567305,-261.001320,4371.040090,0.002000,-0.022000,1.000000,192.000000,0.000000,0.000000,0.000000,0.000000,0.000000,0.000000,0.000000,0.000000,0.000000,1769524665.081151,0.000000
66.000000,15499.817193,14435.315363,4309.528090,-2494.253516,6092.482041,-10224.067894,648.133534,-18031.085197,12282.864724,11235.014943,-8782.916818,829.249719,21765.815826,12360.224111,-169.873258,4416.592946,0.002000,-0.022000,1.000000,192.000000,0.000000,0.000000,0.000000,0.000000,0.000000,0.000000,0.000000,0.000000,0.000000,1769524665.081170,0.000000
68.000000,15511.350693,14445.083075,4242.137580,-2565.510877,6093.085539,-10264.301034,581.905315,-18113.965465,12329.401056,11212.618496,-8838.863234,789.955353,21734.948067,12324.506023,-216.834273,4380.763099,0.002000,-0.022000,1.000000,192.000000,0.000000,0.000000,0.000000,0.000000,0.000000,0.000000,0.000000,0.000000,0.000000,1769524665.081181,0.000000
70.000000,15523.845318,14463.545616,4322.357991,-2483.859954,6109.201146,-10227.443007,658.907075,-18012.533249,12367.689594,11230.499891,-8827.396789,798.337257,21758.864434,12337.112407,-213.079180,4382.685349,0.002000,-0.022000,1.000000,192.000000,0.000000,0.000000,0.000000,0.000000,0.000000,0.000000,0.000000,0.000000,0.000000,1769524665.081192,0.000000
72.000000,15503.214658,14436.142377,4270.971331,-2533.525531,6078.601608,-10246.844321,610.917879,-18076.615700,12276.874456,11233.226804,-8779.720519,834.345917,21765.614660,12350.925785,-176.243505,4407.093454,0.004000,-0.022000,0.998000,192.000000,0.000000,16.000000,127.500000,40.000000,15.500000,24.000000,0.000000,0.000000,0.000000,1769524665.081202,0.000000
74.000000,15522.146585,14461.712773,4271.261903,-2529.949251,6097.555887,-10250.666469,612.951888,-18075.229892,12383.984015,11208.125795,-8871.049746,768.385919,21727.571991,12305.350578,-250.674814,4363.418146,0.004000,-0.022000,0.998000,192.000000,0.000000,0.000000,0.000000,0.000000,0.000000,0.000000,0.000000,0.000000,0.000000,1769524665.561205,0.000000
76.000000,15503.527582,14441.573851,4309.304572,-2486.497460,6089.710425,-10219.396379,650.100487,-18025.698426,12284.786974,11245.721429,-8778.111193,842.392545,21771.537873,12369.880065,-176.668188,4413.396646,0.004000,-0.022000,0.998000,192.000000,0.000000,0.000000,0.000000,0.000000,0.000000,0.000000,0.000000,0.000000,0.000000,1769524665.561291,0.000000
78.000000,15500.577152,14434.778921,4234.672098,-2566.069670,6079.629788,-10271.788868,577.859649,-18121.274486,12320.281544,11212.372626,-8844.138246,792.570507,21727.750805,12323.634305,-218.041267,4381.813631,0.004000,-0.022000,0.998000,192.000000,0.000000,0.000000,0.000000,0.000000,0.000000,0.000000,0.000000,0.000000,0.000000,1769524665.561333,0.000000
80.000000,15510.210754,14450.223976,4311.405636,-2488.710283,6092.817318,-10234.684972,650.681633,-18024.558487,12350.411695,11219.480481,-8844.652336,790.335332,21735.953896,12324.215451,-219.628241,4383.646474,0.004000,-0.022000,0.998000,192.000000,0.000000,0.000000,0.000000,0.000000,0.000000,0.000000,0.000000,0.000000,0.000000,1769524665.561386,0.000000
82.000000,15486.875532,14422.507813,4259.773107,-2543.382650,6067.559846,-10264.166923,602.044237,-18088.305663,12257.182569,11217.267658,-8797.400748,821.583071,21742.279439,12342.141550,-185.430072,4410.222698,0.002000,-0.022000,1.006000,192.000000,0.000000,8.000000,127.500000,40.000000,15.500000,56.000000,0.000000,0.000000,0.000000,1769524665.561428,0.000000
84.000000,15517.922106,14454.537863,4265.964540,-2539.001708,6089.889239,-10259.562464,608.570946,-18080.415497,12371.243521,11195.497059,-8879.610465,759.691091,21710.271741,12293.481802,-261.895390,4369.251951,0.002000,-0.022000,1.006000,192.000000,0.000000,0.000000,0.000000,0.000000,0.000000,0.000000,0.000000,0.000000,0.000000,1769524665.561475,0.000000
86.000000,15502.834678,14437.952869,4308.678723,-2498.075664,6086.357663,-10233.567385,646.367746,-18030.682865,12280.495439,11232.712714,-8780.279312,831.417839,21757.076294,12354.122085,-185.720645,4419.163396,0.002000,-0.022000,1.006000,192.000000,0.000000,0.000000,0.000000,0.000000,0.000000,0.000000,0.000000,0.000000,0.000000,1769524665.561517,0.000000
88.000000,15509.249629,14439.830415,4239.164798,-2570.584723,6082.155535,-10274.381670,578.641960,-18118.413462,12324.170747,11203.968370,-8840.271394,786.356722,21726.119128,12314.961829,-230.021802,4385.680483,0.002000,-0.022000,1.006000,192.000000,0.000000,0.000000,0.000000,0.000000,0.000000,0.000000,0.000000,0.000000,0.000000,1769524665.561558,0.000000
90.000000,15525.119367,14460.774000,4320.078113,-2486.139832,6107.033027,-10217.764702,654.369671,-18018.054130,12362.392230,11225.403693,-8832.336525,794.068074,21739.731340,12329.088131,-229.910043,4388.765024,0.002000,-0.022000,1.006000,192.000000,0.000000,0.000000,0.000000,0.000000,0.000000,0.000000,0.000000,0.000000,0.000000,1769524665.561603,0.000000
92.000000,15502.745271,14430.487386,4270.546647,-2539.404039,6077.551076,-10251.784057,605.061722,-18083.164761,12270.504209,11226.141301,-8787.722443,827.774504,21752.248317,12350.679916,-186.905287,4410.021533,0.004000,-0.020000,1.008000,192.000000,0.000000,16.000000,127.500000,48.000000,15.500000,64.000000,0.000000,0.000000,0.000000,1769524665.561614,0.000000
94.000000,15527.622763,14459.812875,4274.055871,-2536.341850,6099.209916,-10251.895815,609.420313,-18079.052040,12383.626388,11206.136490,-8873.016700,768.207105,21723.213401,12303.227163,-257.045061,4363.529904,0.004000,-0.020000,1.008000,192.000000,0.000000,0.000000,0.000000,0.000000,0.000000,0.000000,0.000000,0.000000,0.000000,1769524665.561624,0.000000
96.000000,15511.037768,14444.613689,4312.769093,-2492.912411,6086.782347,-10227.443007,649.139362,-18025.273743,12284.429346,11243.441551,-8778.737042,839.218597,21765.100570,12362.414582,-191.107415,4410.222698,0.004000,-0.020000,1.008000,192.000000,0.000000,0.000000,0.000000,0.000000,0.000000,0.000000,0.000000,0.000000,0.000000,1769524665.561635,0.000000
98.000000,15511.730672,14442.937308,4239.477723,-2567.522534,6075.226495,-10269.888970,580.586562,-18114.367797,12319.990971,11212.618496,-8840.047877,793.576335,21724.509802,12322.695532,-235.028593,4380.561934,0.004000,-0.020000,1.008000,192.000000,0.000000,0.000000,0.000000,0.000000,0.000000,0.000000,0.000000,0.000000,0.000000,1769524665.561646,0.000000
100.000000,15525.253478,14459.678764,4317.462959,-2484.932838,6095.365416,-10224.537280,655.911941,-18015.953066,12355.239672,11226.186004,-8832.314173,796.303248,21739.105492,12334.765474,-236.727326,4381.657169,0.004000,-0.020000,1.008000,192.000000,0.000000,0.000000,0.000000,0.000000,0.000000,0.000000,0.000000,0.000000,0.000000,1769524665.561656,0.000000
102.000000,15504.779280,14435.941212,4267.439755,-2534.330193,6068.632730,-10248.453647,608.146263,-18077.532122,12268.067869,11228.622345,-8784.727309,830.188493,21742.435901,12351.752800,-196.315372,4410.692085,0.004000,-0.022000,1.014000,192.000000,0.000000,16.000000,127.500000,40.000000,15.500000,88.000000,0.000000,0.000000,0.000000,1769524665.561666,0.000000
104.000000,15532.808367,14467.211302,4271.910104,-2529.725734,6091.587972,-10250.197083,612.884833,-18069.865473,12382.151172,11209.198679,-8868.859275,769.592913,21712.126936,12305.931724,-275.574657,4366.078003,0.004000,-0.022000,1.014000,192.000000,0.000000,0.000000,0.000000,0.000000,0.000000,0.000000,0.000000,0.000000,0.000000,1769524665.561677,0.000000
106.000000,15509.495498,14441.283279,4307.225860,-2493.113577,6076.277027,-10233.477978,647.172409,-18025.854889,12287.178610,11244.760304,-8772.389146,840.850275,21761.524291,12365.700288,-200.852776,4412.971963,0.004000,-0.022000,1.014000,192.000000,0.000000,0.000000,0.000000,0.000000,0.000000,0.000000,0.000000,0.000000,0.000000,1769524665.561687,0.000000
108.000000,15509.719015,14439.182215,4235.789685,-2565.019138,6066.419907,-10280.126069,581.592391,-18114.434852,12316.794672,11205.823565,-8841.120761,789.687132,21731.014160,12314.179518,-232.882825,4381.992445,0.004000,-0.022000,1.014000,192.000000,0.000000,0.000000,0.000000,0.000000,0.000000,0.000000,0.000000,0.000000,0.000000,1769524665.561697,0.000000
110.000000,15529.276792,14464.998479,4317.328849,-2480.104861,6094.426643,-10227.063027,657.588322,-18012.667359,12355.574948,11225.895432,-8832.872967,798.896050,21730.008332,12331.613878,-239.208369,4385.345207,0.004000,-0.022000,1.014000,192.000000,0.000000,0.000000,0.000000,0.000000,0.000000,0.000000,0.000000,0.000000,0.000000,1769524665.561707,0.000000
112.000000,15505.852164,14435.069494,4267.752679,-2535.626594,6067.626902,-10258.780153,607.810987,-18078.426192,12268.380793,11227.549461,-8783.989702,833.585958,21744.201689,12356.178445,-196.024799,4407.607544,0.004000,-0.024000,1.012000,192.000000,0.000000,16.000000,127.500000,32.000000,15.500000,80.000000,0.000000,0.000000,0.000000,1769524665.561718,0.000000
114.000000,15534.171824,14465.758439,4270.680758,-2532.631461,6090.336274,-10259.830685,612.437798,-18072.525331,12378.351376,11202.090824,-8871.765002,767.916533,21711.009349,12302.243686,-264.465840,4364.558085,0.004000,-0.024000,1.012000,192.000000,0.000000,0.000000,0.000000,0.000000,0.000000,0.000000,0.000000,0.000000,0.000000,1769524665.561728,0.000000
116.000000,15518.749120,14449.285203,4309.751607,-2487.168013,6081.552038,-10231.868652,652.156848,-18019.395235,12283.669386,11239.932327,-8776.814792,843.107801,21758.506806,12362.101658,-188.134633,4412.457873,0.004000,-0.024000,1.012000,192.000000,0.000000,0.000000,0.000000,0.000000,0.000000,0.000000,0.000000,0.000000,0.000000,1769524665.561738,0.000000
118.000000,15518.860879,14443.540805,4237.108438,-2561.621673,6069.772669,-10276.706252,583.045254,-18111.037387,12324.416616,11211.880888,-8834.772865,802.181757,21731.662361,12324.863651,-239.767163,4382.975922,0.004000,-0.024000,1.012000,192.000000,0.000000,0.000000,0.000000,0.000000,0.000000,0.000000,0.000000,0.000000,0.000000,1769524665.561749,0.000000
120.000000,15529.075626,14459.276433,4315.674819,-2480.104861,6093.867850,-10234.304992,656.336624,-18014.947237,12356.267852,11219.994571,-8835.666935,799.656010,21733.405797,12327.098826,-240.728288,4384.495841,0.004000,-0.024000,1.012000,192.000000,0.000000,0.000000,0.000000,0.000000,0.000000,0.000000,0.000000,0.000000,0.000000,1769524665.561759,0.000000
122.000000,15511.753024,14437.461130,4267.730328,-2529.278699,6068.498620,-10256.366164,609.375609,-18074.157008,12266.436191,11228.510586,-8786.694263,835.172932,21745.028704,12351.685745,-196.225965,4410.088588,0.002000,-0.028000,1.006000,192.000000,0.000000,8.000000,127.500000,16.000000,15.500000,56.000000,0.000000,0.000000,0.000000,1769524665.561771,0.000000
124.000000,15535.356466,14464.663203,4270.613703,-2529.993955,6090.090405,-10253.706307,611.923708,-18071.228930,12382.441745,11209.645714,-8869.373366,775.314960,21716.306712,12305.529392,-271.886620,4365.563913,0.002000,-0.028000,1.006000,192.000000,0.000000,0.000000,0.000000,0.000000,0.000000,0.000000,0.000000,0.000000,0.000000,1769524665.561782,0.000000
126.000000,15515.999856,14445.887738,4312.187947,-2488.240896,6083.608399,-10231.376914,651.039261,-18020.736339,12281.881247,11238.032429,-8777.887676,840.447943,21758.193881,12362.034602,-184.781871,4409.507443,0.002000,-0.028000,1.006000,192.000000,0.000000,0.000000,0.000000,0.000000,0.000000,0.000000,0.000000,0.000000,0.000000,1769524665.561792,0.000000
128.000000,15522.146585,14445.887738,4242.159932,-2559.475906,6070.756146,-10271.297130,585.191022,-18109.763337,12326.785901,11212.663199,-8833.498816,799.946582,21728.108433,12327.612916,-243.321090,4387.110995,0.002000,-0.028000,1.006000,192.000000,0.000000,0.000000,0.000000,0.000000,0.000000,0.000000,0.000000,0.000000,0.000000,1769524665.561802,0.000000
130.000000,15529.075626,14456.638927,4318.155863,-2482.854126,6093.331408,-10231.175748,656.917770,-18019.708159,12357.452495,11219.100501,-8839.042048,791.251754,21737.071483,12325.243631,-234.983889,4384.317027,0.002000,-0.028000,1.006000,192.000000,0.000000,0.000000,0.000000,0.000000,0.000000,0.000000,0.000000,0.000000,0.000000,1769524665.561812,0.000000
132.000000,15511.820079,14431.739084,4270.367833,-2530.709211,6075.315902,-10256.500275,611.767246,-18078.157971,12268.984290,11225.269583,-8787.409519,827.863911,21752.673000,12352.155131,-190.638028,4407.272268,0.000000,-0.029000,1.006000,192.000000,127.500000,120.000000,127.500000,8.000000,15.500000,56.000000,0.000000,0.000000,0.000000,1769524665.561822,0.000000
134.000000,15538.306896,14460.997517,4272.625360,-2529.457513,6097.064149,-10256.232054,613.108350,-18073.128828,12383.492277,11202.001417,-8872.904941,765.703710,21721.827593,12301.550782,-261.180134,4367.933198,0.000000,-0.029000,1.006000,192.000000,0.000000,0.000000,0.000000,0.000000,0.000000,0.000000,0.000000,0.000000,0.000000,1769524665.561832,0.000000
136.000000,15523.666504,14446.267718,4315.943040,-2485.402225,6083.966027,-10231.019286,655.017871,-18018.277647,12290.307854,11240.826397,-8774.825487,840.738516,21767.805131,12361.520512,-184.759520,4410.446216,0.000000,-0.029000,1.006000,192.000000,0.000000,0.000000,0.000000,0.000000,0.000000,0.000000,0.000000,0.000000,0.000000,1769524665.561843,0.000000
138.000000,15525.633457,14443.138473,4242.092877,-2562.202819,6075.271198,-10277.622673,585.638056,-18109.293951,12328.350524,11211.187984,-8833.610574,794.716274,21734.299866,12321.309724,-234.827427,4380.807803,0.000000,-0.029000,1.006000,192.000000,0.000000,0.000000,0.000000,0.000000,0.000000,0.000000,0.000000,0.000000,0.000000,1769524665.561853,0.000000
140.000000,15542.151397,14466.004308,4322.357991,-2480.730710,6093.376111,-10237.613051,660.605807,-18007.437051,12363.263948,11225.001362,-8829.743723,797.264373,21745.654553,12327.188233,-237.844913,4378.438518,0.000000,-0.029000,1.006000,192.000000,0.000000,0.000000,0.000000,0.000000,0.000000,0.000000,0.000000,0.000000,0.000000,1769524665.561863,0.000000
142.000000,15521.476033,14439.696305,4272.267732,-2531.290356,6069.750317,-10258.891911,613.890661,-18069.150218,12273.275825,11229.628173,-8777.127716,835.463504,21760.026724,12352.848035,-193.610810,4400.209117,0.001000,-0.025500,1.003000,192.000000,0.000000,8.000000,127.500000,40.000000,15.500000,32.000000,0.000000,0.000000,0.000000,1769524665.561873,0.000000
144.000000,15541.078513,14462.808009,4270.546647,-2532.653812,6084.569524,-10259.294243,613.063647,-18071.541854,12380.184219,11206.918801,-8867.026432,769.816431,21724.956837,12301.640189,-265.739890,4360.668881,0.001000,-0.025500,1.003000,192.000000,0.000000,0.000000,0.000000,0.000000,0.000000,0.000000,0.000000,0.000000,0.000000,1769524665.561883,0.000000
146.000000,15514.189364,14437.707000,4306.801177,-2490.409015,6076.008806,-10236.428408,649.988729,-18025.161985,12277.880285,11236.981897,-8777.910027,835.999946,21763.178320,12355.262024,-192.895555,4412.659039,0.001000,-0.025500,1.003000,192.000000,0.000000,0.000000,0.000000,0.000000,0.000000,0.000000,0.000000,0.000000,0.000000,1769524665.561894,0.000000
148.000000,15514.904620,14436.656468,4235.476760,-2565.130897,6070.644387,-10276.192162,581.614742,-18117.094710,12312.369026,11205.734158,-8842.260700,788.547193,21725.247410,12316.325285,-238.850741,4385.345207,0.001000,-0.025500,1.003000,192.000000,0.000000,0.000000,0.000000,0.000000,0.000000,0.000000,0.000000,0.000000,0.000000,1769524665.561904,0.000000
150.000000,15525.476995,14452.481503,4314.356067,-2487.615047,6095.030140,-10233.053295,654.190857,-18022.546830,12347.953003,11213.601972,-8842.975955,785.686169,21736.445634,12318.515756,-229.820636,4384.048806,0.001000,-0.025500,1.003000,192.000000,0.000000,0.000000,0.000000,0.000000,0.000000,0.000000,0.000000,0.000000,0.000000,1769524665.561913,0.000000
152.000000,15504.376948,14425.927630,4266.210409,-2535.358374,6069.951483,-10257.282586,608.012153,-18082.404802,12261.161180,11217.245307,-8790.181135,822.141865,21749.767274,12346.097809,-191.554450,4411.094417,0.003500,-0.026750,1.005500,192.000000,0.000000,24.000000,127.500000,16.000000,15.500000,64.000000,0.000000,0.000000,0.000000,1769524665.561924,0.000000
154.000000,15527.131024,14447.519415,4266.545685,-2537.772362,6087.855230,-10260.702403,608.168615,-18081.130753,12374.104544,11191.898428,-8876.302406,758.148820,21722.654608,12297.259247,-264.465840,4369.095489,0.003500,-0.026750,1.005500,192.000000,0.000000,0.000000,0.000000,0.000000,0.000000,0.000000,0.000000,0.000000,0.000000,1769524665.561935,0.000000
156.000000,15507.081509,14428.296915,4308.969296,-2491.973638,6078.400442,-10238.507120,648.804086,-18028.470043,12279.310796,11226.387170,-8780.838106,826.947490,21759.311469,12360.268815,-191.241526,4417.665829,0.003500,-0.026750,1.005500,192.000000,0.000000,0.000000,0.000000,0.000000,0.000000,0.000000,0.000000,0.000000,0.000000,1769524665.561945,0.000000
158.000000,15511.618914,14430.420331,4237.823693,-2563.789793,6073.505410,-10273.062917,580.810080,-18116.178288,12312.972523,11195.050024,-8843.557101,783.205126,21720.821765,12313.866593,-230.491189,4387.289809,0.003500,-0.026750,1.005500,192.000000,0.000000,0.000000,0.000000,0.000000,0.000000,0.000000,0.000000,0.000000,0.000000,1769524665.561956,0.000000
160.000000,15528.583888,14453.666145,4317.664125,-2482.049463,6098.002922,-10231.712190,656.202514,-18017.115357,12355.865521,11215.032484,-8837.969165,789.933001,21739.261954,12324.662486,-232.838122,4382.640646,0.003500,-0.026750,1.005500,192.000000,0.000000,0.000000,0.000000,0.000000,0.000000,0.000000,0.000000,0.000000,0.000000,1769524665.561966,0.000000
162.000000,15508.556725,14429.638020,4269.920799,-2529.837493,6069.236227,-10256.321461,611.946060,-18074.179360,12263.284595,11223.526147,-8786.537801,830.657879,21756.271631,12353.496236,-189.028703,4408.456911,0.004750,-0.025375,1.003750,192.000000,0.000000,24.000000,127.500000,32.000000,15.500000,40.000000,0.000000,0.000000,0.000000,1769524665.561976,0.000000
164.000000,15528.181556,14452.883834,4267.238589,-2531.737391,6094.694864,-10258.064897,610.560252,-18076.302776,12373.791620,11200.235629,-8872.927293,767.938884,21717.200782,12303.830660,-263.482364,4363.753422,0.004750,-0.025375,1.003750,192.000000,0.000000,0.000000,0.000000,0.000000,0.000000,0.000000,0.000000,0.000000,0.000000,1769524665.561986,0.000000
166.000000,15505.963922,14433.437816,4308.634020,-2487.056254,6078.802774,-10236.204891,649.653453,-18026.413682,12273.678157,11234.031467,-8784.839068,835.038821,21759.043248,12360.380573,-187.173508,4410.669733,0.004750,-0.025375,1.003750,192.000000,0.000000,0.000000,0.000000,0.000000,0.000000,0.000000,0.000000,0.000000,0.000000,1769524665.561996,0.000000
168.000000,15510.546030,14437.394075,4238.181321,-2559.587665,6076.120564,-10271.900627,581.972370,-18114.680721,12312.771358,11208.505775,-8842.327755,796.102082,21729.874221,12325.422445,-232.905177,4380.405471,0.004750,-0.025375,1.003750,192.000000,0.000000,0.000000,0.000000,0.000000,0.000000,0.000000,0.000000,0.000000,0.000000,1769524665.562006,0.000000
170.000000,15524.515870,14454.694325,4314.110197,-2480.641303,6097.444129,-10228.091208,654.906113,-18019.127014,12352.266890,11224.397865,-8841.791313,794.962143,21740.848928,12333.402018,-232.301680,4382.372425,0.004750,-0.025375,1.003750,192.000000,0.000000,0.000000,0.000000,0.000000,0.000000,0.000000,0.000000,0.000000,0.000000,1769524665.562016,0.000000
172.000000,15509.204925,14433.415465,4267.752679,-2526.529435,6075.450012,-10247.537225,611.454321,-18074.291119,12261.809380,11234.299688,-8788.303588,836.223464,21754.550547,12361.766381,-185.430072,4410.468568,0.005375,-0.026688,1.002875,192.000000,0.000000,24.000000,127.500000,16.000000,15.500000,40.000000,0.000000,0.000000,0.000000,1769524665.562026,0.000000
174.000000,15530.170862,14456.638927,4263.841124,-2531.357411,6090.045701,-10257.796676,607.810987,-18077.755639,12372.204646,11210.137452,-8876.950607,770.866963,21720.598247,12310.804404,-258.050890,4368.894323,0.005375,-0.026688,1.002875,192.000000,0.000000,0.000000,0.000000,0.000000,0.000000,0.000000,0.000000,0.000000,0.000000,1769524665.562037,0.000000
176.000000,15508.757890,14435.203604,4305.348313,-2488.307951,6077.148745,-10235.668449,646.792429,-18027.128938,12272.314700,11241.228728,-8785.666083,835.776429,21759.244413,12365.722640,-189.922773,4419.476321,0.005375,-0.026688,1.002875,192.000000,0.000000,0.000000,0.000000,0.000000,0.000000,0.000000,0.000000,0.000000,0.000000,1769524665.562046,0.000000
178.000000,15507.707358,14432.409636,4232.503978,-2565.890856,6066.241093,-10274.158153,574.931571,-18120.514526,12308.189250,11210.405673,-8844.987612,789.642428,21721.246448,12324.327210,-236.280291,4388.943838,0.005375,-0.026688,1.002875,192.000000,0.000000,0.000000,0.000000,0.000000,0.000000,0.000000,0.000000,0.000000,0.000000,1769524665.562056,0.000000
180.000000,15520.939591,14452.593261,4313.529052,-2486.028074,6092.459690,-10231.131045,648.647624,-18023.105624,12345.673125,11220.285144,-8846.060496,787.451957,21737.026779,12326.942364,-230.312375,4384.518192,0.005375,-0.026688,1.002875,192.000000,0.000000,0.000000,0.000000,0.000000,0.000000,0.000000,0.000000,0.000000,0.000000,1769524665.562067,0.000000
182.000000,15504.399300,14430.889717,4264.042290,-2530.306879,6066.732832,-10255.539150,606.492234,-18079.432020,12257.875473,11229.538766,-8791.030501,831.328432,21754.014105,12358.368916,-191.397988,4413.173129,0.005687,-0.026344,1.003437,192.000000,0.000000,24.000000,127.500000,24.000000,15.500000,48.000000,0.000000,0.000000,0.000000,1769524665.562077,0.000000
184.000000,15520.872536,14451.855654,4261.069508,-2534.531359,6087.832879,-10265.776249,603.564156,-18085.221122,12362.682803,11200.660312,-8883.343206,761.792155,21713.266875,12301.260209,-259.257884,4372.291788,0.005687,-0.026344,1.003437,192.000000,0.000000,0.000000,0.000000,0.000000,0.000000,0.000000,0.000000,0.000000,0.000000,1769524665.562087,0.000000
186.000000,15505.941571,14436.388247,4306.376494,-2488.933800,6078.378091,-10234.908490,646.323043,-18029.297057,12267.732593,11236.736028,-8788.527106,830.188493,21756.718666,12361.542864,-181.585572,4413.508405,0.005687,-0.026344,1.003437,192.000000,0.000000,0.000000,0.000000,0.000000,0.000000,0.000000,0.000000,0.000000,0.000000,1769524665.562098,0.000000
188.000000,15506.612123,14435.628287,4235.208539,-2567.611941,6066.665777,-10283.992920,577.211449,-18116.602971,12306.356407,11207.187022,-8844.339412,788.211916,21719.882991,12317.532279,-231.429962,4382.037149,0.005687,-0.026344,1.003437,192.000000,0.000000,0.000000,0.000000,0.000000,0.000000,0.000000,0.000000,0.000000,0.000000,1769524665.562109,0.000000
190.000000,15521.230164,14454.403753,4312.590279,-2487.056254,6088.011693,-10240.027039,651.262778,-18016.422453,12348.109466,11222.050932,-8838.885586,791.363512,21736.110358,12322.896698,-237.308471,4380.047843,0.005687,-0.026344,1.003437,192.000000,0.000000,0.000000,0.000000,0.000000,0.000000,0.000000,0.000000,0.000000,0.000000,1769524665.562118,0.000000
192.000000,15499.861896,14427.872232,4265.115173,-2533.570234,6065.659948,-10263.049336,608.660353,-18074.894616,12255.439133,11224.509624,-8787.186001,829.808513,21746.883899,12347.237748,-192.672037,4403.718341,0.007844,-0.025172,1.005719,192.000000,0.000000,40.000000,127.500000,32.000000,15.500000,64.000000,0.000000,0.000000,0.000000,1769524665.562129,0.000000
194.000000,15522.303047,14452.593261,4263.103516,-2533.771400,6084.502469,-10261.976452,608.436836,-18077.666232,12368.918940,11201.889658,-8873.128459,764.563771,21713.959779,12304.523564,-269.964370,4363.082869,0.007844,-0.025172,1.005719,192.000000,0.000000,0.000000,0.000000,0.000000,0.000000,0.000000,0.000000,0.000000,0.000000,1769524666.042179,0.000000
196.000000,15501.381815,14431.783787,4306.667066,-2489.939629,6075.025329,-10238.082437,646.412450,-18028.581801,12272.180590,11234.098522,-8782.581542,831.216673,21757.031591,12358.368916,-190.973305,4409.820367,0.007844,-0.025172,1.005719,192.000000,0.000000,0.000000,0.000000,0.000000,0.000000,0.000000,0.000000,0.000000,0.000000,1769524666.042226,0.000000
198.000000,15503.348768,14428.609840,4238.158970,-2566.762575,6073.371300,-10281.645987,578.552553,-18119.933381,12308.658637,11202.537859,-8841.299575,786.557887,21727.907268,12316.794672,-227.294889,4375.957474,0.007844,-0.025172,1.005719,192.000000,0.000000,0.000000,0.000000,0.000000,0.000000,0.000000,0.000000,0.000000,0.000000,1769524666.042263,0.000000
200.000000,15513.049425,14443.317287,4314.914860,-2489.783167,6091.096233,-10241.055219,651.530999,-18025.899592,12345.427256,11209.086920,-8843.579452,781.394634,21734.813957,12317.889907,-233.016936,4381.545410,0.007844,-0.025172,1.005719,192.000000,0.000000,0.000000,0.000000,0.000000,0.000000,0.000000,0.000000,0.000000,0.000000,1769524666.042300,0.000000
202.000000,15494.318663,14418.573906,4267.462107,-2540.298109,6063.692995,-10274.404022,608.190967,-18081.018994,12252.488703,11215.591278,-8790.739929,821.091333,21746.280402,12343.773227,-186.234735,4405.551184,0.007844,-0.025172,1.005719,192.000000,0.000000,0.000000,0.000000,0.000000,0.000000,0.000000,0.000000,0.000000,0.000000,1769524666.042338,0.000000
204.000000,15518.391492,14445.775979,4263.572903,-2540.633385,6076.813469,-10278.561446,608.146263,-18079.700241,12359.397097,11189.573847,-8877.799973,760.562809,21707.187200,12285.971616,-256.106288,4364.513381,0.012000,-0.022000,1.004000,192.000000,0.000000,48.000000,127.500000,40.000000,15.500000,48.000000,0.000000,0.000000,0.000000,1769524666.042375,0.000000
206.000000,15497.760832,14428.386322,4307.695247,-2493.582963,6070.107945,-10252.342850,648.401755,-18028.581801,12262.792857,11226.029542,-8784.056757,830.188493,21750.527233,12345.941346,-180.289171,4408.971001,0.012000,-0.022000,1.004000,192.000000,0.000000,0.000000,0.000000,0.000000,0.000000,0.000000,0.000000,0.000000,0.000000,1769524666.042408,0.000000
208.000000,15505.114556,14433.638982,4236.683755,-2566.024967,6063.178904,-10287.658606,580.810080,-18115.731253,12297.371006,11198.313379,-8842.573624,785.999094,21716.172602,12308.368064,-232.256977,4379.019663,0.012000,-0.022000,1.004000,192.000000,0.000000,0.000000,0.000000,0.000000,0.000000,0.000000,0.000000,0.000000,0.000000,1769524666.042419,0.000000
210.000000,15527.734521,14456.460113,4317.932346,-2485.156356,6088.302265,-10239.200025,655.777831,-18014.254333,12343.661468,11218.921687,-8838.192682,790.402387,21733.606962,12320.192137,-235.140352,4378.304407,0.012000,-0.022000,1.004000,192.000000,0.000000,0.000000,0.000000,0.000000,0.000000,0.000000,0.000000,0.000000,0.000000,1769524666.042429,0.000000
212.000000,15507.774414,14432.141415,4269.607874,-2532.631461,6060.586102,-10262.021156,611.029638,-18070.603081,12251.952261,11228.421179,-8783.632074,833.161275,21747.666210,12348.467094,-190.436863,4404.947687,0.012000,-0.022000,1.004000,192.000000,0.000000,0.000000,0.000000,0.000000,0.000000,0.000000,0.000000,0.000000,0.000000,1769524666.042439,0.000000
214.000000,15531.623725,14454.135532,4269.987854,-2537.459438,6083.384881,-10269.017252,609.174443,-18071.944186,12365.320309,11203.633094,-8868.814572,768.095346,21711.210514,12297.259247,-263.124736,4360.579474,0.010000,-0.026000,1.004000,192.000000,0.000000,40.000000,127.500000,24.000000,15.500000,48.000000,0.000000,0.000000,0.000000,1769524666.042450,0.000000
216.000000,15513.965847,14436.231784,4315.898337,-2491.124271,6072.499582,-10241.390495,651.151019,-18018.165889,12272.046479,11231.930403,-8774.020824,834.055344,21756.584556,12351.305765,-179.998598,4407.831062,0.010000,-0.026000,1.004000,192.000000,0.000000,0.000000,0.000000,0.000000,0.000000,0.000000,0.000000,0.000000,0.000000,1769524666.042459,0.000000
218.000000,15511.395396,14429.749778,4242.383449,-2563.320406,6065.525838,-10279.924903,581.614742,-18117.005303,12312.056102,11204.683626,-8833.342354,788.882469,21726.454404,12315.207698,-225.059715,4377.678559,0.010000,-0.026000,1.004000,192.000000,0.000000,0.000000,0.000000,0.000000,0.000000,0.000000,0.000000,0.000000,0.000000,1769524666.042478,0.000000
220.000000,15524.739388,14448.145264,4317.597069,-2483.010588,6088.592838,-10235.780208,653.497953,-18024.782005,12349.808198,11215.859498,-8842.327755,781.975780,21733.986942,12321.645000,-232.704012,4384.607599,0.010000,-0.026000,1.004000,192.000000,0.000000,0.000000,0.000000,0.000000,0.000000,0.000000,0.000000,0.000000,0.000000,1769524666.042488,0.000000
222.000000,15509.875478,14430.174462,4272.178325,-2529.144589,6070.689091,-10256.813199,609.934403,-18078.180322,12260.803552,11227.392999,-8787.409519,824.220577,21752.024800,12358.994765,-185.742996,4411.586155,0.010000,-0.026000,1.004000,192.000000,0.000000,0.000000,0.000000,0.000000,0.000000,0.000000,0.000000,0.000000,0.000000,1769524666.042498,0.000000
224.000000,15528.874460,14451.676840,4269.898447,-2535.648946,6096.281838,-10267.922016,607.743932,-18081.711898,12376.607940,11203.163708,-8869.932159,761.725099,21726.521459,12301.461375,-251.166552,4366.837962,0.012000,-0.024000,1.010000,192.000000,0.000000,48.000000,127.500000,32.000000,15.500000,72.000000,0.000000,0.000000,0.000000,1769524666.042508,0.000000
226.000000,15512.133004,14434.913031,4312.634982,-2490.744292,6080.702672,-10242.999821,650.569874,-18023.239735,12278.081450,11234.836130,-8779.228780,829.249719,21762.954803,12355.664355,-174.522421,4415.162434,0.012000,-0.024000,1.010000,192.000000,0.000000,0.000000,0.000000,0.000000,0.000000,0.000000,0.000000,0.000000,0.000000,1769524666.042519,0.000000
228.000000,15514.546992,14433.773092,4240.595310,-2567.522534,6069.727966,-10280.327234,583.089958,-18112.154974,12311.631419,11209.019865,-8833.878795,793.844556,21723.749843,12319.901564,-224.098590,4379.891381,0.012000,-0.024000,1.010000,192.000000,0.000000,0.000000,0.000000,0.000000,0.000000,0.000000,0.000000,0.000000,0.000000,1769524666.042529,0.000000
230.000000,15527.645114,14452.325040,4319.206395,-2486.385701,6089.419852,-10239.445894,657.521267,-18015.304865,12349.405867,11217.647638,-8837.790351,791.430568,21726.677922,12321.019151,-230.222968,4378.125593,0.012000,-0.024000,1.010000,192.000000,0.000000,0.000000,0.000000,0.000000,0.000000,0.000000,0.000000,0.000000,0.000000,1769524666.042539,0.000000
232.000000,15504.064024,14423.625400,4270.211371,-2529.971603,6058.596797,-10267.072650,613.287164,-18076.459238,12256.757886,11227.191833,-8783.676777,833.161275,21744.380503,12350.098771,-181.473813,4402.980733,0.012000,-0.024000,1.010000,192.000000,0.000000,0.000000,0.000000,0.000000,0.000000,0.000000,0.000000,0.000000,0.000000,1769524666.042550,0.000000
234.000000,15524.493518,14445.306593,4262.477668,-2531.715039,6079.942713,-10268.704327,606.112254,-18084.595273,12363.934501,11198.156917,-8877.017662,762.127431,21701.375747,12296.052253,-259.503753,4366.770907,0.006000,-0.026000,1.008000,192.000000,0.000000,24.000000,127.500000,24.000000,15.500000,64.000000,0.000000,0.000000,0.000000,1769524666.042560,0.000000
236.000000,15515.508117,14434.935383,4311.271526,-2486.743329,6075.941751,-10237.568347,647.932368,-18024.066749,12275.332186,11235.909013,-8782.358024,830.412010,21750.013143,12357.050163,-181.071482,4411.720265,0.006000,-0.026000,1.008000,192.000000,0.000000,0.000000,0.000000,0.000000,0.000000,0.000000,0.000000,0.000000,0.000000,1769524666.042570,0.000000
238.000000,15518.324437,14433.214299,4238.516598,-2566.673168,6066.375204,-10282.338891,578.753719,-18114.323093,12315.006532,11208.215202,-8835.264604,788.234268,21722.386387,12320.572116,-225.730267,4386.038111,0.006000,-0.026000,1.008000,192.000000,0.000000,0.000000,0.000000,0.000000,0.000000,0.000000,0.000000,0.000000,0.000000,1769524666.042580,0.000000
240.000000,15536.071722,14455.163712,4317.217090,-2487.190364,6086.402367,-10236.115484,652.894456,-18015.930714,12355.932576,11221.246269,-8837.052743,789.284800,21733.003465,12323.120215,-227.898386,4384.451137,0.006000,-0.026000,1.008000,192.000000,0.000000,0.000000,0.000000,0.000000,0.000000,0.000000,0.000000,0.000000,0.000000,1769524666.042590,0.000000
242.000000,15518.123271,14429.660372,4273.430022,-2535.000746,6068.431564,-10264.681013,610.672010,-18072.838256,12268.492552,11233.226804,-8779.765222,831.417839,21747.599154,12352.021021,-185.564182,4408.121634,0.006000,-0.026000,1.008000,192.000000,0.000000,0.000000,0.000000,0.000000,0.000000,0.000000,0.000000,0.000000,0.000000,1769524666.042600,0.000000
244.000000,15541.682010,14455.700154,4271.261903,-2536.341850,6083.586047,-10269.464287,610.046161,-18073.285290,12381.257103,11208.394016,-8863.628967,767.134221,21711.925770,12303.517735,-259.213180,4365.742727,0.008000,-0.022000,1.008000,192.000000,0.000000,32.000000,127.500000,40.000000,15.500000,64.000000,0.000000,0.000000,0.000000,1769524666.042611,0.000000
246.000000,15518.682065,14437.416427,4314.199604,-2491.772472,6070.175000,-10237.881272,650.391060,-18019.238772,12282.529447,11246.593147,-8770.712766,836.514036,21752.695352,12356.111390,-177.383444,4409.373332,0.008000,-0.022000,1.008000,192.000000,0.000000,0.000000,0.000000,0.000000,0.000000,0.000000,0.000000,0.000000,0.000000,1769524666.042621,0.000000
248.000000,15514.345826,14432.409636,4235.789685,-2563.320406,6061.144896,-10283.322368,580.050120,-18113.987817,12316.682913,11212.059702,-8829.341391,793.330466,21715.524401,12322.494366,-224.567977,4377.857373,0.008000,-0.022000,1.008000,192.000000,0.000000,0.000000,0.000000,0.000000,0.000000,0.000000,0.000000,0.000000,0.000000,1769524666.042631,0.000000
250.000000,15526.862803,14453.085000,4316.010096,-2482.608257,6085.977684,-10239.557652,654.727299,-18016.802432,12352.982146,11217.692342,-8838.326793,789.888297,21723.168698,12323.902526,-234.268634,4378.058538,0.008000,-0.022000,1.008000,192.000000,0.000000,0.000000,0.000000,0.000000,0.000000,0.000000,0.000000,0.000000,0.000000,1769524666.042643,0.000000
252.000000,15504.712225,14428.743950,4272.021863,-2531.312708,6064.274140,-10262.647004,610.202624,-18074.268767,12255.237967,11227.080074,-8780.055795,831.529597,21741.832404,12354.725582,-183.753691,4405.819405,0.008000,-0.022000,1.008000,192.000000,0.000000,0.000000,0.000000,0.000000,0.000000,0.000000,0.000000,0.000000,0.000000,1769524666.042653,0.000000
254.000000,15532.584850,14456.705982,4271.328958,-2533.927862,6090.492736,-10262.579949,607.162786,-18074.693450,12365.163847,11207.969333,-8868.613406,767.625960,21706.717814,12305.194116,-247.076183,4363.999291,0.004000,-0.020000,1.004000,192.000000,0.000000,16.000000,127.500000,48.000000,15.500000,48.000000,0.000000,0.000000,0.000000,1769524666.042663,0.000000
0.000000,15515.396358,14438.936345,4313.841976,-2487.905620,6077.551076,-10232.628612,649.586397,-18017.405929,12287.402128,11250.325888,-8771.964463,838.838618,21755.869300,12367.108448,-174.120089,4412.614335,0.004000,-0.020000,1.004000,192.000000,0.000000,0.000000,0.000000,0.000000,0.000000,0.000000,0.000000,0.000000,0.000000,1769524666.042674,0.000000
2.000000,15517.698588,14434.287183,4239.790647,-2565.890856,6066.755184,-10277.354452,581.190059,-18106.947018,12306.356407,11209.332789,-8828.961412,796.392655,21723.213401,12323.075512,-223.271575,4386.798070,0.004000,-0.020000,1.004000,192.000000,0.000000,0.000000,0.000000,0.000000,0.000000,0.000000,0.000000,0.000000,0.000000,1769524666.042684,0.000000
4.000000,15527.421597,14451.721543,4320.346334,-2485.044597,6090.872716,-10230.840472,656.850714,-18011.169793,12349.584681,11220.016923,-8831.509510,792.615210,21734.389273,12327.612916,-225.171474,4381.008968,0.004000,-0.020000,1.004000,192.000000,0.000000,0.000000,0.000000,0.000000,0.000000,0.000000,0.000000,0.000000,0.000000,1769524666.042694,0.000000
6.000000,15502.946437,14425.391188,4272.580656,-2531.379763,6062.575407,-10260.657699,612.929536,-18070.223101,12251.147598,11228.421179,-8779.385242,832.267205,21742.949992,12353.138608,-176.601133,4409.865071,0.004000,-0.020000,1.004000,192.000000,0.000000,0.000000,0.000000,0.000000,0.000000,0.000000,0.000000,0.000000,0.000000,1769524666.042704,0.000000
8.000000,15529.634420,14455.700154,4268.356176,-2530.329231,6083.876620,-10257.908435,611.901356,-18071.832427,12361.565216,11206.158841,-8868.434592,769.771727,21706.114317,12304.523564,-254.407555,4363.172276,0.002000,-0.024000,1.008000,192.000000,0.000000,8.000000,127.500000,32.000000,15.500000,64.000000,0.000000,0.000000,0.000000,1769524666.042714,0.000000
10.000000,15515.172841,14439.092808,4310.377456,-2483.949361,6069.862076,-10230.996934,653.855581,-18015.461327,12273.164066,11246.861368,-8773.260864,841.677289,21750.706047,12368.002518,-186.100624,4412.077893,0.002000,-0.024000,1.008000,192.000000,0.000000,0.000000,0.000000,0.000000,0.000000,0.000000,0.000000,0.000000,0.000000,1769524666.042725,0.000000
12.000000,15514.859917,14431.917898,4240.438848,-2564.169772,6060.519047,-10278.203819,583.805213,-18110.255076,12304.925895,11210.875059,-8831.934194,794.202184,21713.021006,12327.568212,-229.395953,4385.300503,0.002000,-0.024000,1.008000,192.000000,0.000000,0.000000,0.000000,0.000000,0.000000,0.000000,0.000000,0.000000,0.000000,1769524666.042735,0.000000
14.000000,15532.003705,14451.118046,4321.106293,-2484.016417,6081.037948,-10234.394399,658.795316,-18014.209630,12349.204701,11221.290972,-8834.482292,790.849422,21727.057901,12329.512814,-224.389163,4379.064367,0.002000,-0.024000,1.008000,192.000000,0.000000,0.000000,0.000000,0.000000,0.000000,0.000000,0.000000,0.000000,0.000000,1769524666.042745,0.000000
16.000000,15512.870611,14428.766302,4279.397938,-2530.731562,6059.021480,-10259.182484,616.327002,-18071.206578,12253.874511,11223.660257,-8781.374548,831.104914,21739.239602,12355.239672,-183.150194,4409.641553,0.002000,-0.024000,1.008000,192.000000,0.000000,0.000000,0.000000,0.000000,0.000000,0.000000,0.000000,0.000000,0.000000,1769524666.042755,0.000000
18.000000,15536.250536,14457.041258,4278.615627,-2532.877330,6078.534553,-10270.090135,612.549557,-18074.782857,12373.076364,11203.476632,-8863.271339,771.582219,21712.417509,12309.485651,-256.732137,4361.004157,0.000000,-0.023000,1.005000,192.000000,127.500000,120.000000,127.500000,40.000000,15.500000,40.000000,0.000000,0.000000,0.000000,1769524666.042765,0.000000
20.000000,15508.959056,14430.375627,4319.854596,-2488.397358,6069.303282,-10250.152379,651.553351,-18026.346627,12272.180590,11232.533900,-8774.959597,835.105876,21751.086027,12360.402925,-174.701235,4409.641553,0.000000,-0.023000,1.005000,192.000000,0.000000,0.000000,0.000000,0.000000,0.000000,0.000000,0.000000,0.000000,0.000000,1769524666.042781,0.000000
22.000000,15514.949324,14435.583584,4246.138542,-2559.744127,6071.672567,-10278.404984,582.620571,-18113.652541,12302.802480,11199.162745,-8831.911842,790.312980,21720.866468,12321.645000,-214.599099,4381.299541,0.000000,-0.023000,1.005000,192.000000,0.000000,0.000000,0.000000,0.000000,0.000000,0.000000,0.000000,0.000000,0.000000,1769524666.042792,0.000000
24.000000,15537.792806,14463.925596,4324.369648,-2477.422652,6099.187565,-10226.236013,656.314272,-18013.181450,12351.886910,11221.693304,-8832.224766,795.230364,21734.679846,12334.206681,-221.103456,4383.132384,0.000000,-0.023000,1.005000,192.000000,0.000000,0.000000,0.000000,0.000000,0.000000,0.000000,0.000000,0.000000,0.000000,1769524666.042802,0.000000
26.000000,15515.105786,14436.902337,4276.983950,-2527.222339,6070.800849,-10248.140722,610.716714,-18073.374697,12257.026107,11232.623307,-8780.413423,838.145714,21754.416436,12369.611844,-170.096775,4411.340286,0.000000,-0.023000,1.005000,192.000000,0.000000,0.000000,0.000000,0.000000,0.000000,0.000000,0.000000,0.000000,0.000000,1769524666.042814,0.000000
28.000000,15538.016324,14459.812875,4272.714767,-2530.686859,6090.671550,-10254.175693,608.056856,-18076.459238,12365.320309,11210.293914,-8870.893284,775.449070,21716.664340,12317.174651,-246.472686,4366.726204,0.002000,-0.021500,1.005500,192.000000,0.000000,16.000000,127.500000,48.000000,15.500000,56.000000,0.000000,0.000000,0.000000,1769524666.042825,0.000000
30.000000,15523.353579,14446.133607,4319.318154,-2483.703492,6079.629788,-10228.717056,653.274435,-18014.790775,12269.744250,11244.782656,-8777.597103,844.404202,21756.115169,12371.936425,-175.975284,4421.264460,0.002000,-0.021500,1.005500,192.000000,0.000000,0.000000,0.000000,0.000000,0.000000,0.000000,0.000000,0.000000,0.000000,1769524666.042856,0.000000
32.000000,15520.201983,14441.685610,4244.529217,-2561.621673,6071.896085,-10271.185371,583.380530,-18106.432927,12305.305875,11218.362894,-8828.693191,803.992248,21721.671131,12336.955945,-216.208424,4389.972018,0.002000,-0.021500,1.005500,192.000000,0.000000,0.000000,0.000000,0.000000,0.000000,0.000000,0.000000,0.000000,0.000000,1769524666.042867,0.000000
34.000000,15533.344809,14460.908110,4321.061590,-2481.021283,6091.766786,-10229.856995,659.085889,-18009.672226,12347.573024,11223.749664,-8833.409409,797.398483,21727.974323,12334.676067,-222.019878,4385.434614,0.002000,-0.021500,1.005500,192.000000,0.000000,0.000000,0.000000,0.000000,0.000000,0.000000,0.000000,0.000000,0.000000,1769524666.042876,0.000000
36.000000,15508.556725,14432.588450,4270.121964,-2528.675202,6062.195428,-10260.478885,613.220109,-18069.172569,12253.807456,11232.623307,-8777.060661,839.553873,21740.960686,12364.627405,-187.128805,4409.328629,0.002000,-0.021500,1.005500,192.000000,0.000000,0.000000,0.000000,0.000000,0.000000,0.000000,0.000000,0.000000,0.000000,1769524666.042887,0.000000
38.000000,15533.300106,14458.114142,4267.707976,-2533.637289,6083.876620,-10258.936615,610.739065,-18072.368869,12363.956852,11205.957676,-8866.266473,773.727986,21704.527343,12313.196041,-255.838067,4367.776736,0.006000,-0.020750,1.006750,192.000000,0.000000,40.000000,127.500000,48.000000,15.500000,64.000000,0.000000,0.000000,0.000000,1769524666.042897,0.000000
40.000000,15508.512021,14434.644811,4307.717598,-2490.297257,6073.527762,-10236.629574,650.994557,-18021.608057,12270.191284,11235.305516,-8778.222952,835.776429,21752.918870,12368.136629,-172.331950,4407.987524,0.006000,-0.020750,1.006750,192.000000,0.000000,0.000000,0.000000,0.000000,0.000000,0.000000,0.000000,0.000000,0.000000,1769524666.042908,0.000000
42.000000,15510.076643,14431.537918,4234.627394,-2565.957912,6066.039928,-10276.102755,581.324170,-18115.574791,12300.410843,11205.153013,-8838.505606,791.139995,21715.546753,12330.093960,-220.187035,4389.927315,0.006000,-0.020750,1.006750,192.000000,0.000000,0.000000,0.000000,0.000000,0.000000,0.000000,0.000000,0.000000,0.000000,1769524666.042917,0.000000
44.000000,15526.549879,14454.113180,4313.685514,-2484.284637,6091.319751,-10232.606260,654.213208,-18020.356360,12343.728524,11215.993609,-8844.607633,789.776539,21729.829518,12330.228070,-221.684602,4384.920524,0.006000,-0.020750,1.006750,192.000000,0.000000,0.000000,0.000000,0.000000,0.000000,0.000000,0.000000,0.000000,0.000000,1769524666.042928,0.000000
46.000000,15504.578114,14427.827528,4272.982988,-2529.703382,6065.682300,-10256.522626,612.616612,-18076.727459,12252.935738,11226.454225,-8786.738966,832.043687,21746.079236,12362.325175,-173.315427,4412.882556,0.006000,-0.020750,1.006750,192.000000,0.000000,0.000000,0.000000,0.000000,0.000000,0.000000,0.000000,0.000000,0.000000,1769524666.042938,0.000000
48.000000,15532.830719,14454.649622,4273.586485,-2533.145551,6088.011693,-10259.115429,609.688534,-18078.515599,12369.477733,11199.565077,-8869.641586,765.547248,21718.318369,12311.139680,-248.014956,4368.939026,0.008000,-0.022375,1.006375,192.000000,0.000000,40.000000,127.500000,32.000000,15.500000,56.000000,0.000000,0.000000,0.000000,1769524666.042948,0.000000
50.000000,15519.889059,14440.188043,4319.161692,-2485.156356,6081.037948,-10224.090245,653.319139,-18017.227115,12284.295235,11239.865272,-8770.086917,838.548045,21764.161797,12373.232826,-172.220191,4415.475358,0.008000,-0.022375,1.006375,192.000000,0.000000,0.000000,0.000000,0.000000,0.000000,0.000000,0.000000,0.000000,0.000000,1769524666.042983,0.000000
52.000000,15520.581963,14437.841110,4245.736211,-2559.565313,6069.392689,-10270.313653,585.861574,-18107.058776,12316.101768,11212.909068,-8823.619345,799.946582,21725.940314,12339.057009,-221.125808,4388.675617,0.008000,-0.022375,1.006375,192.000000,0.000000,0.000000,0.000000,0.000000,0.000000,0.000000,0.000000,0.000000,0.000000,1769524666.042993,0.000000
54.000000,15534.887080,14459.321136,4324.570814,-2479.009626,6094.381940,-10226.884213,659.219999,-18011.281551,12355.574948,11224.710789,-8830.906013,797.376132,21732.511727,12338.140588,-220.276442,4383.512364,0.008000,-0.022375,1.006375,192.000000,0.000000,0.000000,0.000000,0.000000,0.000000,0.000000,0.000000,0.000000,0.000000,1769524666.043003,0.000000
56.000000,15511.104823,14435.225956,4277.118060,-2524.003687,6069.347986,-10247.447818,616.259946,-18069.038459,12264.692755,11239.217071,-8772.545609,843.823057,21753.544718,12374.797448,-177.003464,4411.452044,0.008000,-0.022375,1.006375,192.000000,0.000000,0.000000,0.000000,0.000000,0.000000,0.000000,0.000000,0.000000,0.000000,1769524666.043013,0.000000
58.000000,15524.806443,14455.409581,4268.736156,-2533.994917,6095.231306,-10258.713097,608.503891,-18082.270692,12368.449553,11207.924629,-8867.719336,772.409233,21714.004483,12319.298067,-246.696204,4374.325797,0.011000,-0.023187,1.003188,192.000000,0.000000,56.000000,127.500000,32.000000,15.500000,32.000000,0.000000,0.000000,0.000000,1769524666.522132,0.000000
60.000000,15512.758853,14446.401828,4315.227785,-2480.596600,6080.747376,-10224.805501,653.676767,-18020.915153,12275.756869,11244.335621,-8780.234609,838.592748,21760.764332,12379.848943,-172.376653,4418.626954,0.011000,-0.023187,1.003188,192.000000,0.000000,0.000000,0.000000,0.000000,0.000000,0.000000,0.000000,0.000000,0.000000,1769524666.522207,0.000000
62.000000,15518.659713,14447.832340,4242.450505,-2554.022080,6073.058375,-10268.927845,586.062740,-18107.550515,12312.369026,11223.772016,-8828.715542,804.349876,21735.439805,12345.404905,-214.733209,4392.408358,0.011000,-0.023187,1.003188,192.000000,0.000000,0.000000,0.000000,0.000000,0.000000,0.000000,0.000000,0.000000,0.000000,1769524666.522264,0.000000
64.000000,15534.305934,14465.847846,4316.077151,-2476.640341,6089.039873,-10233.343867,657.923598,-18011.415662,12356.513722,11233.830301,-8831.665973,801.645315,21740.580707,12345.226091,-224.389163,4387.423919,0.011000,-0.023187,1.003188,192.000000,0.000000,0.000000,0.000000,0.000000,0.000000,0.000000,0.000000,0.000000,0.000000,1769524666.522314,0.000000
66.000000,15516.536297,14444.256061,4274.748775,-2520.136836,6063.178904,-10254.220397,618.025734,-18061.058886,12260.915310,11238.345353,-8772.813830,843.733650,21749.990791,12370.885893,-178.501031,4413.016667,0.011000,-0.023187,1.003188,192.000000,0.000000,0.000000,0.000000,0.000000,0.000000,0.000000,0.000000,0.000000,0.000000,1769524666.522365,0.000000
68.000000,15537.569289,14466.473695,4271.708938,-2529.122237,6084.770690,-10263.853999,614.807083,-18067.697354,12376.540885,11215.099539,-8857.258720,782.713387,21718.273666,12320.035675,-252.865285,4370.011910,0.009500,-0.019594,1.001594,192.000000,0.000000,32.000000,127.500000,64.000000,15.500000,32.000000,0.000000,0.000000,0.000000,1769524666.522406,0.000000
70.000000,15515.597524,14444.144302,4318.692305,-2485.201059,6074.488887,-10230.728713,656.515438,-18015.550734,12281.210694,11241.742819,-8769.394013,844.448906,21757.746846,12373.881027,-171.929618,4413.039018,0.009500,-0.019594,1.001594,192.000000,0.000000,0.000000,0.000000,0.000000,0.000000,0.000000,0.000000,0.000000,0.000000,1769524666.522417,0.000000
72.000000,15515.932800,14439.606898,4246.429115,-2561.867542,6063.648291,-10274.538132,585.794519,-18110.411538,12313.933648,11212.394978,-8824.960449,801.824129,21731.014160,12337.157111,-219.561186,4384.898172,0.009500,-0.019594,1.001594,192.000000,0.000000,0.000000,0.000000,0.000000,0.000000,0.000000,0.000000,0.000000,0.000000,1769524666.522429,0.000000
74.000000,15526.505175,14454.984898,4320.569851,-2484.061120,6087.542306,-10231.019286,656.761307,-18017.540040,12356.848998,11220.106330,-8833.275298,793.688094,21735.149233,12335.123102,-227.652517,4383.490012,0.009500,-0.019594,1.001594,192.000000,0.000000,0.000000,0.000000,0.000000,0.000000,0.000000,0.000000,0.000000,0.000000,1769524666.522439,0.000000
76.000000,15503.907562,14427.983991,4274.055871,-2530.418638,6058.306224,-10252.320499,613.264813,-18073.821732,12255.595595,11228.845862,-8780.256960,833.630661,21747.040361,12369.634196,-179.685674,4417.263498,0.009500,-0.019594,1.001594,192.000000,0.000000,0.000000,0.000000,0.000000,0.000000,0.000000,0.000000,0.000000,0.000000,1769524666.522450,0.000000
78.000000,15529.187385,14454.873139,4269.473764,-2535.179560,6082.736681,-10256.969661,607.810987,-18078.515599,12366.281434,11205.667103,-8869.082793,769.168230,21712.685730,12317.666390,-250.026613,4369.386061,0.008750,-0.021797,1.000797,192.000000,0.000000,32.000000,127.500000,32.000000,15.500000,32.000000,0.000000,0.000000,0.000000,1769524666.522461,0.000000
80.000000,15512.714149,14442.356162,4314.177253,-2486.162184,6073.281893,-10232.427446,650.972206,-18019.350531,12267.956110,11238.792388,-8782.402728,835.508208,21751.086027,12372.361108,-168.018063,4418.649306,0.008750,-0.021797,1.000797,192.000000,0.000000,0.000000,0.000000,0.000000,0.000000,0.000000,0.000000,0.000000,0.000000,1769524666.522472,0.000000
82.000000,15520.470204,14446.647697,4244.506865,-2561.465211,6061.994262,-10273.286435,584.207545,-18106.052948,12299.695587,11215.881850,-8832.135359,802.874661,21717.066671,12338.587622,-215.247299,4388.496803,0.008750,-0.021797,1.000797,192.000000,0.000000,0.000000,0.000000,0.000000,0.000000,0.000000,0.000000,0.000000,0.000000,1769524666.522483,0.000000
84.000000,15534.261231,14464.998479,4322.134474,-2482.496498,6086.827050,-10236.450760,658.772964,-18010.320426,12350.702268,11227.392999,-8833.409409,799.812472,21733.115224,12341.582756,-227.116075,4380.517230,0.008750,-0.021797,1.000797,192.000000,0.000000,0.000000,0.000000,0.000000,0.000000,0.000000,0.000000,0.000000,0.000000,1769524666.522494,0.000000
86.000000,15508.981408,14436.142377,4279.464993,-2530.172769,6063.245960,-10264.681013,616.327002,-18068.144389,12253.561587,11234.679667,-8778.580580,838.592748,21749.141425,12366.661414,-177.718720,4406.109977,0.008750,-0.021797,1.000797,192.000000,0.000000,0.000000,0.000000,0.000000,0.000000,0.000000,0.000000,0.000000,0.000000,1769524666.522505,0.000000
88.000000,15532.361332,14460.930462,4271.351310,-2535.850112,6080.434451,-10260.769458,609.465016,-18076.481590,12363.018079,11208.796347,-8865.707679,770.866963,21717.826631,12313.061930,-245.869189,4361.942930,0.008750,-0.021797,1.000797,192.000000,0.000000,0.000000,0.000000,0.000000,0.000000,0.000000,0.000000,0.000000,0.000000,1769524666.522516,0.000000
90.000000,15516.312780,14444.367819,4315.048971,-2485.581039,6072.007843,-10233.612088,652.916807,-18019.216421,12271.688851,11246.906072,-8774.467859,840.224426,21758.842082,12373.299882,-177.696368,4411.720265,0.006000,-0.024000,1.004000,192.000000,0.000000,24.000000,127.500000,32.000000,15.500000,48.000000,0.000000,0.000000,0.000000,1769524666.522534,0.000000
92.000000,15521.341922,14444.479578,4242.361098,-2560.749955,6066.822239,-10272.749993,583.693455,-18109.942151,12301.036692,11217.155900,-8832.940022,797.979629,21727.504936,12335.816006,-217.728343,4384.697006,0.006000,-0.024000,1.004000,192.000000,0.000000,0.000000,0.000000,0.000000,0.000000,0.000000,0.000000,0.000000,0.000000,1769524666.522545,0.000000
94.000000,15532.853071,14464.886721,4318.021753,-2484.306989,6087.698768,-10232.338039,654.414374,-18018.188240,12351.059896,11230.365781,-8837.946813,796.392655,21739.574878,12344.376724,-227.674869,4385.546373,0.006000,-0.024000,1.004000,192.000000,0.000000,0.000000,0.000000,0.000000,0.000000,0.000000,0.000000,0.000000,0.000000,1769524666.522556,0.000000
96.000000,15512.378873,14437.707000,4274.525258,-2530.038658,6063.111849,-10254.823894,611.342563,-18074.268767,12253.583938,11232.891528,-8784.213219,832.468370,21752.337724,12363.710983,-174.388310,4415.005972,0.006000,-0.024000,1.004000,192.000000,0.000000,0.000000,0.000000,0.000000,0.000000,0.000000,0.000000,0.000000,0.000000,1769524666.522566,0.000000
98.000000,15536.406998,14465.445514,4270.323130,-2535.760705,6087.899934,-10261.998804,607.453359,-18082.225988,12369.835361,11210.316266,-8870.356842,767.938884,21722.274628,12316.325285,-245.690375,4367.709681,0.006000,-0.024000,1.004000,192.000000,0.000000,0.000000,0.000000,0.000000,0.000000,0.000000,0.000000,0.000000,0.000000,1769524666.522578,0.000000
100.000000,15516.111614,14446.893566,4317.574718,-2487.570344,6077.036986,-10233.522681,650.078136,-18026.726607,12277.075622,11244.559138,-8780.793402,833.876530,21765.189977,12373.054012,-170.812031,4415.743579,0.006000,-0.024000,1.004000,192.000000,0.000000,24.000000,127.500000,32.000000,15.500000,48.000000,0.000000,0.000000,0.000000,1769524666.522589,0.000000
102.000000,15515.910449,14446.021848,4246.250301,-2564.326234,6067.381032,-10269.486638,580.385397,-18118.882849,12309.060968,11220.866289,-8831.621269,796.191489,21736.244468,12337.626497,-214.621450,4393.458890,0.006000,-0.024000,1.004000,192.000000,0.000000,0.000000,0.000000,0.000000,0.000000,0.000000,0.000000,0.000000,0.000000,1769524666.522600,0.000000
104.000000,15529.902641,14464.596148,4320.547500,-2486.430405,6094.225477,-10230.393437,651.173371,-18026.234868,12355.262024,11231.148092,-8840.070229,788.010751,21742.480605,12338.386457,-215.403761,4385.568724,0.006000,-0.024000,1.004000,192.000000,0.000000,0.000000,0.000000,0.000000,0.000000,0.000000,0.000000,0.000000,0.000000,1769524666.522610,0.000000
106.000000,15507.863821,14438.958697,4276.626322,-2528.786961,6074.354777,-10253.751010,610.627307,-18080.683718,12257.271976,11237.920670,-8786.515449,831.775466,21757.948012,12369.634196,-171.348473,4413.284887,0.006000,-0.024000,1.004000,192.000000,0.000000,0.000000,0.000000,0.000000,0.000000,0.000000,0.000000,0.000000,0.000000,1769524666.522621,0.000000
108.000000,15528.181556,14461.712773,4270.367833,-2536.341850,6086.245905,-10261.440010,606.402827,-18086.718689,12365.499123,11214.473690,-8876.458869,768.095346,21720.575895,12322.069683,-249.244302,4365.943893,0.006000,-0.024000,1.004000,192.000000,0.000000,0.000000,0.000000,0.000000,0.000000,0.000000,0.000000,0.000000,0.000000,1769524666.522632,0.000000
110.000000,15507.662655,14440.657430,4315.518357,-2487.816213,6071.873733,-10240.898757,651.374537,-18029.565278,12269.185456,11243.776827,-8786.560152,833.451847,21758.059771,12370.483562,-174.768290,4409.619201,0.006000,-0.022000,1.002000,192.000000,0.000000,24.000000,127.500000,40.000000,15.500000,40.000000,0.000000,0.000000,0.000000,1769524666.522643,0.000000
112.000000,15513.518812,14443.563157,4244.640976,-2560.057051,6066.576370,-10278.114412,585.995684,-18116.826489,12299.852049,11215.479519,-8837.611537,795.632696,21724.509802,12334.698419,-219.516482,4381.053672,0.006000,-0.022000,1.002000,192.000000,0.000000,0.000000,0.000000,0.000000,0.000000,0.000000,0.000000,0.000000,0.000000,1769524666.522653,0.000000
114.000000,15532.204870,14468.619462,4319.921651,-2480.842469,6089.464556,-10235.288469,657.610674,-18019.708159,12351.730448,11230.857519,-8839.243214,794.939792,21740.312486,12341.269832,-225.551453,4376.628027,0.006000,-0.022000,1.002000,192.000000,0.000000,0.000000,0.000000,0.000000,0.000000,0.000000,0.000000,0.000000,0.000000,1769524666.522664,0.000000
116.000000,15506.992103,14440.322154,4274.055871,-2529.658679,6064.497657,-10257.930786,613.510682,-18077.420363,12249.493569,11237.250118,-8783.386205,835.910539,21751.913041,12368.315443,-173.673054,4404.925335,0.006000,-0.022000,1.002000,192.000000,0.000000,0.000000,0.000000,0.000000,0.000000,0.000000,0.000000,0.000000,0.000000,1769524666.522674,0.000000
118.000000,15530.237917,14463.746782,4268.959674,-2533.637289,6083.049605,-10265.686842,608.727408,-18084.103535,12358.368916,11209.265734,-8873.888418,767.760070,21713.982131,12314.671256,-247.500866,4364.446326,0.006000,-0.022000,1.002000,192.000000,0.000000,0.000000,0.000000,0.000000,0.000000,0.000000,0.000000,0.000000,0.000000,1769524666.522685,0.000000
120.000000,15511.708321,14444.524282,4313.216128,-2487.078606,6071.359643,-10234.841434,650.860447,-18026.726607,12267.777296,11247.464865,-8782.782708,834.412972,21754.125864,12369.008347,-172.309598,4410.155643,0.004000,-0.026000,1.006000,192.000000,0.000000,16.000000,127.500000,24.000000,15.500000,56.000000,0.000000,0.000000,0.000000,1769524666.522695,0.000000
122.000000,15511.484803,14440.657430,4238.695412,-2563.633330,6063.849457,-10278.047356,579.983065,-18119.531050,12293.481802,11216.284182,-8840.360801,792.548155,21718.497183,12330.988029,-218.510654,4388.452099,0.004000,-0.026000,1.006000,192.000000,0.000000,0.000000,0.000000,0.000000,0.000000,0.000000,0.000000,0.000000,0.000000,1769524666.522707,0.000000
124.000000,15528.695646,14463.255043,4316.546537,-2487.302123,6089.911591,-10233.612088,652.492124,-18023.016217,12341.336887,11225.694266,-8847.960394,790.670608,21728.242544,12332.284431,-221.550491,4385.211096,0.004000,-0.026000,1.006000,192.000000,0.000000,0.000000,0.000000,0.000000,0.000000,0.000000,0.000000,0.000000,0.000000,1769524666.522718,0.000000
126.000000,15505.360425,14431.940249,4271.664235,-2531.245653,6070.219704,-10257.975490,610.850824,-18079.633186,12246.677249,11233.003286,-8788.996493,833.496551,21750.706047,12364.247425,-169.962665,4411.005010,0.004000,-0.026000,1.006000,192.000000,0.000000,0.000000,0.000000,0.000000,0.000000,0.000000,0.000000,0.000000,0.000000,1769524666.522729,0.000000
128.000000,15524.806443,14452.682668,4263.908179,-2539.560502,6081.239114,-10268.659624,602.893603,-18091.300796,12357.072515,11203.051949,-8880.549238,762.753280,21710.808183,12304.970599,-241.532951,4369.810745,0.004000,-0.026000,1.006000,192.000000,0.000000,0.000000,0.000000,0.000000,0.000000,0.000000,0.000000,0.000000,0.000000,1769524666.522740,0.000000
130.000000,15509.316684,14436.745874,4310.891546,-2490.118443,6072.521934,-10245.078533,648.200589,-18032.493357,12267.039688,11235.238461,-8791.812812,827.752152,21756.964535,12361.542864,-172.734281,4415.050675,0.004000,-0.026000,1.006000,192.000000,0.000000,16.000000,127.500000,24.000000,15.500000,56.000000,0.000000,0.000000,0.000000,1769524666.522751,0.000000
132.000000,15516.513946,14439.942174,4240.930586,-2563.074537,6066.576370,-10282.651816,580.564210,-18119.352236,12303.696549,11213.579621,-8839.802008,794.828033,21731.081215,12331.882099,-218.398895,4388.273285,0.004000,-0.026000,1.006000,192.000000,0.000000,0.000000,0.000000,0.000000,0.000000,0.000000,0.000000,0.000000,0.000000,1769524666.522762,0.000000
134.000000,15532.897774,14462.763305,4317.194738,-2485.402225,6088.794004,-10234.617917,653.073269,-18022.412720,12349.607032,11227.527109,-8847.580415,788.815414,21738.457291,12334.921936,-220.879939,4384.473489,0.004000,-0.026000,1.006000,192.000000,0.000000,0.000000,0.000000,0.000000,0.000000,0.000000,0.000000,0.000000,0.000000,1769524666.522773,0.000000
136.000000,15515.530469,14442.758494,4274.480554,-2527.512911,6065.458782,-10263.786943,613.443627,-18070.938357,12256.154389,11238.434760,-8783.654426,839.822094,21756.204576,12367.220207,-173.449537,4407.518137,0.004000,-0.026000,1.006000,192.000000,0.000000,0.000000,0.000000,0.000000,0.000000,0.000000,0.000000,0.000000,0.000000,1769524666.522783,0.000000
138.000000,15532.607202,14461.556311,4265.606912,-2535.425429,6080.188582,-10271.565350,606.246365,-18082.494209,12363.733335,11208.304609,-8874.871895,773.012730,21720.799413,12311.430253,-245.913892,4363.664015,0.004000,-0.026000,1.006000,192.000000,0.000000,0.000000,0.000000,0.000000,0.000000,0.000000,0.000000,0.000000,0.000000,1769524666.522794,0.000000
140.000000,15521.028998,14448.748761,4315.786578,-2484.485803,6074.243018,-10237.210719,652.559179,-18020.535173,12271.666500,11241.742819,-8785.286103,837.497513,21749.700218,12368.293091,-167.258104,4410.312105,0.002000,-0.026000,1.008000,192.000000,0.000000,8.000000,127.500000,24.000000,15.500000,64.000000,0.000000,0.000000,0.000000,1769524666.522804,0.000000
142.000000,15526.907507,14450.380439,4246.004432,-2559.230037,6067.358681,-10274.113449,583.425234,-18109.517468,12308.524526,11220.843937,-8831.911842,801.265335,21727.750805,12339.884024,-215.090837,4380.852506,0.002000,-0.026000,1.008000,192.000000,0.000000,0.000000,0.000000,0.000000,0.000000,0.000000,0.000000,0.000000,0.000000,1769524666.522815,0.000000
144.000000,15541.190272,14471.413430,4321.106293,-2481.937704,6092.616152,-10232.896833,654.392022,-18014.746072,12354.882044,11230.857519,-8839.153807,794.649219,21737.742035,12338.073532,-224.836197,4380.897210,0.002000,-0.026000,1.008000,192.000000,0.000000,0.000000,0.000000,0.000000,0.000000,0.000000,0.000000,0.000000,0.000000,1769524666.522825,0.000000
146.000000,15512.580039,14438.824587,4275.508735,-2528.697554,6071.136125,-10259.361298,612.750722,-18073.464104,12255.461485,11249.521226,-8782.939170,835.776429,21749.677867,12367.264911,-171.482583,4413.553108,0.002000,-0.026000,1.008000,192.000000,0.000000,0.000000,0.000000,0.000000,0.000000,0.000000,0.000000,0.000000,0.000000,1769524666.522836,0.000000
148.000000,15535.736446,14460.908110,4268.959674,-2534.911339,6085.620056,-10264.613958,607.095731,-18082.650671,12363.107486,11211.277391,-8875.341281,767.983588,21712.864544,12315.967657,-238.515465,4367.173239,0.002000,-0.026000,1.008000,192.000000,0.000000,0.000000,0.000000,0.000000,0.000000,0.000000,0.000000,0.000000,0.000000,1769524666.522847,0.000000
150.000000,15517.206850,14443.630212,4313.953735,-2484.597562,6078.132221,-10238.171844,649.295825,-18025.072578,12270.459505,11244.402676,-8787.968312,834.323565,21756.606907,12372.361108,-165.402909,4411.809672,0.006000,-0.028000,1.006000,192.000000,0.000000,24.000000,127.500000,16.000000,15.500000,56.000000,0.000000,0.000000,0.000000,1769524666.522859,0.000000
152.000000,15519.956114,14444.479578,4240.483551,-2560.012348,6070.577332,-10274.471077,579.468975,-18116.088881,12301.707244,11223.436740,-8838.997345,798.381960,21725.850907,12339.727561,-214.800264,4389.569687,0.006000,-0.028000,1.006000,192.000000,0.000000,0.000000,0.000000,0.000000,0.000000,0.000000,0.000000,0.000000,0.000000,1769524666.522870,0.000000
154.000000,15527.287486,14457.085962,4311.673857,-2486.162184,6088.525783,-10235.646097,646.770078,-18030.146424,12346.768361,11226.945964,-8850.374383,788.413082,21725.940314,12337.268870,-220.298793,4389.480280,0.006000,-0.028000,1.006000,192.000000,0.000000,0.000000,0.000000,0.000000,0.000000,0.000000,0.000000,0.000000,0.000000,1769524666.522882,0.000000
156.000000,15497.805536,14424.944153,4266.836258,-2534.464304,6060.496695,-10264.256330,604.949964,-18087.255131,12243.011563,11230.701057,-8797.154879,823.639431,21737.697332,12364.158018,-172.846040,4423.253765,0.006000,-0.028000,1.006000,192.000000,0.000000,0.000000,0.000000,0.000000,0.000000,0.000000,0.000000,0.000000,0.000000,1769524666.522893,0.000000
158.000000,15522.191289,14451.721543,4259.661348,-2541.125124,6083.429585,-10269.285473,598.110330,-18096.106421,12352.289242,11201.755548,-8888.126479,756.003053,21700.727546,12310.536183,-245.422154,4374.459907,0.006000,-0.028000,1.006000,192.000000,0.000000,0.000000,0.000000,0.000000,0.000000,0.000000,0.000000,0.000000,0.000000,1769524666.522904,0.000000
160.000000,15508.869649,14440.188043,4311.517395,-2487.883268,6079.093346,-10236.875443,646.010118,-18031.711046,12271.197113,11240.893452,-8794.763243,827.774504,21750.795454,12369.991823,-170.074424,4416.816463,0.007000,-0.026000,1.004000,192.000000,0.000000,32.000000,127.500000,32.000000,15.500000,40.000000,0.000000,0.000000,0.000000,1769524666.522914,0.000000
162.000000,15514.658751,14441.707962,4242.674022,-2561.375804,6077.685187,-10273.889932,581.212411,-18117.720558,12306.959904,11220.285144,-8840.092580,795.655047,21729.181317,12340.152245,-204.205537,4390.329646,0.007000,-0.026000,1.004000,192.000000,0.000000,0.000000,0.000000,0.000000,0.000000,0.000000,0.000000,0.000000,0.000000,1769524666.522926,0.000000
164.000000,15531.713132,14462.249215,4318.155863,-2483.614085,6096.952390,-10234.237937,653.788525,-18022.256258,12355.440838,11230.969278,-8845.993441,789.843594,21737.116186,12338.721733,-216.119017,4381.791280,0.007000,-0.026000,1.004000,192.000000,0.000000,0.000000,0.000000,0.000000,0.000000,0.000000,0.000000,0.000000,0.000000,1769524666.522936,0.000000
166.000000,15510.300161,14437.572889,4277.989778,-2523.914280,6071.605512,-10247.939557,615.701153,-18072.435924,12256.981403,11241.273432,-8783.989702,837.028126,21754.148216,12372.964605,-170.253238,4415.050675,0.007000,-0.026000,1.004000,192.000000,0.000000,0.000000,0.000000,0.000000,0.000000,0.000000,0.000000,0.000000,0.000000,1769524666.522947,0.000000
168.000000,15531.467263,14462.293918,4268.043252,-2534.129028,6088.056396,-10256.410868,606.179310,-18083.745907,12367.935463,11219.033446,-8871.675595,773.862097,21720.061805,12321.376779,-247.634977,4371.621236,0.007000,-0.026000,1.004000,192.000000,0.000000,0.000000,0.000000,0.000000,0.000000,0.000000,0.000000,0.000000,0.000000,1769524666.522958,0.000000
170.000000,15514.390530,14445.217186,4315.786578,-2483.032940,6076.567599,-10230.751065,652.246255,-18024.469081,12276.561532,11252.695173,-8783.922647,838.346879,21759.266765,12379.804239,-176.064691,4414.380123,0.009500,-0.025000,1.006000,192.000000,0.000000,48.000000,127.500000,32.000000,15.500000,64.000000,0.000000,0.000000,0.000000,1769524666.522968,0.000000
172.000000,15509.763719,14437.595241,4237.108438,-2559.967644,6065.302320,-10270.581874,580.027769,-18119.665160,12299.874401,11221.760359,-8838.617365,799.253678,21724.107471,12339.861672,-215.202596,4388.697969,0.009500,-0.025000,1.006000,192.000000,0.000000,0.000000,0.000000,0.000000,0.000000,0.000000,0.000000,0.000000,0.000000,1769524666.522979,0.000000
174.000000,15515.172841,14451.050991,4307.605840,-2486.318646,6088.369320,-10235.690801,647.954720,-18031.934563,12343.259137,11229.717580,-8852.676612,789.933001,21728.399006,12330.384532,-227.652517,4384.942875,0.009500,-0.025000,1.006000,192.000000,0.000000,0.000000,0.000000,0.000000,0.000000,0.000000,0.000000,0.000000,0.000000,1769524666.522990,0.000000
176.000000,15496.017396,14425.391188,4267.372700,-2528.317574,6062.709518,-10255.449743,608.772112,-18082.248340,12239.748208,11235.104350,-8796.685493,831.037859,21735.104529,12363.576873,-170.834383,4418.694010,0.009500,-0.025000,1.006000,192.000000,0.000000,0.000000,0.000000,0.000000,0.000000,0.000000,0.000000,0.000000,0.000000,1769524666.523000,0.000000
178.000000,15522.548917,14449.687535,4257.828505,-2538.107638,6086.134146,-10264.770420,599.429083,-18092.261921,12352.177483,11209.019865,-8882.605598,767.290684,21701.308692,12314.090111,-249.914855,4372.135326,0.009500,-0.025000,1.006000,192.000000,0.000000,0.000000,0.000000,0.000000,0.000000,0.000000,0.000000,0.000000,0.000000,1769524667.002504,0.000000
180.000000,15506.701530,14431.359104,4306.622363,-2487.749158,6077.595780,-10235.422580,645.719546,-18031.778101,12266.391488,11243.195682,-8792.952751,830.814341,21746.414512,12370.260044,-172.264895,4418.872824,0.009750,-0.024500,1.006000,192.000000,0.000000,40.000000,127.500000,32.000000,15.500000,56.000000,0.000000,0.000000,0.000000,1769524667.002602,0.000000
182.000000,15503.862858,14424.877098,4230.179397,-2566.986092,6055.668718,-10284.261141,574.730405,-18126.795367,12291.738366,11209.936286,-8844.272357,789.374207,21711.188163,12331.770340,-217.281308,4394.107091,0.009750,-0.024500,1.006000,192.000000,0.000000,0.000000,0.000000,0.000000,0.000000,0.000000,0.000000,0.000000,0.000000,1769524667.002668,0.000000
184.000000,15518.257382,14445.865386,4308.522261,-2490.386664,6090.626847,-10234.081475,646.144229,-18033.767406,12336.866538,11214.741911,-8857.482238,776.946637,21716.329064,12327.702323,-225.305584,4384.227620,0.009750,-0.024500,1.006000,192.000000,0.000000,0.000000,0.000000,0.000000,0.000000,0.000000,0.000000,0.000000,0.000000,1769524667.002739,0.000000
186.000000,15489.848315,14415.623476,4265.092822,-2534.620766,6063.670643,-10258.511932,604.413522,-18089.937340,12240.217595,11230.611650,-8796.238458,824.399391,21737.049131,12365.052088,-173.203668,4409.887422,0.009750,-0.024500,1.006000,192.000000,0.000000,0.000000,0.000000,0.000000,0.000000,0.000000,0.000000,0.000000,0.000000,1769524667.002794,0.000000
188.000000,15519.419672,14445.999497,4259.571941,-2539.359336,6087.385844,-10262.222321,598.535013,-18094.005358,12350.232881,11204.303647,-8887.210058,757.142992,21699.699366,12311.743177,-239.141314,4369.117840,0.009750,-0.024500,1.006000,192.000000,0.000000,0.000000,0.000000,0.000000,0.000000,0.000000,0.000000,0.000000,0.000000,1769524667.002828,0.000000
190.000000,15506.589771,14434.957735,4309.125758,-2483.904658,6079.518030,-10226.750103,646.434801,-18029.386464,12270.593616,11239.954679,-8792.148088,830.613176,21749.946088,12375.535056,-170.253238,4418.738713,0.006875,-0.024250,1.006000,192.000000,0.000000,16.000000,127.500000,32.000000,15.500000,56.000000,0.000000,0.000000,0.000000,1769524667.002861,0.000000
192.000000,15514.636399,14436.365895,4240.461199,-2559.140630,6079.719195,-10266.670318,578.709016,-18117.273523,12301.796651,11216.775920,-8837.924461,795.856213,21725.046244,12343.527358,-209.994639,4394.174146,0.006875,-0.024250,1.006000,192.000000,0.000000,0.000000,0.000000,0.000000,0.000000,0.000000,0.000000,0.000000,0.000000,1769524667.002894,0.000000
194.000000,15529.477957,14453.979069,4314.870157,-2485.893963,6099.589896,-10222.167995,647.083002,-18028.023008,12354.993803,11225.515452,-8847.826284,786.312018,21732.221154,12342.409771,-218.085971,4388.317989,0.006875,-0.024250,1.006000,192.000000,0.000000,0.000000,0.000000,0.000000,0.000000,0.000000,0.000000,0.000000,0.000000,1769524667.002927,0.000000
196.000000,15509.763719,14428.408674,4275.486383,-2528.965775,6077.774594,-10246.956080,608.593298,-18079.163799,12254.098028,11234.389095,-8789.197658,828.735629,21752.293021,12372.919902,-160.239656,4417.598774,0.006875,-0.024250,1.006000,192.000000,0.000000,0.000000,0.000000,0.000000,0.000000,0.000000,0.000000,0.000000,0.000000,1769524667.002960,0.000000
198.000000,15532.271925,14452.056819,4264.489325,-2537.928824,6097.242963,-10256.567330,601.150167,-18090.809058,12369.053050,11209.824527,-8877.263531,763.915570,21724.152174,12323.164919,-243.030517,4371.554181,0.006875,-0.024250,1.006000,192.000000,0.000000,0.000000,0.000000,0.000000,0.000000,0.000000,0.000000,0.000000,0.000000,1769524667.002994,0.000000
200.000000,15510.993065,14431.962601,4312.500872,-2487.927972,6086.268256,-10222.972658,648.468810,-18031.219307,12280.070755,11244.492083,-8788.527106,830.367307,21756.673963,12380.631254,-165.984054,4415.654172,0.005437,-0.026125,1.006000,192.000000,0.000000,16.000000,127.500000,16.000000,15.500000,56.000000,0.000000,0.000000,0.000000,1769524667.003027,0.000000
202.000000,15504.846335,14422.731331,4234.582691,-2570.115336,6064.564713,-10275.432202,574.909219,-18126.795367,12294.778203,11208.684589,-8843.735915,788.547193,21715.166773,12336.307745,-202.260936,4393.190669,0.005437,-0.026125,1.006000,192.000000,0.000000,0.000000,0.000000,0.000000,0.000000,0.000000,0.000000,0.000000,0.000000,1769524667.003060,0.000000
204.000000,15525.521699,14447.787636,4309.282221,-2492.599486,6087.184678,-10228.202966,646.770078,-18030.615810,12345.181387,11218.608763,-8854.308290,780.120585,21718.519535,12337.224166,-214.599099,4379.980788,0.005437,-0.026125,1.006000,192.000000,0.000000,0.000000,0.000000,0.000000,0.000000,0.000000,0.000000,0.000000,0.000000,1769524667.003093,0.000000
206.000000,15504.309893,14420.607915,4271.194848,-2530.351583,6060.921378,-10255.785019,609.934403,-18080.191979,12244.509130,11233.718542,-8791.499888,828.690926,21734.903364,12369.120105,-175.237677,4413.195480,0.005437,-0.026125,1.006000,192.000000,0.000000,0.000000,0.000000,0.000000,0.000000,0.000000,0.000000,0.000000,0.000000,1769524667.003126,0.000000
208.000000,15528.583888,14446.178311,4264.958711,-2541.438048,6082.222591,-10263.183446,600.926650,-18089.222084,12355.463190,11208.997513,-8879.901037,765.010806,21699.095869,12321.600297,-241.018860,4363.954587,0.005437,-0.026125,1.006000,192.000000,0.000000,0.000000,0.000000,0.000000,0.000000,0.000000,0.000000,0.000000,0.000000,1769524667.003159,0.000000
210.000000,15507.059158,14427.201680,4311.472691,-2490.029036,6071.583160,-10240.563481,645.652490,-18030.526403,12270.750078,11244.179159,-8789.555286,831.239025,21741.318314,12373.076364,-173.293075,4408.658076,0.005437,-0.026125,1.006000,192.000000,0.000000,0.000000,127.500000,8.000000,15.500000,56.000000,0.000000,0.000000,0.000000,1769524667.003214,0.000000
212.000000,15504.242838,14422.083130,4237.399010,-2567.477830,6060.451992,-10288.686787,575.266847,-18125.074282,12296.320474,11211.769129,-8843.154769,790.089463,21706.091965,12335.100750,-210.106398,4387.647437,0.005437,-0.026125,1.006000,192.000000,0.000000,0.000000,0.000000,0.000000,0.000000,0.000000,0.000000,0.000000,0.000000,1769524667.003238,0.000000
214.000000,15519.419672,14445.507758,4310.377456,-2491.705417,6083.094309,-10244.586795,644.981938,-18032.135729,12347.349506,11220.821586,-8854.688269,781.685207,21713.423337,12332.262079,-217.884805,4377.142117,0.005437,-0.026125,1.006000,192.000000,0.000000,0.000000,0.000000,0.000000,0.000000,0.000000,0.000000,0.000000,0.000000,1769524667.003255,0.000000
216.000000,15501.001835,14421.792557,4269.294950,-2531.290356,6059.222646,-10252.633423,607.699228,-18079.812000,12245.157331,11231.751589,-8793.377434,827.595690,21727.951971,12367.108448,-174.455365,4410.893251,0.005437,-0.026125,1.006000,192.000000,0.000000,0.000000,0.000000,0.000000,0.000000,0.000000,0.000000,0.000000,0.000000,1769524667.003271,0.000000
218.000000,15527.220431,14449.262851,4264.422269,-2538.800542,6080.032120,-10262.267025,601.776016,-18087.813924,12359.039469,11207.455243,-8876.861200,764.496716,21689.797543,12319.320419,-241.845875,4364.915712,0.005437,-0.026125,1.006000,192.000000,0.000000,0.000000,0.000000,0.000000,0.000000,0.000000,0.000000,0.000000,0.000000,1769524667.003286,0.000000
220.000000,15516.066911,14437.639944,4316.054799,-2484.172879,6070.979663,-10228.337077,650.033432,-18023.709121,12278.997872,11245.900243,-8784.190867,832.177798,21748.202652,12382.888780,-174.008331,4408.211041,0.005437,-0.026125,1.006000,192.000000,0.000000,0.000000,127.500000,32.000000,15.500000,56.000000,0.000000,0.000000,0.000000,1769524667.003301,0.000000
222.000000,15513.563515,14431.806139,4240.260034,-2562.515743,6059.513218,-10270.715984,577.054987,-18118.324055,12299.807346,11218.742874,-8835.309307,798.270201,21718.363073,12347.885948,-216.878976,4385.836945,0.005437,-0.026125,1.006000,192.000000,0.000000,0.000000,0.000000,0.000000,0.000000,0.000000,0.000000,0.000000,0.000000,1769524667.003316,0.000000
224.000000,15528.919164,14449.709886,4312.523223,-2489.291428,6078.489849,-10236.115484,645.876008,-18029.654685,12349.629384,11227.191833,-8849.972051,787.004922,21713.736262,12340.085189,-223.740962,4377.767966,0.005437,-0.026125,1.006000,192.000000,0.000000,0.000000,0.000000,0.000000,0.000000,0.000000,0.000000,0.000000,0.000000,1769524667.003331,0.000000
226.000000,15503.885210,14420.518508,4273.273560,-2532.743219,6059.490867,-10258.869560,607.140435,-18082.002471,12248.152464,11232.980935,-8789.577638,831.149618,21732.578782,12374.126896,-163.838287,4407.093454,0.005437,-0.026125,1.006000,192.000000,0.000000,0.000000,0.000000,0.000000,0.000000,0.000000,0.000000,0.000000,0.000000,1769524667.003345,0.000000
228.000000,15524.828795,14442.423218,4263.349386,-2546.266025,6075.986454,-10270.984205,596.791577,-18097.067546,12356.692535,11204.415405,-8881.577418,762.663873,21695.072555,12317.197003,-239.565997,4361.451192,0.005437,-0.026125,1.006000,192.000000,0.000000,0.000000,0.000000,0.000000,0.000000,0.000000,0.000000,0.000000,0.000000,1769524667.003361,0.000000
230.000000,15507.863821,14427.000514,4311.204471,-2488.620876,6066.665777,-10233.813254,645.361918,-18035.644953,12271.197113,11237.943022,-8794.204449,826.366344,21740.111320,12373.121068,-170.230886,4409.172166,0.005437,-0.026125,1.006000,192.000000,0.000000,0.000000,0.000000,0.000000,0.000000,0.000000,0.000000,0.000000,0.000000,1769524667.003375,0.000000
232.000000,15505.136908,14419.110348,4235.208539,-2566.829630,6052.494771,-10282.070670,575.132737,-18130.349294,12294.331168,11209.511603,-8844.875854,789.843594,21712.529267,12339.593451,-208.407665,4391.313123,0.004000,-0.024000,1.004000,192.000000,0.000000,16.000000,127.500000,32.000000,15.500000,48.000000,0.000000,0.000000,0.000000,1769524667.003390,0.000000
234.000000,15521.096053,14441.171520,4308.052875,-2490.006684,6075.941751,-10239.915280,646.837133,-18036.986057,12345.226091,11211.612667,-8859.046860,775.694940,21714.451517,12332.127968,-220.209386,4382.014797,0.004000,-0.024000,1.004000,192.000000,0.000000,0.000000,0.000000,0.000000,0.000000,0.000000,0.000000,0.000000,0.000000,1769524667.003405,0.000000
236.000000,15496.240913,14414.170613,4270.166668,-2530.306879,6051.421887,-10258.489580,608.459188,-18085.064660,12245.224386,11223.481443,-8794.986760,824.399391,21731.014160,12367.913111,-169.605037,4409.932126,0.004000,-0.024000,1.004000,192.000000,0.000000,0.000000,0.000000,0.000000,0.000000,0.000000,0.000000,0.000000,0.000000,1769524667.003420,0.000000
238.000000,15527.019266,14446.267718,4263.617607,-2535.760705,6075.405309,-10259.942443,602.535975,-18091.636073,12357.541902,11199.140394,-8883.074985,761.948617,21697.575950,12312.436081,-246.763259,4365.608617,0.004000,-0.024000,1.004000,192.000000,0.000000,0.000000,0.000000,0.000000,0.000000,0.000000,0.000000,0.000000,0.000000,1769524667.003435,0.000000
