Sample_index,EXG Channel 0,EXG Channel 1,EXG Channel 2,EXG Channel 3,EXG Channel 4,EXG Channel 5,EXG Channel 6,EXG Channel 7,EXG Channel 8,EXG Channel 9,EXG Channel 10,EXG Channel 11,EXG Channel 12,EXG Channel 13,EXG Channel 14,EXG Channel 15,Accel Channel 0,Accel Channel 1,Accel Channel 2,Not Used,Digital Channel 0 (D11),Digital Channel 1 (D12),Digital Channel 2 (D13),Digital Channel 3 (D17),Not Used,Digital Channel 4 (D18),Analog Channel 0,Analog Channel 1,Analog Channel 2,Timestamp,Marker Channel
210.000000,15309.961475,16567.291804,-413.283755,-5160.235484,9194.948875,-5379.819021,136.658566,-14810.534097,14945.382171,12499.497831,-7764.727803,-1600.139034,21582.553873,11837.908547,-722.497788,4447.237187,0.008000,-0.016000,1.006000,192.000000,0.000000,0.000000,0.000000,0.000000,0.000000,0.000000,0.000000,0.000000,0.000000,1769521302.962628,101.000000
212.000000,15297.600960,16546.459978,-357.180876,-5086.787651,9196.826422,-5328.410009,202.126825,-14728.704361,14809.729434,12521.469596,-7650.488037,-1520.700934,21639.506118,11904.874373,-644.087868,4502.066016,0.008000,-0.016000,1.006000,192.000000,0.000000,0.000000,0.000000,0.000000,0.000000,0.000000,0.000000,0.000000,0.000000,1769521302.962692,0.000000
214.000000,15277.394983,16531.372551,-448.130125,-5190.812670,9159.275491,-5420.521548,103.086245,-14856.712801,14852.644784,12485.952674,-7714.592840,-1570.232400,21595.629644,11862.339003,-694.468700,4476.585028,0.008000,-0.016000,1.006000,192.000000,0.000000,0.000000,0.000000,0.000000,0.000000,0.000000,0.000000,0.000000,0.000000,1769521302.962746,0.000000
216.000000,15302.786565,16561.905034,-360.041900,-5089.447509,9205.968285,-5341.977518,198.774063,-14735.409884,14918.269505,12512.998284,-7736.229329,-1584.693978,21594.400298,11856.751067,-700.503671,4464.470382,0.008000,-0.018000,1.008000,192.000000,0.000000,32.000000,127.500000,56.000000,15.500000,64.000000,0.000000,0.000000,0.000000,1769521302.962798,0.000000
218.000000,15265.101524,16521.046045,-408.142854,-5144.812780,9160.013099,-5387.306856,146.560388,-14799.112356,14762.388439,12488.880752,-7654.623110,-1530.334536,21616.528525,11883.260236,-641.405659,4500.054359,0.008000,-0.018000,1.008000,192.000000,0.000000,0.000000,0.000000,0.000000,0.000000,0.000000,0.000000,0.000000,0.000000,1769521302.962865,0.000000
220.000000,15304.686463,16561.703868,-416.837682,-5161.956568,9179.727337,-5398.482728,132.814066,-14813.730396,14936.776750,12494.178116,-7767.924102,-1606.039894,21571.825036,11829.325477,-732.109038,4449.919397,0.008000,-0.018000,1.008000,192.000000,0.000000,0.000000,0.000000,0.000000,0.000000,0.000000,0.000000,0.000000,0.000000,1769521302.962889,0.000000
222.000000,15300.104356,16552.293784,-352.755231,-5086.631189,9204.694236,-5343.251567,203.467930,-14719.942477,14804.566181,12519.100311,-7649.325746,-1523.494902,21635.303990,11893.542039,-646.680671,4498.646200,0.008000,-0.018000,1.008000,192.000000,0.000000,0.000000,0.000000,0.000000,0.000000,0.000000,0.000000,0.000000,0.000000,1769521302.962911,0.000000
224.000000,15284.011100,16540.447359,-439.144723,-5192.332589,9165.958663,-5404.607106,107.064856,-14845.246356,14855.483455,12493.887543,-7703.685189,-1558.765955,21603.475106,11859.746201,-694.826328,4474.215743,0.008000,-0.018000,1.008000,192.000000,0.000000,0.000000,0.000000,0.000000,0.000000,0.000000,0.000000,0.000000,0.000000,1769521302.962935,0.000000
226.000000,15321.897307,16575.383136,-350.408298,-5093.202602,9220.966306,-5338.401239,201.724494,-14722.490576,14924.639752,12522.095444,-7725.299326,-1573.652217,21608.459545,11862.607224,-698.357904,4468.650158,0.006000,-0.020000,1.000000,192.000000,0.000000,24.000000,127.500000,48.000000,15.500000,32.000000,0.000000,0.000000,0.000000,1769521302.962958,0.000000
228.000000,15279.831324,16531.908993,-401.482034,-5150.467771,9177.380404,-5379.528449,146.850961,-14791.669225,14776.827666,12504.817546,-7641.547339,-1515.582385,21637.427406,11891.508030,-643.260854,4500.434339,0.006000,-0.020000,1.000000,192.000000,0.000000,0.000000,0.000000,0.000000,0.000000,0.000000,0.000000,0.000000,0.000000,1769521302.962982,0.000000
230.000000,15306.094623,16564.609595,-415.071895,-5168.818554,9187.505744,-5383.887039,129.818932,-14814.847984,14939.302497,12499.296665,-7765.264245,-1600.854290,21581.123362,11837.617974,-718.161549,4453.205103,0.006000,-0.020000,1.000000,192.000000,0.000000,0.000000,0.000000,0.000000,0.000000,0.000000,0.000000,0.000000,0.000000,1769521302.963005,0.000000
232.000000,15298.047995,16551.444417,-353.671653,-5094.968390,9207.354093,-5330.466369,196.963572,-14728.145567,14807.203687,12521.156671,-7645.972985,-1522.936108,21642.367142,11901.611018,-643.439668,4506.044627,0.006000,-0.020000,1.000000,192.000000,0.000000,0.000000,0.000000,0.000000,0.000000,0.000000,0.000000,0.000000,0.000000,1769521302.963028,0.000000
234.000000,15279.563103,16537.072246,-446.632558,-5199.082816,9165.399869,-5405.747045,98.124158,-14856.243414,14846.028667,12485.215066,-7708.423759,-1568.511315,21598.758888,11853.621823,-684.544526,4475.713310,0.006000,-0.020000,1.000000,192.000000,0.000000,0.000000,0.000000,0.000000,0.000000,0.000000,0.000000,0.000000,0.000000,1769521302.963052,0.000000
236.000000,15308.977998,16564.922519,-362.478240,-5103.752625,9213.322009,-5347.230178,192.381465,-14738.784997,14912.301590,12510.651351,-7731.200186,-1587.264429,21596.501362,11852.168960,-696.905040,4470.572409,0.007000,-0.020000,1.003000,192.000000,0.000000,32.000000,127.500000,48.000000,15.500000,56.000000,0.000000,0.000000,0.000000,1769521302.963075,0.000000
238.000000,15269.415411,16521.984818,-408.276964,-5155.295748,9173.245331,-5384.870515,141.374784,-14805.124975,14756.822855,12482.175229,-7654.109020,-1536.548321,21622.183516,11875.951216,-635.862426,4503.764749,0.007000,-0.020000,1.003000,192.000000,0.000000,0.000000,0.000000,0.000000,0.000000,0.000000,0.000000,0.000000,0.000000,1769521302.963098,0.000000
240.000000,15298.919713,16558.798141,-417.575290,-5168.148001,9189.137422,-5392.045425,128.366068,-14822.961667,14935.748569,12493.485212,-7765.778335,-1606.710447,21582.732687,11831.985334,-729.337422,4449.852341,0.007000,-0.020000,1.003000,192.000000,0.000000,0.000000,0.000000,0.000000,0.000000,0.000000,0.000000,0.000000,0.000000,1769521302.963122,0.000000
242.000000,15276.322100,16532.825414,-363.796993,-5095.549535,9191.305541,-5340.055268,191.152119,-14747.144550,14789.299940,12507.387997,-7662.245055,-1537.867074,21628.844336,11889.764594,-639.684575,4500.434339,0.007000,-0.020000,1.003000,192.000000,0.000000,0.000000,0.000000,0.000000,0.000000,0.000000,0.000000,0.000000,0.000000,1769521302.963145,0.000000
244.000000,15262.352259,16522.767129,-452.511066,-5194.746577,9155.810971,-5408.719827,94.793748,-14871.643766,14831.812958,12476.475534,-7726.394561,-1580.022464,21585.638414,11851.632518,-690.959476,4481.122432,0.007000,-0.020000,1.003000,192.000000,0.000000,0.000000,0.000000,0.000000,0.000000,0.000000,0.000000,0.000000,0.000000,1769521302.963168,0.000000
246.000000,15299.322045,16561.189778,-360.578342,-5093.694340,9214.283134,-5343.720954,190.034531,-14746.161073,14904.500831,12510.629000,-7743.381887,-1591.868888,21589.773487,11855.409963,-701.956535,4474.752185,0.004500,-0.018000,1.003500,192.000000,0.000000,8.000000,127.500000,64.000000,15.500000,48.000000,0.000000,0.000000,0.000000,1769521302.963190,0.000000
248.000000,15261.122913,16519.660237,-410.512139,-5147.405582,9167.925616,-5384.781108,138.111429,-14811.383463,14755.571157,12484.678624,-7660.009880,-1536.190693,21613.198115,11880.153344,-635.325984,4500.970781,0.004500,-0.018000,1.003500,192.000000,0.000000,0.000000,0.000000,0.000000,0.000000,0.000000,0.000000,0.000000,0.000000,1769521302.963213,0.000000
250.000000,15295.924580,16558.753438,-416.636517,-5162.202437,9188.109241,-5393.677103,126.622632,-14823.162833,14931.054703,12485.036252,-7773.444983,-1612.790121,21564.158388,11823.446968,-722.475436,4453.674490,0.004500,-0.018000,1.003500,192.000000,0.000000,0.000000,0.000000,0.000000,0.000000,0.000000,0.000000,0.000000,0.000000,1769521302.963236,0.000000
252.000000,15292.482411,16547.890490,-352.688176,-5089.626323,9205.476547,-5347.297233,196.740055,-14729.576079,14802.643931,12512.037159,-7650.510389,-1527.697030,21635.259287,11888.647007,-642.009156,4500.322580,0.004500,-0.018000,1.003500,192.000000,0.000000,0.000000,0.000000,0.000000,0.000000,0.000000,0.000000,0.000000,0.000000,1769521302.963258,0.000000
254.000000,15282.334719,16542.347257,-442.564540,-5193.249010,9160.326023,-5410.083283,100.359333,-14850.610775,14853.784723,12486.578523,-7705.473328,-1564.823278,21598.758888,11853.778285,-693.507575,4475.489792,0.004500,-0.018000,1.003500,192.000000,0.000000,0.000000,0.000000,0.000000,0.000000,0.000000,0.000000,0.000000,0.000000,1769521302.963270,0.000000
0.000000,15314.185955,16574.958453,-357.404394,-5095.862460,9216.451253,-5340.681117,194.728398,-14730.850128,14922.046950,12521.760168,-7724.137035,-1576.624999,21605.799688,11859.209759,-703.767026,4471.332368,0.004250,-0.014000,1.004750,192.000000,0.000000,16.000000,127.500000,88.000000,15.500000,56.000000,0.000000,0.000000,0.000000,1769521302.963282,0.000000
2.000000,15273.438725,16531.908993,-408.813406,-5145.595091,9174.988768,-5371.258303,142.939406,-14798.218286,14763.908358,12496.346235,-7649.526912,-1525.283042,21623.323455,11885.294245,-634.186045,4501.909554,0.004250,-0.014000,1.004750,192.000000,0.000000,0.000000,0.000000,0.000000,0.000000,0.000000,0.000000,0.000000,0.000000,1769521302.963293,0.000000
4.000000,15304.462946,16568.431743,-419.005802,-5162.113030,9189.383291,-5392.268943,128.701345,-14815.138556,14932.619325,12501.375377,-7767.186495,-1601.681304,21571.243891,11835.785131,-724.174169,4457.161362,0.004250,-0.014000,1.004750,192.000000,0.000000,0.000000,0.000000,0.000000,0.000000,0.000000,0.000000,0.000000,0.000000,1769521302.963304,0.000000
6.000000,15299.120879,16556.227691,-355.593903,-5088.866364,9201.050902,-5344.950300,196.203613,-14727.072683,14799.224114,12527.191642,-7649.504560,-1522.064390,21631.794766,11899.487603,-641.606825,4501.261354,0.004250,-0.014000,1.004750,192.000000,0.000000,0.000000,0.000000,0.000000,0.000000,0.000000,0.000000,0.000000,0.000000,1769521302.963314,0.000000
8.000000,15281.172428,16543.442493,-441.983395,-5191.907906,9163.857599,-5409.904469,97.118330,-14852.890653,14848.599118,12492.546438,-7707.999075,-1563.549228,21594.869685,11861.802561,-691.428863,4476.070938,0.004250,-0.014000,1.004750,192.000000,0.000000,0.000000,0.000000,0.000000,0.000000,0.000000,0.000000,0.000000,0.000000,1769521302.963325,0.000000
10.000000,15315.370597,16576.768944,-354.968054,-5091.861497,9211.690332,-5339.831750,191.666209,-14733.644096,14920.147052,12522.006037,-7726.372209,-1576.848516,21600.167048,11865.937634,-694.535755,4471.757051,0.004125,-0.014000,1.004375,192.000000,0.000000,16.000000,127.500000,72.000000,15.500000,48.000000,0.000000,0.000000,0.000000,1769521302.963335,0.000000
12.000000,15270.957681,16528.064493,-409.126331,-5146.243292,9166.092773,-5381.249533,138.089077,-14804.521478,14763.707192,12490.870057,-7653.170246,-1531.005088,21618.875458,11882.746146,-644.423144,4504.591764,0.004125,-0.014000,1.004375,192.000000,0.000000,0.000000,0.000000,0.000000,0.000000,0.000000,0.000000,0.000000,0.000000,1769521302.963346,0.000000
14.000000,15310.162641,16568.118819,-414.088418,-5155.943949,9185.896419,-5387.910353,128.321365,-14817.999580,14937.469654,12496.793270,-7766.672405,-1606.799854,21571.936795,11837.550919,-729.136256,4457.876618,0.004125,-0.014000,1.004375,192.000000,0.000000,0.000000,0.000000,0.000000,0.000000,0.000000,0.000000,0.000000,0.000000,1769521302.963356,0.000000
16.000000,15296.997463,16549.321002,-354.878647,-5085.759471,9198.882782,-5330.354611,192.828499,-14734.627573,14804.387367,12519.435587,-7647.895235,-1528.881672,21643.864708,11898.213553,-645.540732,4502.445996,0.004125,-0.014000,1.004375,192.000000,0.000000,0.000000,0.000000,0.000000,0.000000,0.000000,0.000000,0.000000,0.000000,1769521302.963366,0.000000
18.000000,15276.925597,16533.764188,-447.213703,-5190.812670,9153.374631,-5413.301934,93.854975,-14861.764295,14846.319240,12485.259770,-7711.150671,-1572.892257,21599.094164,11858.002765,-692.725264,4472.047624,0.004125,-0.014000,1.004375,192.000000,0.000000,0.000000,0.000000,0.000000,0.000000,0.000000,0.000000,0.000000,0.000000,1769521302.963376,0.000000
20.000000,15312.353112,16568.007060,-358.164353,-5093.716692,9209.365750,-5337.529521,190.682732,-14739.410846,14912.122776,12510.852517,-7733.591823,-1589.141976,21599.451792,11858.807428,-706.918622,4472.382900,0.005063,-0.016000,1.006188,192.000000,0.000000,24.000000,127.500000,56.000000,15.500000,64.000000,0.000000,0.000000,0.000000,1769521302.963386,0.000000
22.000000,15274.444553,16528.198603,-406.824101,-5153.619367,9166.092773,-5381.875382,138.536112,-14806.622542,14763.997765,12486.913799,-7651.270348,-1535.162513,21623.636380,11886.478887,-645.361918,4503.675342,0.005063,-0.016000,1.006188,192.000000,0.000000,0.000000,0.000000,0.000000,0.000000,0.000000,0.000000,0.000000,0.000000,1769521302.963396,0.000000
24.000000,15308.866240,16564.654298,-416.055371,-5166.270455,9180.979035,-5398.370969,127.248481,-14821.419397,14933.535747,12489.506601,-7767.857047,-1611.024333,21573.412010,11829.057256,-721.693125,4454.412097,0.005063,-0.016000,1.006188,192.000000,0.000000,0.000000,0.000000,0.000000,0.000000,0.000000,0.000000,0.000000,0.000000,1769521302.963406,0.000000
26.000000,15298.897362,16548.426932,-352.464658,-5096.085977,9198.681617,-5344.793838,194.527232,-14734.091131,14801.146364,12513.624133,-7648.856360,-1529.015783,21636.466281,11894.011425,-642.076211,4500.322580,0.005063,-0.016000,1.006188,192.000000,0.000000,0.000000,0.000000,0.000000,0.000000,0.000000,0.000000,0.000000,0.000000,1769521302.963416,0.000000
28.000000,15282.871161,16536.535804,-440.664642,-5200.960362,9160.795410,-5423.404923,98.302972,-14858.322127,14849.090856,12478.956578,-7709.586049,-1570.120641,21595.853161,11850.358468,-684.633933,4470.505353,0.005063,-0.016000,1.006188,192.000000,0.000000,0.000000,0.000000,0.000000,0.000000,0.000000,0.000000,0.000000,0.000000,1769521302.963426,0.000000
30.000000,15320.265629,16572.678575,-354.498667,-5096.935343,9210.595096,-5341.575186,196.605944,-14732.660619,14917.464842,12513.132395,-7728.629736,-1582.659970,21600.412917,11856.728716,-703.923488,4470.706519,0.006531,-0.014000,1.006094,192.000000,0.000000,32.000000,127.500000,80.000000,15.500000,56.000000,0.000000,0.000000,0.000000,1769521302.963436,0.000000
32.000000,15277.529094,16527.192775,-403.180766,-5153.909940,9166.182180,-5394.280600,142.805295,-14801.369882,14767.551692,12485.505639,-7648.454028,-1529.909853,21622.742310,11880.734489,-640.958624,4500.166118,0.006531,-0.014000,1.006094,192.000000,0.000000,0.000000,0.000000,0.000000,0.000000,0.000000,0.000000,0.000000,0.000000,1769521302.963446,0.000000
34.000000,15314.118900,16568.811723,-411.272098,-5164.750536,9183.616541,-5388.469146,131.428257,-14813.886859,14943.839901,12491.540610,-7760.212750,-1603.804720,21579.983423,11833.795826,-725.023535,4451.439315,0.006531,-0.014000,1.006094,192.000000,0.000000,0.000000,0.000000,0.000000,0.000000,0.000000,0.000000,0.000000,0.000000,1769521302.963457,0.000000
36.000000,15295.455193,16546.683496,-354.431612,-5093.806099,9197.295808,-5332.723896,196.740055,-14732.258288,14807.427205,12515.568735,-7645.458894,-1528.434638,21639.349656,11898.861754,-639.237540,4498.601496,0.006531,-0.014000,1.006094,192.000000,0.000000,0.000000,0.000000,0.000000,0.000000,0.000000,0.000000,0.000000,0.000000,1769521302.963467,0.000000
38.000000,15278.512571,16533.004228,-444.933825,-5192.869031,9158.850808,-5413.436045,100.359333,-14857.852740,14850.811941,12483.270464,-7708.803738,-1569.204219,21594.579112,11856.885178,-688.903116,4476.763842,0.006531,-0.014000,1.006094,192.000000,0.000000,0.000000,0.000000,0.000000,0.000000,0.000000,0.000000,0.000000,0.000000,1769521302.963477,0.000000
40.000000,15308.150984,16560.608633,-360.801859,-5087.458204,9205.767120,-5339.272957,197.008276,-14740.908413,14915.810813,12511.411311,-7732.317773,-1585.923324,21597.998929,11859.857960,-702.336514,4469.723042,0.006531,-0.014000,1.006094,192.000000,0.000000,0.000000,0.000000,0.000000,0.000000,0.000000,0.000000,0.000000,0.000000,1769521302.963487,0.000000
42.000000,15268.119010,16522.074225,-409.774531,-5138.822512,9162.784715,-5382.858858,145.331042,-14806.399024,14762.097867,12485.907970,-7652.097363,-1533.620242,21619.255438,11891.373919,-650.234598,4498.087406,0.004000,-0.014000,1.010000,192.000000,0.000000,16.000000,127.500000,72.000000,15.500000,72.000000,0.000000,0.000000,0.000000,1769521302.963498,0.000000
44.000000,15295.432841,16555.400676,-422.537377,-5160.503705,9166.070421,-5404.987085,130.444781,-14822.671094,14931.948773,12487.450241,-7767.030033,-1610.376133,21566.482969,11833.639363,-739.596872,4455.976719,0.004000,-0.014000,1.010000,192.000000,0.000000,0.000000,0.000000,0.000000,0.000000,0.000000,0.000000,0.000000,0.000000,1769521302.963508,0.000000
46.000000,15287.542675,16539.419179,-360.712452,-5094.789576,9179.235599,-5355.209751,196.270668,-14735.409884,14791.266893,12500.391901,-7653.103191,-1535.073106,21616.729691,11883.729623,-641.673880,4497.997999,0.004000,-0.014000,1.010000,192.000000,0.000000,0.000000,0.000000,0.000000,0.000000,0.000000,0.000000,0.000000,0.000000,1769521302.963518,0.000000
48.000000,15279.049013,16535.462920,-445.626729,-5197.451138,9141.550558,-5419.225147,100.582850,-14854.879958,14842.206519,12475.447354,-7709.094311,-1572.400519,21585.817228,11849.397343,-693.596982,4472.315845,0.004000,-0.014000,1.010000,192.000000,0.000000,0.000000,0.000000,0.000000,0.000000,0.000000,0.000000,0.000000,0.000000,1769521302.963528,0.000000
50.000000,15325.831214,16577.663014,-350.363594,-5094.186079,9212.226774,-5349.979442,201.277459,-14723.429349,14920.459976,12510.561944,-7721.901860,-1581.654141,21595.540237,11856.840474,-708.617354,4463.419850,0.004000,-0.014000,1.010000,192.000000,0.000000,0.000000,0.000000,0.000000,0.000000,0.000000,0.000000,0.000000,0.000000,1769521302.963539,0.000000
52.000000,15283.027623,16536.580507,-400.006819,-5150.467771,9169.758459,-5394.705283,148.773211,-14791.870390,14774.771306,12490.914761,-7637.836950,-1524.791303,21627.279714,11885.428355,-656.224865,4495.427548,0.008000,-0.016000,1.008000,192.000000,0.000000,32.000000,127.500000,64.000000,15.500000,64.000000,0.000000,0.000000,0.000000,1769521302.963549,0.000000
54.000000,15319.192746,16578.668842,-404.991258,-5163.789411,9191.976093,-5386.368082,138.737278,-14803.269780,14947.729104,12497.352063,-7750.556797,-1593.791138,21579.603443,11839.026134,-720.419076,4442.565673,0.008000,-0.016000,1.008000,192.000000,0.000000,0.000000,0.000000,0.000000,0.000000,0.000000,0.000000,0.000000,0.000000,1769521302.963559,0.000000
56.000000,15296.997463,16552.807874,-354.722185,-5094.499003,9189.182125,-5343.653899,199.109340,-14725.865689,14807.516612,12518.563869,-7637.568729,-1517.415228,21630.699531,11897.252428,-645.764249,4503.854156,0.008000,-0.016000,1.008000,192.000000,0.000000,0.000000,0.000000,0.000000,0.000000,0.000000,0.000000,0.000000,0.000000,1769521302.963569,0.000000
58.000000,15285.843943,16546.281164,-440.686994,-5193.561935,9153.821666,-5413.816025,104.002667,-14848.733228,14846.721571,12486.645578,-7704.400445,-1562.990435,21583.224426,11860.729678,-689.573668,4478.149650,0.008000,-0.016000,1.008000,192.000000,0.000000,0.000000,0.000000,0.000000,0.000000,0.000000,0.000000,0.000000,0.000000,1769521302.963579,0.000000
60.000000,15330.413321,16588.704775,-346.563798,-5085.379491,9216.183033,-5332.768599,204.339648,-14720.076587,14925.533822,12524.531785,-7715.978648,-1570.925304,21591.516923,11868.195160,-710.204328,4471.421775,0.008000,-0.016000,1.008000,192.000000,0.000000,0.000000,0.000000,0.000000,0.000000,0.000000,0.000000,0.000000,0.000000,1769521302.963590,0.000000
62.000000,15276.947949,16529.450301,-403.359580,-5151.674766,9168.171485,-5381.696568,142.604130,-14803.381539,14774.391326,12497.329712,-7636.294679,-1522.310260,21615.500345,11895.643103,-648.222941,4501.551926,0.006000,-0.022000,1.010000,192.000000,0.000000,24.000000,127.500000,40.000000,15.500000,72.000000,0.000000,0.000000,0.000000,1769521302.963600,0.000000
64.000000,15299.858487,16558.082886,-418.134084,-5169.399699,9178.319177,-5403.020132,126.600281,-14824.526289,14935.055665,12486.936150,-7767.879399,-1612.365438,21556.111760,11829.236070,-717.222776,4450.321728,0.006000,-0.022000,1.010000,192.000000,0.000000,0.000000,0.000000,0.000000,0.000000,0.000000,0.000000,0.000000,0.000000,1769521302.963611,0.000000
66.000000,15288.727318,16540.246193,-363.282903,-5091.570925,9191.350244,-5346.380811,193.208479,-14739.969640,14794.642007,12510.249020,-7652.454990,-1533.955518,21615.165069,11895.866620,-647.485333,4502.893031,0.006000,-0.022000,1.010000,192.000000,0.000000,0.000000,0.000000,0.000000,0.000000,0.000000,0.000000,0.000000,0.000000,1769521302.963621,0.000000
68.000000,15267.381402,16523.616496,-455.327386,-5190.611504,9148.367840,-5414.933612,96.090149,-14868.134542,14832.818786,12475.134429,-7719.621983,-1577.653179,21571.713277,11853.443009,-688.120805,4479.133127,0.006000,-0.022000,1.010000,192.000000,0.000000,0.000000,0.000000,0.000000,0.000000,0.000000,0.000000,0.000000,0.000000,1769521302.963632,0.000000
70.000000,15305.960513,16556.987650,-365.585132,-5084.954808,9199.821556,-5330.511073,194.437825,-14742.808311,14903.450299,12510.584296,-7737.525730,-1588.404368,21577.345917,11859.925015,-708.192671,4475.892124,0.006000,-0.022000,1.010000,192.000000,0.000000,0.000000,0.000000,0.000000,0.000000,0.000000,0.000000,0.000000,0.000000,1769521302.963642,0.000000
72.000000,15268.655451,16518.654408,-413.149645,-5143.114047,9159.119029,-5378.142640,142.559426,-14807.829536,14755.392343,12483.538685,-7654.824275,-1533.150856,21601.284635,11884.377823,-654.056746,4505.575240,0.004000,-0.026000,1.006000,192.000000,0.000000,16.000000,127.500000,24.000000,15.500000,56.000000,0.000000,0.000000,0.000000,1769521302.963653,0.000000
74.000000,15298.629141,16553.590185,-421.442142,-5167.075117,9176.151058,-5406.730522,130.042449,-14823.363998,14931.032351,12486.198543,-7767.901751,-1609.102083,21551.820225,11831.068913,-727.504579,4454.546208,0.004000,-0.026000,1.006000,192.000000,0.000000,0.000000,0.000000,0.000000,0.000000,0.000000,0.000000,0.000000,0.000000,1769521303.442102,0.000000
76.000000,15287.587379,16539.173310,-362.411185,-5099.304628,9188.980960,-5349.130076,195.845985,-14738.114445,14794.485545,12506.516279,-7651.538569,-1531.541530,21614.382757,11887.529419,-646.814781,4497.081577,0.004000,-0.026000,1.006000,192.000000,0.000000,0.000000,0.000000,0.000000,0.000000,0.000000,0.000000,0.000000,0.000000,1769521303.442159,0.000000
78.000000,15276.702079,16537.519281,-448.666566,-5196.467661,9149.865407,-5414.196004,101.119292,-14855.081124,14838.719647,12477.414307,-7715.062227,-1572.802850,21574.171969,11844.412904,-692.099415,4472.517010,0.004000,-0.026000,1.006000,192.000000,0.000000,0.000000,0.000000,0.000000,0.000000,0.000000,0.000000,0.000000,0.000000,1769521303.442206,0.000000
80.000000,15319.215097,16578.937063,-354.163391,-5095.169556,9206.795300,-5349.398297,199.221098,-14727.475015,14918.269505,12521.268430,-7723.265317,-1569.450089,21590.242873,11863.523646,-712.841834,4462.235208,0.004000,-0.026000,1.006000,192.000000,0.000000,0.000000,0.000000,0.000000,0.000000,0.000000,0.000000,0.000000,0.000000,1769521303.442249,0.000000
82.000000,15270.555350,16528.913859,-406.824101,-5152.367670,9156.369764,-5406.596411,143.945234,-14800.520516,14765.741201,12492.412328,-7646.822351,-1520.142140,21612.795784,11884.489582,-639.192836,4493.885278,0.008000,-0.024000,1.006000,192.000000,0.000000,32.000000,127.500000,32.000000,15.500000,56.000000,0.000000,0.000000,0.000000,1769521303.442298,0.000000
84.000000,15303.323007,16565.883644,-414.401342,-5164.661129,9175.055823,-5403.020132,133.171693,-14814.490356,14934.362761,12495.787441,-7765.465410,-1598.663819,21559.732742,11834.779302,-728.175131,4447.326594,0.008000,-0.024000,1.006000,192.000000,0.000000,0.000000,0.000000,0.000000,0.000000,0.000000,0.000000,0.000000,0.000000,1769521303.442339,0.000000
86.000000,15292.191838,16546.370571,-357.784373,-5094.566058,9188.153945,-5327.806512,196.337723,-14733.085302,14799.939370,12517.468633,-7648.744601,-1522.667888,21623.569324,11903.712082,-645.518380,4498.377979,0.008000,-0.024000,1.006000,192.000000,0.000000,0.000000,0.000000,0.000000,0.000000,0.000000,0.000000,0.000000,0.000000,1769521303.442357,0.000000
88.000000,15270.197722,16529.651467,-446.699613,-5196.825289,9146.199721,-5413.883080,97.766530,-14862.613662,14846.788627,12486.243246,-7712.491776,-1572.109946,21580.586920,11864.104791,-689.640723,4473.433432,0.008000,-0.024000,1.006000,192.000000,0.000000,0.000000,0.000000,0.000000,0.000000,0.000000,0.000000,0.000000,0.000000,1769521303.442367,0.000000
90.000000,15301.132536,16557.993479,-359.885437,-5095.616590,9197.765195,-5344.525617,191.487395,-14744.060009,14906.847764,12512.797119,-7736.184625,-1587.733816,21581.860969,11865.423544,-704.549337,4473.858115,0.008000,-0.024000,1.006000,192.000000,0.000000,0.000000,0.000000,0.000000,0.000000,0.000000,0.000000,0.000000,0.000000,1769521303.442378,0.000000
92.000000,15256.987841,16512.060644,-409.483958,-5149.439591,9152.726430,-5376.801536,137.574987,-14814.490356,14753.894777,12484.142182,-7659.316976,-1539.141123,21601.150525,11891.016292,-648.044127,4503.295362,0.004000,-0.022000,1.006000,192.000000,0.000000,16.000000,127.500000,40.000000,15.500000,56.000000,0.000000,0.000000,0.000000,1769521303.442389,0.000000
94.000000,15288.526152,16545.990592,-421.129217,-5162.358899,9168.015023,-5406.171728,125.952080,-14832.014123,14924.460939,12488.768993,-7774.003777,-1616.187586,21549.517995,11836.880366,-730.365602,4456.222589,0.004000,-0.022000,1.006000,192.000000,0.000000,0.000000,0.000000,0.000000,0.000000,0.000000,0.000000,0.000000,0.000000,1769521303.442400,0.000000
96.000000,15280.300710,16529.942039,-361.181839,-5086.027692,9178.654454,-5354.047460,192.113244,-14744.819968,14785.857771,12508.259715,-7658.758182,-1540.973966,21609.063042,11894.033777,-649.720508,4503.250659,0.004000,-0.022000,1.006000,192.000000,0.000000,0.000000,0.000000,0.000000,0.000000,0.000000,0.000000,0.000000,0.000000,1769521303.442410,0.000000
98.000000,15269.214245,16521.895411,-447.750145,-5185.358844,9144.992726,-5424.343696,97.341847,-14867.843970,14836.663286,12483.136354,-7717.275049,-1577.720234,21572.294423,11858.270986,-702.537680,4477.926132,0.004000,-0.022000,1.006000,192.000000,0.000000,0.000000,0.000000,0.000000,0.000000,0.000000,0.000000,0.000000,0.000000,1769521303.442421,0.000000
100.000000,15304.328836,16555.512435,-360.108955,-5085.200678,9200.313294,-5345.620852,193.096720,-14744.797617,14905.596066,12514.071168,-7737.324564,-1590.997170,21577.278862,11860.193236,-697.352075,4464.313920,0.004000,-0.022000,1.006000,192.000000,0.000000,0.000000,0.000000,0.000000,0.000000,0.000000,0.000000,0.000000,0.000000,1769521303.442432,0.000000
102.000000,15267.269643,16517.223897,-407.114674,-5140.096562,9159.923692,-5380.288408,141.352432,-14806.868411,14757.672221,12492.881714,-7656.366546,-1535.542492,21602.446926,11888.602303,-648.468810,4505.463482,0.006000,-0.016000,1.008000,192.000000,0.000000,24.000000,127.500000,64.000000,15.500000,64.000000,0.000000,0.000000,0.000000,1769521303.442443,0.000000
104.000000,15297.511553,16556.965298,-414.602508,-5160.637815,9174.586436,-5389.877306,129.751877,-14820.637086,14931.658200,12497.285008,-7767.968806,-1609.303249,21555.552966,11837.349753,-730.991451,4456.826086,0.006000,-0.016000,1.008000,192.000000,0.000000,0.000000,0.000000,0.000000,0.000000,0.000000,0.000000,0.000000,0.000000,1769521303.442454,0.000000
106.000000,15289.934312,16542.146092,-354.632778,-5091.481518,9188.623332,-5336.099009,194.393122,-14733.688800,14796.631312,12521.693113,-7649.258691,-1530.848626,21617.132022,11901.298094,-649.452287,4507.631601,0.006000,-0.016000,1.008000,192.000000,0.000000,0.000000,0.000000,0.000000,0.000000,0.000000,0.000000,0.000000,0.000000,1769521303.442465,0.000000
108.000000,15274.466905,16531.841938,-441.871636,-5198.121691,9161.622424,-5416.006495,97.587716,-14856.891615,14843.882900,12491.875886,-7709.250773,-1569.427737,21583.425591,11858.516855,-689.260744,4481.815336,0.006000,-0.016000,1.008000,192.000000,0.000000,0.000000,0.000000,0.000000,0.000000,0.000000,0.000000,0.000000,0.000000,1769521303.442475,0.000000
110.000000,15308.374501,16567.403563,-352.799934,-5097.315323,9211.265649,-5329.147617,195.734226,-14733.018247,14913.910915,12526.565793,-7726.416913,-1580.804775,21589.818190,11871.056184,-700.235450,4472.360548,0.006000,-0.016000,1.008000,192.000000,0.000000,0.000000,0.000000,0.000000,0.000000,0.000000,0.000000,0.000000,0.000000,1769521303.442486,0.000000
112.000000,15267.515512,16527.460996,-401.012647,-5150.691289,9169.847866,-5377.092108,142.537074,-14800.319350,14765.361221,12499.520183,-7647.559958,-1527.697030,21616.595580,11888.021158,-649.273473,4507.005752,0.006000,-0.017000,1.009000,192.000000,0.000000,24.000000,127.500000,56.000000,15.500000,72.000000,0.000000,0.000000,0.000000,1769521303.442497,0.000000
114.000000,15296.639835,16561.592109,-410.355676,-5165.465792,9187.081061,-5396.158146,130.534188,-14815.630295,14937.112026,12501.353026,-7762.470277,-1604.139996,21567.622908,11834.287564,-730.030326,4462.726946,0.006000,-0.017000,1.009000,192.000000,0.000000,0.000000,0.000000,0.000000,0.000000,0.000000,0.000000,0.000000,0.000000,1769521303.442509,0.000000
116.000000,15279.026661,16538.435702,-352.978748,-5096.577715,9198.167527,-5340.658765,193.431997,-14737.198023,14799.022949,12518.496814,-7646.732944,-1530.178074,21626.251534,11894.190239,-640.533941,4503.496528,0.006000,-0.017000,1.009000,192.000000,0.000000,0.000000,0.000000,0.000000,0.000000,0.000000,0.000000,0.000000,0.000000,1769521303.442520,0.000000
118.000000,15259.245367,16523.661199,-444.844418,-5197.451138,9157.196779,-5424.477807,96.425426,-14864.491208,14837.780874,12477.883694,-7716.380980,-1579.888353,21578.888187,11852.750105,-683.270476,4481.390653,0.006000,-0.017000,1.009000,192.000000,0.000000,0.000000,0.000000,0.000000,0.000000,0.000000,0.000000,0.000000,0.000000,1769521303.442531,0.000000
120.000000,15308.128632,16567.358859,-351.481182,-5087.592314,9216.272440,-5348.727745,197.500014,-14731.654791,14912.100424,12519.927325,-7729.233233,-1584.403406,21592.858028,11860.394402,-695.340418,4474.774536,0.006000,-0.017000,1.009000,192.000000,0.000000,0.000000,0.000000,0.000000,0.000000,0.000000,0.000000,0.000000,0.000000,1769521303.442542,0.000000
122.000000,15265.883835,16522.051873,-405.840624,-5139.873044,9164.081116,-5385.406957,142.447667,-14804.163850,14770.770344,12496.748566,-7646.442371,-1528.188768,21622.719958,11893.072652,-643.685537,4508.302153,0.005000,-0.016500,1.008500,192.000000,0.000000,16.000000,127.500000,64.000000,15.500000,64.000000,0.000000,0.000000,0.000000,1769521303.442553,0.000000
124.000000,15298.360920,16560.519226,-415.429522,-5153.686423,9183.773003,-5381.450699,130.489484,-14817.507841,14935.390942,12502.492965,-7767.097088,-1607.336296,21567.757019,11843.921166,-730.276195,4466.862019,0.005000,-0.016500,1.008500,192.000000,0.000000,0.000000,0.000000,0.000000,0.000000,0.000000,0.000000,0.000000,0.000000,1769521303.442563,0.000000
126.000000,15283.072327,16541.810816,-355.415089,-5089.603971,9194.211268,-5341.217559,194.907212,-14732.995896,14794.999635,12523.637715,-7650.577444,-1530.401591,21624.798670,11904.427338,-639.885740,4501.618982,0.005000,-0.016500,1.008500,192.000000,0.000000,0.000000,0.000000,0.000000,0.000000,0.000000,0.000000,0.000000,0.000000,1769521303.442573,0.000000
128.000000,15266.934367,16532.356028,-440.999918,-5188.957475,9156.280357,-5416.542937,100.336981,-14854.477627,14839.569013,12493.462860,-7712.827052,-1572.132298,21586.688946,11860.483809,-694.535755,4476.719138,0.005000,-0.016500,1.008500,192.000000,0.000000,0.000000,0.000000,0.000000,0.000000,0.000000,0.000000,0.000000,0.000000,1769521303.442584,0.000000
130.000000,15304.530001,16570.756325,-352.419955,-5090.520393,9209.477509,-5343.139809,196.471834,-14730.358390,14909.440566,12524.978819,-7729.657916,-1582.056473,21594.266187,11866.228207,-698.335552,4472.271141,0.005000,-0.016500,1.008500,192.000000,0.000000,0.000000,0.000000,0.000000,0.000000,0.000000,0.000000,0.000000,0.000000,1769521303.442595,0.000000
132.000000,15273.103449,16535.686438,-398.241031,-5143.114047,9174.653491,-5385.563420,144.660490,-14792.853867,14768.848094,12505.599857,-7645.280080,-1523.114922,21624.195173,11897.297132,-644.445496,4503.474176,0.003500,-0.016250,1.008250,192.000000,0.000000,8.000000,127.500000,64.000000,15.500000,64.000000,0.000000,0.000000,0.000000,1769521303.442605,0.000000
134.000000,15306.027568,16571.270415,-409.148682,-5162.113030,9188.690387,-5398.818004,131.562368,-14809.550620,14940.531843,12506.560982,-7762.000890,-1600.943697,21571.445056,11843.004744,-721.894291,4457.228417,0.003500,-0.016250,1.008250,192.000000,0.000000,0.000000,0.000000,0.000000,0.000000,0.000000,0.000000,0.000000,0.000000,1769521303.442616,0.000000
136.000000,15293.220019,16548.650449,-351.704699,-5092.867326,9203.107262,-5333.796779,195.868337,-14726.804462,14806.220210,12529.292706,-7642.441409,-1520.633879,21632.644133,11907.020141,-645.607787,4503.317714,0.003500,-0.016250,1.008250,192.000000,0.000000,0.000000,0.000000,0.000000,0.000000,0.000000,0.000000,0.000000,0.000000,1769521303.442626,0.000000
138.000000,15276.545617,16534.188871,-440.396421,-5195.953571,9159.029622,-5413.458397,96.648943,-14855.394048,14846.475702,12492.345273,-7709.675456,-1571.640560,21590.980481,11857.868654,-682.130537,4481.278894,0.003500,-0.016250,1.008250,192.000000,0.000000,0.000000,0.000000,0.000000,0.000000,0.000000,0.000000,0.000000,0.000000,1769521303.442637,0.000000
140.000000,15310.497917,16565.704830,-350.251836,-5095.571887,9213.724341,-5346.693736,192.560278,-14734.404055,14921.264639,12526.610497,-7724.449959,-1581.877659,21605.017377,11864.350660,-698.514366,4476.786193,0.003500,-0.016250,1.008250,192.000000,0.000000,0.000000,0.000000,0.000000,0.000000,0.000000,0.000000,0.000000,0.000000,1769521303.442648,0.000000
142.000000,15267.515512,16521.649542,-399.425673,-5151.451248,9179.436765,-5393.565344,138.536112,-14808.254219,14763.327213,12496.323883,-7652.879674,-1536.056582,21623.658731,11883.439050,-630.006269,4502.513051,0.003750,-0.017125,1.007125,192.000000,0.000000,16.000000,127.500000,56.000000,15.500000,56.000000,0.000000,0.000000,0.000000,1769521303.442659,0.000000
144.000000,15300.439632,16554.104275,-410.646249,-5163.074155,9192.892515,-5404.428292,127.762571,-14824.079254,14939.995401,12503.051758,-7766.650053,-1610.554947,21579.044649,11836.969773,-716.418113,4452.691013,0.003750,-0.017125,1.007125,192.000000,0.000000,0.000000,0.000000,0.000000,0.000000,0.000000,0.000000,0.000000,0.000000,1769521303.442669,0.000000
146.000000,15284.234617,16531.707827,-359.997196,-5094.633114,9195.820593,-5348.772448,189.475738,-14744.708210,14797.123050,12519.502642,-7654.466647,-1537.755315,21629.671351,11895.911324,-642.612653,4505.195261,0.003750,-0.017125,1.007125,192.000000,0.000000,0.000000,0.000000,0.000000,0.000000,0.000000,0.000000,0.000000,0.000000,1769521303.442681,0.000000
148.000000,15270.957681,16527.349237,-449.359471,-5190.209173,9159.029622,-5420.521548,94.503176,-14865.519388,14842.340629,12487.986682,-7720.359590,-1580.625961,21587.493609,11860.282643,-689.886593,4477.814374,0.003750,-0.017125,1.007125,192.000000,0.000000,0.000000,0.000000,0.000000,0.000000,0.000000,0.000000,0.000000,0.000000,1769521303.442692,0.000000
150.000000,15304.753519,16566.576548,-361.986501,-5085.893582,9210.505689,-5331.539253,192.180299,-14739.835529,14915.609648,12529.762093,-7730.753151,-1582.212935,21598.065984,11869.200989,-709.332610,4474.707481,0.003750,-0.017125,1.007125,192.000000,0.000000,0.000000,0.000000,0.000000,0.000000,0.000000,0.000000,0.000000,0.000000,1769521303.442703,0.000000
152.000000,15260.385306,16521.582487,-413.440217,-5147.562045,9166.606863,-5386.256324,135.228054,-14812.545754,14757.091076,12500.928342,-7657.238264,-1533.843760,21612.147583,11891.150402,-654.101450,4508.726836,0.003875,-0.018563,1.007562,192.000000,0.000000,16.000000,127.500000,48.000000,15.500000,64.000000,0.000000,0.000000,0.000000,1769521303.442713,0.000000
154.000000,15296.326911,16560.429819,-419.050505,-5160.570760,9182.498954,-5392.693626,126.309708,-14820.100644,14930.540613,12501.196563,-7772.349748,-1611.873700,21564.806588,11835.405151,-723.257747,4454.523856,0.003875,-0.018563,1.007562,192.000000,0.000000,0.000000,0.000000,0.000000,0.000000,0.000000,0.000000,0.000000,0.000000,1769521303.442724,0.000000
156.000000,15288.168524,16548.337525,-358.253760,-5088.464032,9193.496012,-5327.314773,194.169604,-14731.297163,14801.034606,12535.305325,-7647.068220,-1520.991507,21631.615952,11908.115376,-656.224865,4502.915383,0.003875,-0.018563,1.007562,192.000000,0.000000,0.000000,0.000000,0.000000,0.000000,0.000000,0.000000,0.000000,0.000000,1769521303.442735,0.000000
158.000000,15264.878007,16528.913859,-449.225360,-5199.485147,9152.391154,-5422.354391,94.302010,-14860.646708,14834.696333,12495.698034,-7717.230346,-1573.249885,21579.737554,11855.208797,-691.250049,4479.289589,0.003875,-0.018563,1.007562,192.000000,0.000000,0.000000,0.000000,0.000000,0.000000,0.000000,0.000000,0.000000,0.000000,1769521303.442746,0.000000
160.000000,15309.112109,16571.918615,-356.398565,-5095.303666,9210.908021,-5342.268091,195.778930,-14730.403093,14911.228706,12531.684343,-7727.087465,-1578.837821,21588.857065,11863.948329,-701.867128,4474.327502,0.003875,-0.018563,1.007562,192.000000,0.000000,0.000000,0.000000,0.000000,0.000000,0.000000,0.000000,0.000000,0.000000,1769521303.442756,0.000000
162.000000,15270.644757,16529.338542,-405.326534,-5147.785562,9173.491201,-5379.327283,143.028813,-14798.419452,14757.985146,12502.649427,-7650.756258,-1528.300527,21611.700548,11891.776251,-642.143266,4504.345894,0.005938,-0.017281,1.004781,192.000000,0.000000,32.000000,127.500000,64.000000,15.500000,40.000000,0.000000,0.000000,0.000000,1769521303.442767,0.000000
164.000000,15291.454231,16555.937118,-420.525720,-5165.555199,9177.805087,-5400.717902,128.276661,-14818.133690,14930.607668,12509.757282,-7765.487762,-1601.994229,21561.856158,11836.701552,-730.052677,4457.273121,0.005938,-0.017281,1.004781,192.000000,0.000000,0.000000,0.000000,0.000000,0.000000,0.000000,0.000000,0.000000,0.000000,1769521303.442778,0.000000
166.000000,15283.429954,16541.408484,-358.611388,-5094.320189,9192.579590,-5353.913349,195.242488,-14730.358390,14786.081289,12524.822357,-7648.342269,-1528.747562,21614.382757,11890.099870,-642.456191,4502.088368,0.005938,-0.017281,1.004781,192.000000,0.000000,0.000000,0.000000,0.000000,0.000000,0.000000,0.000000,0.000000,0.000000,1769521303.442788,0.000000
168.000000,15272.142324,16533.384208,-446.006709,-5193.584286,9151.519436,-5423.650792,99.509966,-14852.398914,14837.020914,12490.378319,-7710.055436,-1569.427737,21580.966900,11852.995974,-694.267535,4474.327502,0.005938,-0.017281,1.004781,192.000000,0.000000,0.000000,0.000000,0.000000,0.000000,0.000000,0.000000,0.000000,0.000000,1769521303.442799,0.000000
170.000000,15305.178202,16562.217958,-355.817420,-5092.956733,9203.442538,-5350.828809,196.784758,-14734.068779,14908.255924,12527.593974,-7725.567547,-1579.463670,21588.857065,11860.081477,-708.527947,4470.483002,0.005938,-0.017281,1.004781,192.000000,0.000000,0.000000,0.000000,0.000000,0.000000,0.000000,0.000000,0.000000,0.000000,1769521303.442810,0.000000
172.000000,15264.408620,16519.257905,-407.896985,-5146.131533,9159.029622,-5389.765547,143.475848,-14805.035568,14757.359297,12497.419119,-7647.582310,-1531.563882,21608.370138,11887.149440,-645.607787,4501.440168,0.006969,-0.015641,1.008391,192.000000,0.000000,32.000000,127.500000,72.000000,15.500000,80.000000,0.000000,0.000000,0.000000,1769521303.442820,0.000000
174.000000,15297.958588,16556.518263,-416.815331,-5156.458039,9175.949893,-5397.253382,132.970528,-14816.569068,14925.511470,12496.748566,-7768.728765,-1608.163310,21556.156463,11831.873576,-738.591044,4460.938807,0.006969,-0.015641,1.008391,192.000000,0.000000,0.000000,0.000000,0.000000,0.000000,0.000000,0.000000,0.000000,0.000000,1769521303.442831,0.000000
176.000000,15280.725393,16535.686438,-361.830039,-5089.693378,9184.711776,-5343.162160,195.086026,-14737.041561,14788.919960,12524.576488,-7647.939938,-1526.981774,21622.205868,11897.118318,-657.789488,4509.039761,0.006969,-0.015641,1.008391,192.000000,0.000000,0.000000,0.000000,0.000000,0.000000,0.000000,0.000000,0.000000,0.000000,1769521303.442842,0.000000
178.000000,15265.973242,16526.812795,-447.191351,-5194.903039,9150.491256,-5422.846129,98.660600,-14860.199673,14824.928620,12475.223836,-7717.967953,-1577.787289,21573.099085,11844.748180,-697.597944,4474.103984,0.006969,-0.015641,1.008391,192.000000,0.000000,0.000000,0.000000,0.000000,0.000000,0.000000,0.000000,0.000000,0.000000,1769521303.442854,0.000000
180.000000,15302.518344,16558.865197,-357.829077,-5094.700169,9198.078120,-5354.472143,195.108377,-14735.901622,14904.500831,12514.562907,-7727.109817,-1583.285818,21580.788086,11853.957099,-701.755369,4466.638501,0.006969,-0.015641,1.008391,192.000000,0.000000,0.000000,0.000000,0.000000,0.000000,0.000000,0.000000,0.000000,0.000000,1769521303.442874,0.000000
182.000000,15265.973242,16518.788519,-406.980563,-5148.567873,9156.973261,-5398.706245,142.000633,-14803.269780,14755.258233,12490.445374,-7649.951595,-1531.228606,21612.572266,11879.393384,-651.665110,4503.205955,0.006969,-0.015641,1.008391,192.000000,0.000000,0.000000,0.000000,0.000000,0.000000,0.000000,0.000000,0.000000,0.000000,1769521303.442885,0.000000
184.000000,15293.041205,16550.818569,-417.888214,-5165.376385,9175.234637,-5412.698437,128.902510,-14821.285286,14930.160633,12492.769956,-7764.705451,-1609.660877,21563.174911,11831.314782,-739.798038,4457.541341,0.008000,-0.016000,1.014000,192.000000,0.000000,32.000000,127.500000,64.000000,15.500000,88.000000,0.000000,0.000000,0.000000,1769521303.442895,0.000000
186.000000,15287.721489,16539.776807,-352.889341,-5095.795404,9191.014968,-5348.481875,196.628296,-14732.258288,14785.678957,12507.566811,-7648.811656,-1534.514312,21620.060101,11888.378786,-640.779810,4497.305095,0.008000,-0.016000,1.014000,192.000000,0.000000,0.000000,0.000000,0.000000,0.000000,0.000000,0.000000,0.000000,0.000000,1769521303.442906,0.000000
188.000000,15273.461076,16530.277315,-444.687956,-5195.506536,9148.166674,-5425.282469,97.051274,-14858.903272,14840.351324,12486.824392,-7708.222593,-1574.076900,21585.146676,11851.654870,-694.468700,4471.578237,0.008000,-0.016000,1.014000,192.000000,0.000000,0.000000,0.000000,0.000000,0.000000,0.000000,0.000000,0.000000,0.000000,1769521303.442916,0.000000
190.000000,15308.776833,16564.967223,-354.498667,-5091.593276,9207.085873,-5337.596576,195.018970,-14733.912317,14904.679645,12517.468633,-7728.696791,-1583.352874,21589.371155,11855.924053,-707.209195,4470.862981,0.008000,-0.016000,1.014000,192.000000,0.000000,0.000000,0.000000,0.000000,0.000000,0.000000,0.000000,0.000000,0.000000,1769521303.442927,0.000000
192.000000,15269.169541,16523.884716,-405.527700,-5146.690327,9164.550503,-5388.737367,141.754763,-14801.548696,14753.023059,12498.648465,-7647.515255,-1531.049792,21616.215601,11886.836515,-646.032470,4501.730740,0.008000,-0.016000,1.014000,192.000000,0.000000,0.000000,0.000000,0.000000,0.000000,0.000000,0.000000,0.000000,0.000000,1769521303.442938,0.000000
194.000000,15299.813783,16560.854502,-413.753142,-5159.117896,9182.968340,-5399.130928,132.702307,-14815.429129,14928.596011,12503.699959,-7762.470277,-1605.592859,21571.668574,11835.986297,-732.198445,4454.792077,0.002000,-0.022000,1.004000,192.000000,0.000000,8.000000,127.500000,40.000000,15.500000,48.000000,0.000000,0.000000,0.000000,1769521303.923690,0.000000
196.000000,15280.121896,16537.765150,-360.757156,-5093.649637,9188.176297,-5353.354556,193.320238,-14739.299087,14784.851943,12520.262601,-7648.655194,-1529.865149,21628.039673,11895.106661,-647.574740,4498.646200,0.002000,-0.022000,1.004000,192.000000,0.000000,0.000000,0.000000,0.000000,0.000000,0.000000,0.000000,0.000000,0.000000,1769521303.923753,0.000000
198.000000,15265.995594,16524.823490,-452.712232,-5196.177089,9143.159883,-5437.352411,95.978391,-14865.184112,14825.308600,12478.531895,-7718.951430,-1581.430624,21580.095181,11845.038753,-695.407473,4472.718176,0.002000,-0.022000,1.004000,192.000000,0.000000,0.000000,0.000000,0.000000,0.000000,0.000000,0.000000,0.000000,0.000000,1769521303.923807,0.000000
200.000000,15306.966341,16563.827284,-360.354824,-5089.089881,9204.694236,-5360.350652,197.477662,-14737.846224,14895.426022,12518.228593,-7731.446055,-1585.990380,21591.449868,11857.421620,-711.008991,4464.582141,0.002000,-0.022000,1.004000,192.000000,0.000000,0.000000,0.000000,0.000000,0.000000,0.000000,0.000000,0.000000,0.000000,1769521303.923845,0.000000
202.000000,15256.473751,16512.574734,-415.317764,-5147.830266,9155.296881,-5385.742233,140.167789,-14813.685693,14743.456512,12492.032348,-7657.595892,-1539.185827,21608.750118,11880.287454,-648.066479,4501.239002,0.002000,-0.022000,1.004000,192.000000,0.000000,0.000000,0.000000,0.000000,0.000000,0.000000,0.000000,0.000000,0.000000,1769521303.923882,0.000000
204.000000,15288.883780,16546.996420,-421.799770,-5159.877856,9174.564084,-5407.646943,131.383554,-14825.196841,14911.340465,12489.685415,-7774.026129,-1617.215767,21557.028181,11830.912451,-733.137218,4452.243978,0.002000,-0.024000,0.998000,192.000000,0.000000,8.000000,127.500000,32.000000,15.500000,24.000000,0.000000,0.000000,0.000000,1769521303.923918,0.000000
206.000000,15275.405678,16534.278278,-365.160449,-5089.626323,9180.330834,-5349.487704,194.706046,-14738.941460,14771.731469,12513.221802,-7659.786363,-1537.464742,21615.209772,11884.444879,-654.503781,4505.977572,0.002000,-0.024000,0.998000,192.000000,0.000000,0.000000,0.000000,0.000000,0.000000,0.000000,0.000000,0.000000,0.000000,1769521303.923955,0.000000
208.000000,15261.346431,16524.197641,-448.845380,-5194.456004,9149.127799,-5423.673144,98.437083,-14859.395010,14828.303734,12484.835086,-7716.001000,-1573.607513,21585.414897,11847.743314,-695.765101,4471.086499,0.002000,-0.024000,0.998000,192.000000,0.000000,0.000000,0.000000,0.000000,0.000000,0.000000,0.000000,0.000000,0.000000,1769521303.923992,0.000000
210.000000,15303.434766,16560.474522,-357.940836,-5092.241477,9205.074216,-5349.085373,195.622467,-14734.962849,14899.158764,12515.904011,-7729.344991,-1583.822260,21591.315757,11851.006669,-706.315125,4468.001958,0.002000,-0.024000,0.998000,192.000000,0.000000,0.000000,0.000000,0.000000,0.000000,0.000000,0.000000,0.000000,0.000000,1769521303.924047,0.000000
212.000000,15255.423219,16513.312341,-410.400380,-5151.384193,9157.062668,-5395.197021,139.586644,-14808.209516,14748.485654,12487.696110,-7652.857322,-1536.928300,21611.097051,11876.130030,-644.534903,4498.400330,0.002000,-0.024000,0.998000,192.000000,0.000000,0.000000,0.000000,0.000000,0.000000,0.000000,0.000000,0.000000,0.000000,1769521303.924085,0.000000
214.000000,15288.615559,16552.651412,-416.524758,-5161.688347,9174.899361,-5415.626516,131.249443,-14818.111338,14917.062511,12490.624188,-7768.281730,-1615.561737,21559.576280,11822.731712,-732.019631,4449.226493,-0.002000,-0.020000,1.002000,192.000000,127.500000,120.000000,127.500000,48.000000,15.500000,40.000000,0.000000,0.000000,0.000000,1769521303.924121,0.000000
216.000000,15278.087888,16537.094597,-357.516153,-5090.967428,9184.801183,-5364.798649,195.913040,-14734.784035,14780.560408,12520.240250,-7647.537607,-1532.413248,21622.518792,11887.417661,-657.007177,4500.501394,-0.002000,-0.020000,1.002000,192.000000,0.000000,0.000000,0.000000,0.000000,0.000000,0.000000,0.000000,0.000000,0.000000,1769521303.924160,0.000000
218.000000,15266.979071,16526.902202,-440.754049,-5194.612467,9151.139456,-5419.336905,100.135815,-14858.500941,14828.951934,12484.812735,-7711.105968,-1576.289722,21586.487780,11847.720962,-697.463834,4474.573371,-0.002000,-0.020000,1.002000,192.000000,0.000000,0.000000,0.000000,0.000000,0.000000,0.000000,0.000000,0.000000,0.000000,1769521303.924190,0.000000
220.000000,15304.597056,16562.061496,-350.296539,-5093.671989,9207.778777,-5348.928910,197.544717,-14734.627573,14898.845839,12523.280087,-7721.991267,-1583.241115,21596.546065,11863.657756,-704.236413,4465.073879,-0.002000,-0.020000,1.002000,192.000000,0.000000,0.000000,0.000000,0.000000,0.000000,0.000000,0.000000,0.000000,0.000000,1769521303.924201,0.000000
222.000000,15253.746838,16509.825469,-410.087456,-5152.322966,9156.861503,-5404.115367,137.530284,-14813.618638,14744.551747,12492.032348,-7650.398630,-1539.342289,21619.702473,11878.700480,-649.206418,4499.540269,-0.002000,-0.020000,1.002000,192.000000,0.000000,0.000000,0.000000,0.000000,0.000000,0.000000,0.000000,0.000000,0.000000,1769521303.924212,0.000000
224.000000,15287.140344,16547.644621,-422.693839,-5161.911865,9170.093735,-5395.308780,127.203778,-14824.772158,14905.238438,12491.227685,-7773.668501,-1619.316831,21561.923213,11827.157358,-734.813599,4453.495676,-0.002000,-0.020000,1.002000,192.000000,0.000000,0.000000,127.500000,16.000000,15.500000,48.000000,0.000000,0.000000,0.000000,1769521303.924224,0.000000
226.000000,15277.752611,16530.411426,-362.992330,-5090.632151,9188.355111,-5348.504227,192.448520,-14740.595489,14775.195989,12516.798081,-7650.935072,-1536.637728,21623.122290,11890.792774,-652.849752,4501.618982,-0.002000,-0.020000,1.002000,192.000000,0.000000,0.000000,0.000000,0.000000,0.000000,0.000000,0.000000,0.000000,0.000000,1769521303.924242,0.000000
228.000000,15261.413486,16517.156841,-450.074726,-5191.080891,9149.150151,-5411.089112,96.268963,-14863.239510,14826.359132,12486.869095,-7714.346971,-1578.569600,21583.783219,11855.074686,-692.971133,4473.522839,-0.002000,-0.020000,1.002000,192.000000,0.000000,0.000000,0.000000,0.000000,0.000000,0.000000,0.000000,0.000000,0.000000,1769521303.924254,0.000000
230.000000,15297.019815,16547.242289,-358.477278,-5092.934381,9201.050902,-5347.140771,193.297886,-14737.890928,14892.497944,12513.042988,-7727.936831,-1586.929153,21585.236083,11857.622785,-702.492976,4468.784269,-0.002000,-0.020000,1.002000,192.000000,0.000000,0.000000,0.000000,0.000000,0.000000,0.000000,0.000000,0.000000,0.000000,1769521303.924266,0.000000
232.000000,15259.804161,16510.965408,-408.120502,-5149.439591,9151.832360,-5401.075530,139.139609,-14804.409719,14741.891890,12489.596008,-7649.593967,-1534.827237,21607.341958,11882.209704,-648.222941,4501.395464,-0.002000,-0.020000,1.002000,192.000000,0.000000,0.000000,0.000000,0.000000,0.000000,0.000000,0.000000,0.000000,0.000000,1769521303.924278,0.000000
234.000000,15302.451289,16555.892415,-411.093284,-5161.218960,9178.497991,-5401.723731,130.668298,-14812.568106,14919.118872,12502.001226,-7759.050460,-1604.587031,21561.699696,11836.701552,-731.080858,4453.965062,0.002000,-0.024000,1.004000,192.000000,0.000000,8.000000,127.500000,32.000000,15.500000,48.000000,0.000000,0.000000,0.000000,1769521303.924289,0.000000
236.000000,15296.371615,16541.430836,-351.816458,-5090.632151,9189.048015,-5352.192265,196.650648,-14725.664523,14788.428222,12526.923421,-7637.166397,-1522.869053,21629.693702,11898.302960,-646.948892,4499.115586,0.002000,-0.024000,1.004000,192.000000,0.000000,0.000000,0.000000,0.000000,0.000000,0.000000,0.000000,0.000000,0.000000,1769521303.924300,0.000000
238.000000,15275.450382,16524.510565,-442.832761,-5197.071159,9148.166674,-5427.428237,96.648943,-14856.377525,14836.082141,12492.948770,-7704.266334,-1568.734833,21592.031013,11857.309861,-690.825366,4471.377071,0.002000,-0.024000,1.004000,192.000000,0.000000,0.000000,0.000000,0.000000,0.000000,0.000000,0.000000,0.000000,0.000000,1769521303.924311,0.000000
240.000000,15308.754481,16561.860330,-353.805763,-5090.587448,9205.342436,-5360.663576,194.169604,-14732.817082,14908.702959,12520.888450,-7720.381942,-1579.061339,21599.697661,11863.322480,-704.392875,4465.677376,0.002000,-0.024000,1.004000,192.000000,0.000000,0.000000,0.000000,0.000000,0.000000,0.000000,0.000000,0.000000,0.000000,1769521303.924322,0.000000
242.000000,15268.767210,16521.202507,-404.343057,-5145.930367,9165.422221,-5390.145527,140.592473,-14802.174545,14754.542977,12500.816584,-7645.391839,-1526.467684,21622.563496,11883.662568,-646.546560,4496.947467,0.002000,-0.024000,1.004000,192.000000,0.000000,0.000000,0.000000,0.000000,0.000000,0.000000,0.000000,0.000000,0.000000,1769521303.924335,0.000000
244.000000,15294.069385,16553.232557,-412.501444,-5160.883684,9176.709852,-5414.218356,129.617766,-14817.038455,14927.009037,12502.023578,-7759.698660,-1603.849423,21574.261376,11834.622840,-731.013802,4453.942711,0.008000,-0.022000,1.006000,192.000000,0.000000,32.000000,127.500000,40.000000,15.500000,56.000000,0.000000,0.000000,0.000000,1769521303.924346,0.000000
246.000000,15276.612672,16530.970219,-354.677481,-5093.359064,9186.142288,-5362.474068,193.633162,-14734.247593,14785.254274,12517.222764,-7644.788342,-1528.233472,21632.331208,11892.111527,-646.211284,4499.115586,0.008000,-0.022000,1.006000,192.000000,0.000000,0.000000,0.000000,0.000000,0.000000,0.000000,0.000000,0.000000,0.000000,1769521303.924358,0.000000
248.000000,15262.128742,16521.560135,-443.883293,-5195.953571,9142.019944,-5435.161940,97.095978,-14858.165664,14830.181280,12486.913799,-7710.033084,-1572.311112,21585.414897,11851.632518,-695.429825,4471.846458,0.008000,-0.022000,1.006000,192.000000,0.000000,0.000000,0.000000,0.000000,0.000000,0.000000,0.000000,0.000000,0.000000,1769521303.924370,0.000000
250.000000,15304.686463,16562.866159,-351.190609,-5090.833317,9203.531945,-5351.611120,197.544717,-14730.961887,14902.019787,12525.492910,-7720.448997,-1576.960275,21595.987272,11858.203931,-713.400628,4462.458725,0.008000,-0.022000,1.006000,192.000000,0.000000,0.000000,0.000000,0.000000,0.000000,0.000000,0.000000,0.000000,0.000000,1769521303.924381,0.000000
252.000000,15257.591338,16516.173365,-404.834796,-5148.277300,9156.883854,-5393.990027,141.531246,-14807.829536,14755.571157,12496.659159,-7643.469589,-1527.115885,21619.836583,11889.205800,-648.155886,4498.892069,0.008000,-0.022000,1.006000,192.000000,0.000000,0.000000,0.000000,0.000000,0.000000,0.000000,0.000000,0.000000,0.000000,1769521303.924392,0.000000
254.000000,15286.179219,16548.359877,-413.060238,-5163.320024,9175.055823,-5405.232955,131.428257,-14822.626391,14919.677665,12489.931284,-7767.857047,-1612.454845,21564.583071,11830.085436,-726.342288,4455.015594,0.009000,-0.020000,1.010000,192.000000,0.000000,40.000000,127.500000,56.000000,15.500000,88.000000,0.000000,0.000000,0.000000,1769521303.924404,0.000000
0.000000,15269.147190,16526.678685,-359.326644,-5092.755567,9180.554352,-5348.660689,194.594287,-14740.662544,14782.616768,12516.529860,-7648.655194,-1532.972042,21622.787013,11894.279646,-642.567950,4497.774482,0.009000,-0.020000,1.010000,192.000000,0.000000,0.000000,0.000000,0.000000,0.000000,0.000000,0.000000,0.000000,0.000000,1769521303.924415,0.000000
2.000000,15255.758495,16516.151013,-451.393479,-5197.540545,9133.950965,-5435.139589,96.715998,-14864.222987,14828.124920,12480.923531,-7716.760959,-1578.748414,21576.988289,11848.793846,-698.201442,4471.757051,0.009000,-0.020000,1.010000,192.000000,0.000000,0.000000,0.000000,0.000000,0.000000,0.000000,0.000000,0.000000,0.000000,1769521303.924426,0.000000
4.000000,15292.057728,16554.372496,-362.344129,-5097.002399,9184.398852,-5365.625663,194.393122,-14735.946326,14893.660235,12515.300514,-7731.714276,-1586.973856,21579.335222,11851.386649,-714.540567,4464.939769,0.009000,-0.020000,1.010000,192.000000,0.000000,0.000000,0.000000,0.000000,0.000000,0.000000,0.000000,0.000000,0.000000,1769521303.924438,0.000000
6.000000,15250.528187,16512.172402,-414.803674,-5152.591187,9138.823645,-5416.297068,140.525417,-14806.555487,14745.781093,12492.211162,-7653.483171,-1533.553187,21600.658786,11877.359376,-671.222886,4491.940676,0.009000,-0.020000,1.010000,192.000000,0.000000,0.000000,0.000000,0.000000,0.000000,0.000000,0.000000,0.000000,0.000000,1769521303.924449,0.000000
8.000000,15288.369690,16549.276298,-418.491711,-5165.175219,9166.718622,-5429.283432,131.517664,-14817.641952,14917.151918,12495.362758,-7768.438192,-1608.297421,21553.496606,11824.206927,-740.021555,4440.777533,0.008500,-0.019000,1.013000,192.000000,0.000000,32.000000,127.500000,56.000000,15.500000,96.000000,0.000000,0.000000,0.000000,1769521303.924460,0.000000
10.000000,15274.221036,16530.590240,-362.433536,-5096.309495,9182.051919,-5360.283597,194.013142,-14738.159148,14780.649815,12519.524994,-7651.918549,-1525.148931,21617.668464,11887.887047,-652.201551,4490.219592,0.008500,-0.019000,1.013000,192.000000,0.000000,0.000000,0.000000,0.000000,0.000000,0.000000,0.000000,0.000000,0.000000,1769521303.924471,0.000000
12.000000,15258.664222,16519.347312,-451.102907,-5198.680484,9138.466017,-5448.595339,94.681990,-14865.228816,14825.532118,12480.700014,-7720.583108,-1574.143955,21577.301213,11844.256442,-694.066369,4463.822182,0.008500,-0.019000,1.013000,192.000000,0.000000,0.000000,0.000000,0.000000,0.000000,0.000000,0.000000,0.000000,0.000000,1769521303.924482,0.000000
14.000000,15301.736033,16560.340412,-354.968054,-5092.666160,9198.972189,-5360.484762,196.874165,-14734.113483,14898.421156,12520.240250,-7731.468407,-1580.849478,21587.158333,11859.098000,-708.326782,4465.520914,0.008500,-0.019000,1.013000,192.000000,0.000000,0.000000,0.000000,0.000000,0.000000,0.000000,0.000000,0.000000,0.000000,1769521303.924493,0.000000
16.000000,15262.866350,16515.949847,-406.019438,-5150.177199,9156.928558,-5383.216486,142.470019,-14804.946161,14755.593509,12497.083842,-7647.895235,-1527.920547,21615.120365,11888.490544,-653.855581,4496.433377,0.008500,-0.019000,1.013000,192.000000,0.000000,0.000000,0.000000,0.000000,0.000000,0.000000,0.000000,0.000000,0.000000,1769521303.924504,0.000000
18.000000,15285.396908,16543.062513,-421.464493,-5166.359862,9169.758459,-5401.589620,127.293185,-14827.253202,14921.756377,12497.173249,-7769.935759,-1609.549118,21560.760923,11841.529529,-728.644517,4449.338251,0.008250,-0.017500,1.010500,192.000000,0.000000,32.000000,127.500000,64.000000,15.500000,64.000000,0.000000,0.000000,0.000000,1769521303.924516,0.000000
20.000000,15274.511608,16529.629115,-364.802821,-5092.822622,9182.901285,-5350.314719,192.001485,-14740.528433,14778.258178,12516.775729,-7656.232435,-1530.669812,21614.092185,11894.078480,-653.497953,4500.322580,0.008250,-0.017500,1.010500,192.000000,0.000000,0.000000,0.000000,0.000000,0.000000,0.000000,0.000000,0.000000,0.000000,1769521303.924527,0.000000
22.000000,15254.663259,16512.977065,-454.500372,-5195.573592,9140.567081,-5437.464170,93.832623,-14868.000432,14830.494205,12488.165496,-7718.906727,-1572.780499,21575.848350,11853.264195,-707.343305,4472.338196,0.008250,-0.017500,1.010500,192.000000,0.000000,0.000000,0.000000,0.000000,0.000000,0.000000,0.000000,0.000000,0.000000,1769521303.924538,0.000000
24.000000,15295.611655,16552.807874,-363.282903,-5091.906201,9191.596114,-5360.596521,191.889726,-14740.394323,14893.392014,12517.312171,-7735.804646,-1584.313999,21584.900807,11852.168960,-710.383142,4463.017519,0.008250,-0.017500,1.010500,192.000000,0.000000,0.000000,0.000000,0.000000,0.000000,0.000000,0.000000,0.000000,0.000000,1769521303.924580,0.000000
26.000000,15259.692402,16515.882792,-414.066066,-5147.763210,9155.542750,-5395.040559,138.312595,-14809.081234,14749.491483,12496.145069,-7654.690165,-1527.697030,21610.135926,11885.450707,-667.400738,4497.975647,0.008250,-0.017500,1.010500,192.000000,0.000000,0.000000,0.000000,0.000000,0.000000,0.000000,0.000000,0.000000,0.000000,1769521303.924592,0.000000
28.000000,15291.431879,16550.595051,-423.856130,-5160.861333,9172.060689,-5408.585716,128.008440,-14822.715798,14922.382226,12496.212124,-7769.265207,-1605.861080,21562.996097,11834.756951,-743.463724,4449.829990,0.006125,-0.022750,1.008250,192.000000,0.000000,16.000000,127.500000,16.000000,15.500000,56.000000,0.000000,0.000000,0.000000,1769521303.924604,0.000000
30.000000,15275.696251,16529.450301,-368.669673,-5094.454300,9177.738032,-5349.510056,191.174470,-14741.757779,14786.729489,12517.535689,-7651.717383,-1526.087704,21620.909467,11897.207725,-664.606770,4501.730740,0.006125,-0.022750,1.008250,192.000000,0.000000,0.000000,0.000000,0.000000,0.000000,0.000000,0.000000,0.000000,0.000000,1769521303.924615,0.000000
32.000000,15252.808065,16511.501850,-454.053337,-5200.178051,9138.197796,-5439.162903,94.547879,-14869.654461,14823.565164,12476.743755,-7725.880471,-1576.334426,21571.400353,11847.497445,-694.111072,4467.733737,0.006125,-0.022750,1.008250,192.000000,0.000000,0.000000,0.000000,0.000000,0.000000,0.000000,0.000000,0.000000,0.000000,1769521303.924627,0.000000
34.000000,15292.728280,16550.818569,-360.108955,-5095.549535,9197.429919,-5359.724803,192.381465,-14741.891890,14894.040214,12516.038122,-7737.861006,-1582.727025,21587.180684,11856.661660,-706.628049,4461.765821,0.006125,-0.022750,1.008250,192.000000,0.000000,0.000000,0.000000,0.000000,0.000000,0.000000,0.000000,0.000000,0.000000,1769521303.924639,0.000000
36.000000,15253.612727,16508.618475,-409.886290,-5153.887588,9156.637985,-5408.384551,136.211531,-14812.657513,14747.502178,12492.121755,-7657.819409,-1532.122675,21611.901714,11884.355472,-652.536828,4490.599572,0.006125,-0.022750,1.008250,192.000000,0.000000,0.000000,0.000000,0.000000,0.000000,0.000000,0.000000,0.000000,0.000000,1769521303.924650,0.000000
38.000000,15283.340547,16539.597993,-416.792979,-5162.984748,9165.377517,-5417.504062,126.890853,-14824.459234,14916.950752,12489.685415,-7772.483858,-1609.459711,21560.492702,11828.453759,-738.658099,4448.131257,0.006063,-0.023375,1.010125,192.000000,0.000000,24.000000,127.500000,32.000000,15.500000,80.000000,0.000000,0.000000,0.000000,1769521303.924660,0.000000
40.000000,15269.035431,16518.967333,-360.734804,-5093.560230,9173.155924,-5352.460486,192.873203,-14740.573137,14779.733393,12512.484194,-7649.929243,-1525.484207,21628.173784,11893.966722,-658.392985,4491.650104,0.006063,-0.023375,1.010125,192.000000,0.000000,0.000000,0.000000,0.000000,0.000000,0.000000,0.000000,0.000000,0.000000,1769521303.924672,0.000000
42.000000,15250.707001,16506.383301,-452.287549,-5198.144042,9133.392171,-5432.949118,94.994914,-14867.352231,14820.681789,12475.357947,-7720.337238,-1575.283894,21577.614138,11847.720962,-707.455064,4470.550057,0.006063,-0.023375,1.010125,192.000000,0.000000,0.000000,0.000000,0.000000,0.000000,0.000000,0.000000,0.000000,0.000000,1769521303.924682,0.000000
44.000000,15289.062594,16544.649487,-359.863086,-5095.147204,9193.361901,-5358.026070,194.236659,-14740.684896,14887.424098,12510.494889,-7735.290555,-1585.677455,21588.901769,11856.952233,-711.232509,4458.882446,0.006063,-0.023375,1.010125,192.000000,0.000000,0.000000,0.000000,0.000000,0.000000,0.000000,0.000000,0.000000,0.000000,1769521303.924694,0.000000
46.000000,15243.733256,16497.152030,-413.999011,-5153.708774,9141.103523,-5400.561440,137.150304,-14816.166737,14737.935631,12480.767069,-7658.981700,-1539.744620,21609.554781,11880.890951,-656.336624,4497.372150,0.006063,-0.023375,1.010125,192.000000,0.000000,0.000000,0.000000,0.000000,0.000000,0.000000,0.000000,0.000000,0.000000,1769521303.924704,0.000000
48.000000,15278.870199,16539.352124,-419.810464,-5163.208266,9168.663224,-5412.273754,129.595414,-14822.916963,14906.892467,12484.745679,-7774.137887,-1615.628793,21558.749266,11829.750160,-744.156628,4449.986452,0.007031,-0.023688,1.011062,192.000000,0.000000,32.000000,127.500000,32.000000,15.500000,80.000000,0.000000,0.000000,0.000000,1769521303.924716,0.000000
50.000000,15258.887739,16512.306513,-366.210981,-5100.489271,9171.725413,-5377.896771,190.369808,-14745.870500,14769.026908,12506.002188,-7655.338365,-1536.548321,21617.981388,11890.636312,-656.738956,4490.398406,0.007031,-0.023688,1.011062,192.000000,0.000000,0.000000,0.000000,0.000000,0.000000,0.000000,0.000000,0.000000,0.000000,1769521303.924728,0.000000
52.000000,15244.448512,16502.941132,-452.399308,-5197.764063,9133.302764,-5437.575929,95.777225,-14868.134542,14813.797452,12474.463877,-7721.767750,-1583.464632,21573.903748,11847.363335,-696.569764,4459.038908,0.007031,-0.023688,1.011062,192.000000,0.000000,0.000000,0.000000,0.000000,0.000000,0.000000,0.000000,0.000000,0.000000,1769521303.924739,0.000000
54.000000,15282.178257,16537.161653,-361.405356,-5095.974218,9181.873105,-5370.096012,194.661342,-14742.338925,14883.043156,12506.359816,-7734.530596,-1590.617191,21582.129190,11859.947367,-713.914718,4460.871751,0.007031,-0.023688,1.011062,192.000000,0.000000,0.000000,0.000000,0.000000,0.000000,0.000000,0.000000,0.000000,0.000000,1769521303.924750,0.000000
56.000000,15239.240556,16489.753603,-412.143816,-5153.217036,9137.639003,-5420.499196,139.117257,-14813.037492,14743.076532,12477.727232,-7655.651290,-1539.588158,21608.705414,11876.331195,-661.321063,4492.186545,0.007031,-0.023688,1.011062,192.000000,0.000000,0.000000,0.000000,0.000000,0.000000,0.000000,0.000000,0.000000,0.000000,1769521303.924761,0.000000
58.000000,15253.925652,16508.551420,-420.011630,-5166.158696,9148.524302,-5400.695551,129.371897,-14827.230850,14912.949790,12473.793325,-7772.126230,-1618.959203,21558.548100,11824.810424,-748.716384,4443.213873,0.006516,-0.020844,1.011531,192.000000,0.000000,24.000000,127.500000,56.000000,15.500000,80.000000,0.000000,0.000000,0.000000,1769521304.404049,0.000000
60.000000,15233.965544,16477.594254,-359.773679,-5101.472748,9166.338642,-5360.149486,193.253183,-14744.842320,14762.500198,12478.844819,-7657.573540,-1546.539551,21612.952246,11882.880257,-662.840982,4490.599572,0.006516,-0.020844,1.011531,192.000000,0.000000,0.000000,0.000000,0.000000,0.000000,0.000000,0.000000,0.000000,0.000000,1769521304.404125,0.000000
62.000000,15208.037520,16451.800341,-452.309901,-5209.632839,9127.737180,-5446.203702,90.323399,-14877.879903,14814.736225,12438.008182,-7721.186605,-1594.506394,21575.647184,11829.347829,-707.388009,4456.155533,0.006516,-0.020844,1.011531,192.000000,0.000000,0.000000,0.000000,0.000000,0.000000,0.000000,0.000000,0.000000,0.000000,1769521304.404177,0.000000
64.000000,15242.772131,16483.182190,-364.087565,-5108.312381,9182.096622,-5368.441983,187.195860,-14754.319460,14876.315281,12465.925511,-7741.236119,-1610.554947,21579.759905,11832.588831,-715.278174,4459.888275,0.006516,-0.020844,1.011531,192.000000,0.000000,0.000000,0.000000,0.000000,0.000000,0.000000,0.000000,0.000000,0.000000,1769521304.404241,0.000000
66.000000,15198.225105,16435.304753,-415.407171,-5162.381251,9145.886796,-5407.088149,134.199874,-14824.168661,14724.122253,12435.571842,-7665.463706,-1559.883542,21606.291426,11860.573216,-660.181124,4489.817260,0.006516,-0.020844,1.011531,192.000000,0.000000,0.000000,0.000000,0.000000,0.000000,0.000000,0.000000,0.000000,0.000000,1769521304.404306,0.000000
68.000000,15221.917954,16458.729381,-426.963023,-5175.479373,9159.007270,-5429.015211,123.649850,-14839.233737,14901.416290,12438.254051,-7781.089280,-1634.158389,21566.035934,11812.874593,-747.598797,4444.398516,0.006516,-0.020844,1.011531,192.000000,0.000000,0.000000,0.000000,0.000000,0.000000,0.000000,0.000000,0.000000,0.000000,1769521304.404333,0.000000
70.000000,15194.246494,16423.637143,-375.486955,-5108.535899,9156.302709,-5367.905541,185.117148,-14765.048297,14753.090114,12442.836159,-7673.152706,-1566.119679,21621.803537,11864.171846,-666.685482,4492.231249,0.006000,-0.020000,1.008000,192.000000,0.000000,24.000000,127.500000,48.000000,15.500000,64.000000,0.000000,0.000000,0.000000,1769521304.404357,0.000000
72.000000,15172.587654,16406.515706,-464.581009,-5206.660057,9119.914069,-5437.665336,90.435158,-14888.362871,14801.012254,12408.280362,-7740.789085,-1613.661839,21575.446019,11828.207890,-717.334535,4464.313920,0.006000,-0.020000,1.008000,192.000000,0.000000,0.000000,0.000000,0.000000,0.000000,0.000000,0.000000,0.000000,0.000000,1769521304.404385,0.000000
74.000000,15193.933570,16421.893707,-369.563743,-5108.871175,9177.290997,-5374.946341,188.671075,-14767.954024,14863.530083,12434.297792,-7756.234140,-1623.854235,21577.636490,11832.745294,-724.084762,4457.608397,0.006000,-0.020000,1.008000,192.000000,0.000000,0.000000,0.000000,0.000000,0.000000,0.000000,0.000000,0.000000,0.000000,1769521304.404408,0.000000
76.000000,15148.470121,16376.966700,-417.575290,-5165.555199,9134.353296,-5413.368990,133.082286,-14839.121978,14711.717035,12402.580667,-7680.864058,-1579.620132,21597.127211,11850.604338,-656.537790,4485.413967,0.006000,-0.020000,1.008000,192.000000,0.000000,0.000000,0.000000,0.000000,0.000000,0.000000,0.000000,0.000000,0.000000,1769521304.404435,0.000000
78.000000,15175.202808,16405.643988,-420.637479,-5176.194629,9154.916901,-5410.463263,124.230996,-14851.393086,14889.972197,12408.123899,-7791.661655,-1655.973691,21552.826053,11805.587924,-748.872846,4443.862074,0.006000,-0.020000,1.008000,192.000000,0.000000,0.000000,0.000000,0.000000,0.000000,0.000000,0.000000,0.000000,0.000000,1769521304.404459,0.000000
80.000000,15155.600328,16377.659604,-360.958321,-5109.653486,9175.011119,-5366.519733,187.397026,-14770.479771,14750.318497,12422.697237,-7671.699842,-1580.737720,21616.729691,11864.305957,-651.419240,4490.085481,0.002000,-0.022000,1.006000,192.000000,0.000000,8.000000,127.500000,40.000000,15.500000,56.000000,0.000000,0.000000,0.000000,1769521304.404482,0.000000
82.000000,15141.026991,16362.952156,-449.873561,-5209.454025,9142.019944,-5434.670202,91.530394,-14894.442546,14802.867449,12391.516553,-7736.274032,-1626.491741,21582.553873,11822.418788,-702.872956,4460.961158,0.002000,-0.022000,1.006000,192.000000,0.000000,0.000000,0.000000,0.000000,0.000000,0.000000,0.000000,0.000000,0.000000,1769521304.404515,0.000000
84.000000,15170.508941,16391.137706,-364.109917,-5107.753588,9194.591247,-5358.383698,188.738130,-14772.066745,14872.046098,12421.378484,-7752.657861,-1636.304156,21594.713222,11834.399323,-710.651363,4455.932016,0.002000,-0.022000,1.006000,192.000000,0.000000,0.000000,0.000000,0.000000,0.000000,0.000000,0.000000,0.000000,0.000000,1769521304.404538,0.000000
86.000000,15125.313714,16346.322459,-418.044677,-5163.431783,9144.478636,-5402.260173,132.009403,-14846.252185,14720.121291,12395.115184,-7681.847534,-1588.046740,21609.130098,11858.852131,-660.829325,4494.064092,0.002000,-0.022000,1.006000,192.000000,0.000000,0.000000,0.000000,0.000000,0.000000,0.000000,0.000000,0.000000,0.000000,1769521304.404562,0.000000
88.000000,15166.642090,16387.069689,-421.598604,-5175.188801,9167.590340,-5415.514757,122.532263,-14854.276461,14890.352176,12396.009254,-7795.819079,-1664.892037,21555.932946,11804.984427,-738.680451,4437.223606,0.002000,-0.022000,1.006000,192.000000,0.000000,0.000000,0.000000,0.000000,0.000000,0.000000,0.000000,0.000000,0.000000,1769521304.404586,0.000000
90.000000,15151.174683,16367.221340,-365.607484,-5108.535899,9171.412488,-5371.951207,184.737168,-14774.838361,14753.917128,12420.238545,-7674.985549,-1583.196412,21618.696644,11871.056184,-650.346357,4490.107833,0.006000,-0.018000,1.014000,192.000000,0.000000,24.000000,127.500000,56.000000,15.500000,88.000000,0.000000,0.000000,0.000000,1769521304.404610,0.000000
92.000000,15136.467235,16357.833607,-454.053337,-5210.415150,9134.867386,-5439.297013,88.155280,-14899.002302,14797.413623,12387.806164,-7740.654974,-1628.481046,21572.473237,11819.714227,-702.604735,4469.991263,0.006000,-0.018000,1.014000,192.000000,0.000000,0.000000,0.000000,0.000000,0.000000,0.000000,0.000000,0.000000,0.000000,1769521304.404633,0.000000
94.000000,15189.172648,16411.567201,-355.593903,-5105.361951,9193.741881,-5357.914312,189.498089,-14766.679974,14862.390144,12423.166623,-7752.523750,-1635.521845,21580.095181,11825.257459,-712.730075,4465.565618,0.006000,-0.018000,1.014000,192.000000,0.000000,0.000000,0.000000,0.000000,0.000000,0.000000,0.000000,0.000000,0.000000,1769521304.404657,0.000000
96.000000,15148.201901,16371.423468,-410.825063,-5167.298635,9145.059782,-5412.296106,132.478789,-14840.664249,14720.054235,12409.576763,-7668.414136,-1579.687188,21609.554781,11856.505198,-650.659281,4489.414929,0.006000,-0.018000,1.014000,192.000000,0.000000,0.000000,0.000000,0.000000,0.000000,0.000000,0.000000,0.000000,0.000000,1769521304.404682,0.000000
98.000000,15185.417555,16418.339779,-424.236110,-5180.910847,9161.197741,-5419.471016,121.817007,-14853.158874,14884.741889,12412.370731,-7789.895867,-1661.114593,21553.273088,11798.368311,-730.253843,4440.241091,0.006000,-0.018000,1.014000,192.000000,0.000000,0.000000,0.000000,0.000000,0.000000,0.000000,0.000000,0.000000,0.000000,1769521304.404716,0.000000
100.000000,15185.529314,16417.468061,-372.603580,-5107.306553,9172.999462,-5354.606253,185.698293,-14766.054126,14745.781093,12441.852682,-7674.426755,-1577.094385,21613.689853,11862.093134,-651.061612,4493.550002,0.006000,-0.022000,1.004000,192.000000,0.000000,24.000000,127.500000,40.000000,15.500000,48.000000,0.000000,0.000000,0.000000,1769521304.404742,0.000000
102.000000,15181.550703,16421.200802,-464.156325,-5208.872880,9131.827549,-5433.642022,89.898716,-14886.351214,14804.566181,12422.831347,-7735.536425,-1611.069037,21573.859045,11823.469320,-704.325820,4463.598664,0.006000,-0.022000,1.004000,192.000000,0.000000,0.000000,0.000000,0.000000,0.000000,0.000000,0.000000,0.000000,0.000000,1769521304.404766,0.000000
104.000000,15231.283335,16472.252187,-371.195420,-5105.183137,9187.014006,-5362.786992,189.676903,-14755.034716,14876.963482,12464.942034,-7749.416858,-1612.387790,21577.860007,11831.426541,-717.043962,4463.844533,0.006000,-0.022000,1.004000,192.000000,0.000000,0.000000,0.000000,0.000000,0.000000,0.000000,0.000000,0.000000,0.000000,1769521304.404789,0.000000
106.000000,15191.430174,16431.080274,-423.006764,-5163.565894,9139.047162,-5408.272792,131.629423,-14828.303734,14730.671314,12442.366772,-7672.146877,-1558.475382,21600.792897,11857.287509,-660.695214,4492.633580,0.006000,-0.022000,1.004000,192.000000,0.000000,0.000000,0.000000,0.000000,0.000000,0.000000,0.000000,0.000000,0.000000,1769521304.404813,0.000000
108.000000,15235.463111,16478.868303,-426.091305,-5174.540600,9154.559273,-5414.754798,123.493388,-14835.948030,14901.908028,12452.246243,-7783.883248,-1631.520883,21544.891184,11801.162279,-742.346137,4451.662833,0.006000,-0.022000,1.004000,192.000000,0.000000,0.000000,0.000000,0.000000,0.000000,0.000000,0.000000,0.000000,0.000000,1769521304.404845,0.000000
110.000000,15229.226974,16467.200693,-359.594865,-5105.227841,9171.300730,-5367.480858,190.392159,-14748.664468,14772.089097,12473.569807,-7656.679470,-1549.981719,21611.611141,11864.507123,-645.943063,4490.800737,0.004000,-0.018000,1.002000,192.000000,0.000000,16.000000,127.500000,56.000000,15.500000,40.000000,0.000000,0.000000,0.000000,1769521304.404880,0.000000
112.000000,15213.178422,16454.750771,-449.113601,-5209.498728,9128.340677,-5449.645871,90.681027,-14877.119944,14825.398007,12439.461045,-7718.280878,-1593.299400,21574.239024,11824.564555,-695.094549,4460.067089,0.004000,-0.018000,1.002000,192.000000,0.000000,0.000000,0.000000,0.000000,0.000000,0.000000,0.000000,0.000000,0.000000,1769521304.404907,0.000000
114.000000,15249.008268,16488.613664,-353.738708,-5109.899355,9185.270570,-5369.067832,188.715778,-14755.928785,14893.704938,12468.630072,-7736.095218,-1610.979630,21583.112667,11827.179709,-712.148930,4460.335310,0.004000,-0.018000,1.002000,192.000000,0.000000,0.000000,0.000000,0.000000,0.000000,0.000000,0.000000,0.000000,0.000000,1769521304.404934,0.000000
116.000000,15206.718767,16453.454370,-403.672505,-5164.571722,9141.282337,-5401.388455,134.468095,-14827.163795,14749.133855,12451.441580,-7657.372374,-1562.945731,21614.248647,11861.199064,-652.626235,4490.800737,0.004000,-0.018000,1.002000,192.000000,0.000000,0.000000,0.000000,0.000000,0.000000,0.000000,0.000000,0.000000,0.000000,1769521304.404958,0.000000
118.000000,15238.748817,16494.693338,-410.623897,-5178.139231,9155.833323,-5418.733408,125.102714,-14839.144330,14919.789424,12460.426982,-7775.590751,-1635.454790,21571.400353,11808.560706,-733.137218,4442.811542,0.004000,-0.018000,1.002000,192.000000,0.000000,0.000000,0.000000,0.000000,0.000000,0.000000,0.000000,0.000000,0.000000,1769521304.404981,0.000000
120.000000,15227.662352,16476.051983,-355.795068,-5108.759416,9167.277416,-5368.352576,189.028703,-14755.079419,14783.108507,12485.483287,-7653.885502,-1552.395708,21634.655790,11870.832666,-655.174333,4488.520859,0.002000,-0.012000,1.004000,192.000000,0.000000,8.000000,127.500000,80.000000,15.500000,48.000000,0.000000,0.000000,0.000000,1769521304.405004,0.000000
122.000000,15223.057893,16473.615643,-444.464438,-5205.944801,9130.486444,-5435.117237,92.692684,-14874.258920,14826.783815,12448.535853,-7720.806625,-1599.334371,21584.274958,11824.922183,-694.625162,4465.945597,0.002000,-0.012000,1.004000,192.000000,0.000000,0.000000,0.000000,0.000000,0.000000,0.000000,0.000000,0.000000,0.000000,1769521304.405027,0.000000
124.000000,15272.075268,16523.750606,-356.219751,-5095.996570,9184.935294,-5362.071736,192.314409,-14740.506082,14901.237476,12494.289874,-7729.188529,-1597.948563,21599.116516,11846.692782,-704.124654,4464.582141,0.002000,-0.012000,1.004000,192.000000,0.000000,0.000000,0.000000,0.000000,0.000000,0.000000,0.000000,0.000000,0.000000,1769521304.405051,0.000000
126.000000,15241.095750,16490.692376,-409.819235,-5148.053783,9142.645793,-5399.309742,138.536112,-14803.403891,14756.219358,12476.877865,-7648.834008,-1538.179998,21618.830755,11869.089230,-660.874028,4499.964952,0.002000,-0.012000,1.004000,192.000000,0.000000,0.000000,0.000000,0.000000,0.000000,0.000000,0.000000,0.000000,0.000000,1769521304.405070,0.000000
128.000000,15280.501876,16534.770016,-416.837682,-5156.480391,9160.147209,-5404.472995,130.757705,-14809.729434,14931.412331,12485.930322,-7759.542198,-1611.314906,21568.584033,11822.128215,-737.875788,4452.109868,0.002000,-0.012000,1.004000,192.000000,0.000000,0.000000,0.000000,0.000000,0.000000,0.000000,0.000000,0.000000,0.000000,1769521304.405081,0.000000
130.000000,15276.813838,16524.734083,-355.102164,-5086.541782,9167.322119,-5356.729669,197.544717,-14721.730616,14795.558428,12513.311209,-7633.545415,-1522.824350,21631.615952,11890.390443,-659.488220,4503.116548,0.006000,-0.012000,1.004000,192.000000,0.000000,24.000000,127.500000,80.000000,15.500000,48.000000,0.000000,0.000000,0.000000,1769521304.405093,0.000000
132.000000,15255.512626,16511.300684,-442.765706,-5193.114900,9130.642907,-5433.306746,100.694609,-14849.627298,14840.686600,12475.179133,-7702.567602,-1571.037063,21588.812362,11842.937689,-699.095511,4468.516048,0.006000,-0.012000,1.004000,192.000000,0.000000,0.000000,0.000000,0.000000,0.000000,0.000000,0.000000,0.000000,0.000000,1769521304.405105,0.000000
134.000000,15293.220019,16548.717505,-350.877684,-5087.905239,9186.678730,-5348.906559,202.618563,-14722.423520,14915.050854,12520.553174,-7714.168157,-1572.445222,21604.838563,11861.959024,-718.250956,4454.076821,0.006000,-0.012000,1.004000,192.000000,0.000000,0.000000,0.000000,0.000000,0.000000,0.000000,0.000000,0.000000,0.000000,1769521304.405116,0.000000
136.000000,15244.224995,16495.989739,-406.779397,-5152.658242,9137.683706,-5396.225202,143.297034,-14800.744033,14761.203797,12486.667929,-7642.508464,-1530.133370,21619.098976,11882.433222,-668.004235,4489.906667,0.006000,-0.012000,1.004000,192.000000,0.000000,0.000000,0.000000,0.000000,0.000000,0.000000,0.000000,0.000000,0.000000,1769521304.405128,0.000000
138.000000,15276.299748,16531.171385,-408.992220,-5161.978920,9161.667128,-5419.806292,134.423391,-14812.456347,14932.686380,12489.439546,-7756.792934,-1605.771673,21572.070905,11832.857052,-748.582274,4445.046716,0.006000,-0.012000,1.004000,192.000000,0.000000,0.000000,0.000000,0.000000,0.000000,0.000000,0.000000,0.000000,0.000000,1769521304.405138,0.000000
140.000000,15265.637966,16515.547516,-349.916559,-5096.957695,9173.848829,-5359.501285,196.158909,-14731.766550,14791.736280,12505.063415,-7640.005069,-1530.356888,21630.900697,11889.965760,-655.330796,4491.404234,0.007000,-0.015000,1.005000,192.000000,0.000000,32.000000,127.500000,56.000000,15.500000,56.000000,0.000000,0.000000,0.000000,1769521304.405149,0.000000
142.000000,15261.637004,16512.842955,-432.394496,-5198.680484,9142.757552,-5426.087132,101.856899,-14850.208443,14853.605909,12476.833162,-7696.398520,-1573.160478,21600.792897,11853.599471,-702.425921,4464.090403,0.007000,-0.015000,1.005000,192.000000,0.000000,0.000000,0.000000,0.000000,0.000000,0.000000,0.000000,0.000000,0.000000,1769521304.405160,0.000000
144.000000,15299.880838,16548.695153,-343.300443,-5098.321152,9194.814765,-5358.875437,199.042284,-14725.373951,14923.991552,12505.644561,-7707.954372,-1584.381054,21611.275865,11849.084419,-705.778683,4458.390708,0.007000,-0.015000,1.005000,192.000000,0.000000,0.000000,0.000000,0.000000,0.000000,0.000000,0.000000,0.000000,0.000000,1769521304.405170,0.000000
146.000000,15259.245367,16513.044120,-399.492729,-5154.379327,9148.323136,-5401.567269,139.810162,-14800.006425,14770.680937,12478.263674,-7637.054639,-1535.654251,21626.676217,11867.412849,-655.509610,4493.058263,0.007000,-0.015000,1.005000,192.000000,0.000000,0.000000,0.000000,0.000000,0.000000,0.000000,0.000000,0.000000,0.000000,1769521304.405183,0.000000
148.000000,15293.287074,16558.909900,-406.086493,-5161.844809,9168.506762,-5414.888908,133.395211,-14807.158984,14944.488102,12491.630017,-7749.439210,-1603.871775,21581.883321,11824.318686,-733.494846,4446.834856,0.007000,-0.015000,1.005000,192.000000,0.000000,0.000000,0.000000,0.000000,0.000000,0.000000,0.000000,0.000000,0.000000,1769521304.405194,0.000000
150.000000,15283.407603,16547.286993,-354.163391,-5092.085015,9177.827439,-5355.500323,195.980095,-14722.155299,14797.972417,12512.975933,-7634.327726,-1521.840873,21632.912354,11884.333120,-650.011081,4492.186545,0.009500,-0.020500,1.007500,192.000000,0.000000,48.000000,127.500000,24.000000,15.500000,72.000000,0.000000,0.000000,0.000000,1769521304.405204,0.000000
152.000000,15269.840094,16538.703923,-441.826933,-5189.270400,9141.662317,-5428.568176,101.432216,-14843.860548,14848.666173,12491.585313,-7695.772671,-1559.190638,21593.461525,11854.962928,-701.353038,4469.700690,0.009500,-0.020500,1.007500,192.000000,0.000000,0.000000,0.000000,0.000000,0.000000,0.000000,0.000000,0.000000,0.000000,1769521304.405215,0.000000
154.000000,15302.518344,16569.325813,-352.934045,-5084.664236,9198.100471,-5349.755925,199.914002,-14719.942477,14912.681569,12523.861232,-7709.943677,-1565.091499,21604.436231,11860.640271,-704.281116,4463.844533,0.009500,-0.020500,1.007500,192.000000,0.000000,0.000000,0.000000,0.000000,0.000000,0.000000,0.000000,0.000000,0.000000,1769521304.405226,0.000000
156.000000,15253.724486,16520.531955,-410.780360,-5140.610652,9146.602052,-5383.618818,141.352432,-14797.212457,14766.590567,12506.404520,-7633.567766,-1514.397742,21632.286505,11895.576047,-661.924560,4494.533479,0.009500,-0.020500,1.007500,192.000000,0.000000,0.000000,0.000000,0.000000,0.000000,0.000000,0.000000,0.000000,0.000000,1769521304.405236,0.000000
158.000000,15286.290978,16554.327792,-416.681220,-5151.317138,9172.440669,-5387.597428,133.328156,-14808.880068,14929.668895,12503.968180,-7758.737535,-1599.200261,21577.032992,11840.858977,-747.554093,4455.015594,0.009500,-0.020500,1.007500,192.000000,0.000000,0.000000,0.000000,0.000000,0.000000,0.000000,0.000000,0.000000,0.000000,1769521304.405248,0.000000
160.000000,15273.572835,16532.087807,-359.214885,-5088.464032,9181.604884,-5351.097030,195.689523,-14728.547898,14799.492335,12530.790273,-7635.177092,-1514.755370,21643.842357,11908.897687,-669.814726,4496.701598,0.009750,-0.018250,1.006750,192.000000,0.000000,40.000000,127.500000,64.000000,15.500000,56.000000,0.000000,0.000000,0.000000,1769521304.405263,0.000000
162.000000,15252.562195,16515.167536,-445.067936,-5196.646475,9138.018982,-5431.093923,95.374894,-14857.718630,14840.507786,12484.119831,-7707.596744,-1564.711519,21599.943531,11855.521721,-703.096474,4468.828972,0.009750,-0.018250,1.006750,192.000000,0.000000,0.000000,0.000000,0.000000,0.000000,0.000000,0.000000,0.000000,0.000000,1769521304.405276,0.000000
164.000000,15300.014949,16559.021659,-347.949606,-5087.838183,9196.625256,-5346.224349,196.114206,-14723.496404,14909.261752,12517.043950,-7717.833843,-1570.545324,21606.894923,11857.265157,-700.101340,4465.610321,0.009750,-0.018250,1.006750,192.000000,0.000000,0.000000,0.000000,0.000000,0.000000,0.000000,0.000000,0.000000,0.000000,1769521304.405286,0.000000
166.000000,15258.887739,16514.206411,-402.823139,-5149.417239,9145.886796,-5402.148414,137.217359,-14798.352396,14772.066745,12499.140203,-7633.679525,-1515.001239,21638.343828,11887.104736,-660.561104,4499.070883,0.009750,-0.018250,1.006750,192.000000,0.000000,0.000000,0.000000,0.000000,0.000000,0.000000,0.000000,0.000000,0.000000,1769521304.405297,0.000000
168.000000,15290.873085,16552.651412,-410.445083,-5163.208266,9167.880913,-5409.166862,127.471999,-14811.696388,14938.564889,12499.631941,-7753.060192,-1597.613287,21586.286615,11828.029076,-734.679489,4454.032118,0.009750,-0.018250,1.006750,192.000000,0.000000,0.000000,0.000000,0.000000,0.000000,0.000000,0.000000,0.000000,0.000000,1769521304.405308,0.000000
170.000000,15289.107298,16544.001287,-351.212961,-5092.420291,9187.393986,-5348.772448,193.543755,-14724.591640,14805.706120,12527.616325,-7630.237356,-1516.096475,21652.336020,11893.966722,-649.944025,4501.909554,0.008875,-0.018125,1.006375,192.000000,0.000000,32.000000,127.500000,56.000000,15.500000,56.000000,0.000000,0.000000,0.000000,1769521304.405318,0.000000
172.000000,15268.968376,16529.785577,-444.687956,-5199.731016,9140.969412,-5422.376743,94.480824,-14851.773066,14851.683659,12498.804927,-7696.890258,-1560.375280,21605.218542,11853.577120,-695.429825,4471.891161,0.008875,-0.018125,1.006375,192.000000,0.000000,0.000000,0.000000,0.000000,0.000000,0.000000,0.000000,0.000000,0.000000,1769521304.405329,0.000000
174.000000,15296.706891,16557.747609,-354.923350,-5098.701131,9192.289018,-5345.464390,192.448520,-14728.480843,14908.121813,12525.939944,-7715.352799,-1571.752318,21609.666539,11859.165056,-714.048828,4468.381938,0.008875,-0.018125,1.006375,192.000000,0.000000,0.000000,0.000000,0.000000,0.000000,0.000000,0.000000,0.000000,0.000000,1769521304.405340,0.000000
176.000000,15246.616631,16508.238495,-411.205043,-5159.140248,9145.082133,-5401.656676,134.266929,-14807.114280,14752.531320,12492.881714,-7645.548301,-1527.518216,21626.340941,11877.247617,-656.426031,4494.153499,0.008875,-0.018125,1.006375,192.000000,0.000000,0.000000,0.000000,0.000000,0.000000,0.000000,0.000000,0.000000,0.000000,1769521304.405350,0.000000
178.000000,15285.910998,16549.790388,-415.094246,-5167.052766,9170.585474,-5397.990989,129.260138,-14814.088024,14921.868136,12495.675683,-7761.866780,-1604.005886,21572.406181,11823.335209,-742.748468,4443.035059,0.008875,-0.018125,1.006375,192.000000,0.000000,0.000000,0.000000,0.000000,0.000000,0.000000,0.000000,0.000000,0.000000,1769521304.885014,0.000000
180.000000,15270.264777,16525.717560,-363.059385,-5095.683646,9175.435802,-5347.140771,192.113244,-14735.096959,14785.276626,12523.101273,-7639.870958,-1519.091608,21638.723807,11895.084309,-661.209304,4492.186545,0.007438,-0.020063,1.008188,192.000000,0.000000,24.000000,127.500000,40.000000,15.500000,72.000000,0.000000,0.000000,0.000000,1769521304.885085,0.000000
182.000000,15255.914957,16513.491155,-453.852171,-5198.993409,9128.318325,-5428.925804,93.653809,-14862.434848,14834.629278,12487.807868,-7707.887317,-1566.164382,21589.035879,11847.765666,-716.261651,4467.040833,0.007438,-0.020063,1.008188,192.000000,0.000000,0.000000,0.000000,0.000000,0.000000,0.000000,0.000000,0.000000,0.000000,1769521304.885127,0.000000
184.000000,15292.683577,16548.851615,-362.657054,-5098.231745,9189.070367,-5352.974576,192.023837,-14736.035733,14896.208334,12520.776692,-7725.500491,-1579.038987,21592.746269,11852.593643,-729.538587,4465.543266,0.007438,-0.020063,1.008188,192.000000,0.000000,0.000000,0.000000,0.000000,0.000000,0.000000,0.000000,0.000000,0.000000,1769521304.885165,0.000000
186.000000,15247.667163,16505.019844,-412.277926,-5159.430821,9141.952889,-5408.585716,134.982185,-14809.550620,14749.893814,12493.284046,-7646.799999,-1532.390896,21619.166031,11873.514876,-664.785584,4486.978589,0.007438,-0.020063,1.008188,192.000000,0.000000,0.000000,0.000000,0.000000,0.000000,0.000000,0.000000,0.000000,0.000000,1769521304.885207,0.000000
188.000000,15280.725393,16546.750551,-417.731752,-5169.153830,9160.661299,-5420.722714,126.421467,-14817.373731,14919.498851,12493.753432,-7763.274939,-1606.710447,21562.325545,11820.831814,-745.631843,4447.885388,0.007438,-0.020063,1.008188,192.000000,0.000000,0.000000,0.000000,0.000000,0.000000,0.000000,0.000000,0.000000,0.000000,1769521304.885245,0.000000
190.000000,15266.733201,16526.499871,-362.455888,-5101.003361,9178.475640,-5369.358405,188.849889,-14739.120273,14778.861675,12515.501680,-7644.855397,-1524.970117,21626.564458,11883.506105,-660.471697,4496.701598,0.007719,-0.020031,1.008094,192.000000,0.000000,32.000000,127.500000,48.000000,15.500000,64.000000,0.000000,0.000000,0.000000,1769521304.885288,0.000000
192.000000,15256.429047,16518.162670,-452.332253,-5203.486109,9142.131703,-5445.466095,92.625629,-14864.312394,14832.617621,12488.679586,-7711.888279,-1570.277103,21589.684080,11842.334192,-704.795206,4464.068051,0.007719,-0.020031,1.008094,192.000000,0.000000,0.000000,0.000000,0.000000,0.000000,0.000000,0.000000,0.000000,0.000000,1769521304.885326,0.000000
194.000000,15292.169487,16553.187853,-361.472411,-5099.394035,9196.759367,-5351.789934,191.822671,-14739.187329,14898.622322,12516.663971,-7728.719143,-1583.777557,21598.892999,11846.670431,-716.060485,4462.525781,0.007719,-0.020031,1.008094,192.000000,0.000000,0.000000,0.000000,0.000000,0.000000,0.000000,0.000000,0.000000,0.000000,1769521304.885341,0.000000
196.000000,15251.288146,16510.317208,-415.831854,-5155.698080,9152.368802,-5377.449736,135.518627,-14812.657513,14758.499236,12496.390938,-7648.834008,-1529.529873,21624.776319,11876.532361,-669.077119,4494.756996,0.007719,-0.020031,1.008094,192.000000,0.000000,0.000000,0.000000,0.000000,0.000000,0.000000,0.000000,0.000000,0.000000,1769521304.885353,0.000000
198.000000,15272.052917,16537.228708,-425.174883,-5169.869086,9170.227846,-5403.824795,126.130894,-14829.980115,14920.884659,12491.473555,-7770.114573,-1613.393618,21564.963050,11820.407131,-750.281006,4451.953405,0.007719,-0.020031,1.008094,192.000000,0.000000,0.000000,0.000000,0.000000,0.000000,0.000000,0.000000,0.000000,0.000000,1769521304.885368,0.000000
200.000000,15253.143341,16516.508641,-372.447118,-5102.724445,9172.440669,-5356.953187,187.397026,-14753.045410,14774.190161,12511.478366,-7655.472476,-1533.709649,21624.597505,11881.270931,-662.461002,4490.353702,0.005859,-0.020016,1.005047,192.000000,0.000000,16.000000,127.500000,48.000000,15.500000,40.000000,0.000000,0.000000,0.000000,1769521304.885379,0.000000
202.000000,15234.725503,16504.952789,-461.295302,-5203.888441,9134.688572,-5441.085153,89.652847,-14878.706918,14816.122033,12475.425002,-7727.154520,-1583.442281,21573.300251,11835.092227,-713.802959,4472.159382,0.005859,-0.020016,1.005047,192.000000,0.000000,0.000000,0.000000,0.000000,0.000000,0.000000,0.000000,0.000000,0.000000,1769521304.885390,0.000000
204.000000,15277.573797,16548.136359,-368.267342,-5095.415425,9194.188916,-5353.846294,190.615677,-14745.848149,14880.718575,12515.278162,-7737.771599,-1589.343141,21582.196245,11848.436218,-722.743657,4464.693900,0.005859,-0.020016,1.005047,192.000000,0.000000,0.000000,0.000000,0.000000,0.000000,0.000000,0.000000,0.000000,0.000000,1769521304.885400,0.000000
206.000000,15239.933460,16511.077167,-422.112694,-5156.614501,9147.943157,-5407.758702,133.082286,-14816.479661,14740.483730,12497.039139,-7657.059450,-1532.189731,21606.872571,11876.733527,-671.312293,4493.415891,0.005859,-0.020016,1.005047,192.000000,0.000000,0.000000,0.000000,0.000000,0.000000,0.000000,0.000000,0.000000,0.000000,1769521304.885410,0.000000
208.000000,15272.567007,16547.957545,-430.852226,-5171.478411,9162.449439,-5407.401074,124.320403,-14828.415493,14905.931342,12500.458956,-7777.445945,-1614.466502,21554.815358,11820.362427,-752.694995,4443.526798,0.005859,-0.020016,1.005047,192.000000,0.000000,0.000000,0.000000,0.000000,0.000000,0.000000,0.000000,0.000000,0.000000,1769521304.885420,0.000000
210.000000,15259.379477,16529.115025,-373.967036,-5101.226878,9179.570875,-5352.952224,186.972342,-14748.820931,14768.356355,12518.765035,-7656.880636,-1530.647460,21612.751080,11888.043509,-665.254970,4500.322580,0.005859,-0.020016,1.005047,192.000000,0.000000,0.000000,0.000000,0.000000,0.000000,0.000000,0.000000,0.000000,0.000000,1769521304.885442,0.000000
212.000000,15245.610803,16516.754510,-463.508125,-5204.089606,9134.152130,-5433.038525,90.144585,-14874.750659,14813.573934,12482.845781,-7727.065113,-1580.022464,21566.594728,11838.377933,-706.806863,4469.767746,0.008000,-0.020000,1.002000,192.000000,0.000000,32.000000,127.500000,48.000000,15.500000,40.000000,0.000000,0.000000,0.000000,1769521304.885454,0.000000
214.000000,15283.295844,16551.466769,-370.614275,-5103.663218,9191.059672,-5352.348727,188.961648,-14748.083323,14880.204484,12516.686322,-7737.279861,-1590.192508,21582.553873,11846.648079,-716.619279,4460.938807,0.008000,-0.020000,1.002000,192.000000,0.000000,0.000000,0.000000,0.000000,0.000000,0.000000,0.000000,0.000000,0.000000,1769521304.885464,0.000000
216.000000,15246.884852,16511.546554,-417.955270,-5162.358899,9153.776962,-5395.912277,134.713964,-14817.261972,14737.242727,12488.366662,-7659.071107,-1542.426830,21601.463449,11869.066878,-663.064499,4491.136013,0.008000,-0.020000,1.002000,192.000000,0.000000,0.000000,0.000000,0.000000,0.000000,0.000000,0.000000,0.000000,0.000000,1769521304.885474,0.000000
218.000000,15282.960568,16551.779694,-425.957194,-5173.400661,9170.227846,-5411.603202,124.342754,-14829.488376,14920.459976,12497.553229,-7767.454716,-1610.689057,21564.136036,11819.937744,-746.168285,4446.164304,0.008000,-0.020000,1.002000,192.000000,0.000000,0.000000,0.000000,0.000000,0.000000,0.000000,0.000000,0.000000,0.000000,1769521304.885484,0.000000
220.000000,15274.198684,16534.770016,-369.899019,-5105.026675,9178.006253,-5350.314719,187.642895,-14748.038620,14779.152248,12519.793215,-7652.700860,-1534.201388,21623.524621,11883.349643,-659.532924,4494.041740,0.008000,-0.020000,1.002000,192.000000,0.000000,0.000000,0.000000,0.000000,0.000000,0.000000,0.000000,0.000000,0.000000,1769521304.885494,0.000000
222.000000,15262.531073,16528.064493,-458.277817,-5205.363656,9137.661354,-5429.618708,92.379760,-14870.146199,14834.875147,12495.630979,-7715.330448,-1573.540458,21582.598577,11848.033887,-715.680506,4463.352795,0.004000,-0.022000,1.006000,192.000000,0.000000,16.000000,127.500000,40.000000,15.500000,56.000000,0.000000,0.000000,0.000000,1769521304.885505,0.000000
224.000000,15291.990673,16560.295708,-366.859182,-5107.977105,9196.982884,-5361.647053,191.554450,-14746.943384,14897.012996,12525.492910,-7728.607384,-1583.688150,21586.800705,11853.510064,-719.346192,4454.725022,0.004000,-0.022000,1.006000,192.000000,0.000000,0.000000,0.000000,0.000000,0.000000,0.000000,0.000000,0.000000,0.000000,1769521304.885515,0.000000
226.000000,15246.259003,16513.625266,-421.509197,-5163.744708,9151.050049,-5411.558498,136.010365,-14821.978190,14744.171768,12491.495906,-7658.199389,-1541.242187,21601.955188,11865.490599,-666.797241,4489.973723,0.004000,-0.022000,1.006000,192.000000,0.000000,0.000000,0.000000,0.000000,0.000000,0.000000,0.000000,0.000000,0.000000,1769521304.885526,0.000000
228.000000,15276.232693,16549.119836,-428.929976,-5172.350129,9165.779849,-5423.874310,126.332060,-14833.243469,14911.966313,12496.614456,-7774.763736,-1618.176892,21554.793007,11817.099073,-755.488963,4438.497655,0.004000,-0.022000,1.006000,192.000000,0.000000,0.000000,0.000000,0.000000,0.000000,0.000000,0.000000,0.000000,0.000000,1769521304.885536,0.000000
230.000000,15261.502893,16525.851670,-373.676464,-5106.054855,9172.038337,-5371.168896,186.011217,-14754.542977,14764.578910,12510.427834,-7659.518142,-1540.661042,21608.928932,11875.437126,-678.487203,4489.370226,0.004000,-0.022000,1.006000,192.000000,0.000000,0.000000,0.000000,0.000000,0.000000,0.000000,0.000000,0.000000,0.000000,1769521304.885546,0.000000
232.000000,15242.056875,16510.831298,-461.362357,-5211.420978,9130.329982,-5440.928691,88.132928,-14881.925569,14811.562277,12477.481363,-7727.087465,-1587.152670,21565.097161,11833.840529,-720.039096,4459.731812,-0.004000,-0.014000,1.006000,192.000000,127.500000,112.000000,127.500000,72.000000,15.500000,56.000000,0.000000,0.000000,0.000000,1769521304.885556,0.000000
234.000000,15273.997518,16547.890490,-370.457813,-5105.205489,9185.471736,-5353.198094,186.614714,-14755.280585,14876.851723,12509.980799,-7740.990250,-1594.461691,21573.032030,11839.070837,-728.644517,4453.808600,-0.004000,-0.014000,1.006000,192.000000,0.000000,0.000000,0.000000,0.000000,0.000000,0.000000,0.000000,0.000000,0.000000,1769521304.885566,0.000000
236.000000,15223.750797,16494.313359,-427.566520,-5168.527981,9131.715790,-5405.054141,127.404943,-14834.986905,14727.966753,12477.727232,-7670.425793,-1551.523990,21598.334205,11860.819085,-662.148078,4486.486851,-0.004000,-0.014000,1.006000,192.000000,0.000000,0.000000,0.000000,0.000000,0.000000,0.000000,0.000000,0.000000,0.000000,1769521304.885576,0.000000
238.000000,15264.833303,16534.233574,-429.041735,-5176.462850,9165.690442,-5401.142585,120.989993,-14840.373676,14902.556229,12481.236456,-7784.486745,-1627.162293,21552.513129,11812.427558,-744.178980,4441.001051,-0.004000,-0.014000,1.006000,192.000000,0.000000,0.000000,0.000000,0.000000,0.000000,0.000000,0.000000,0.000000,0.000000,1769521304.885587,0.000000
240.000000,15251.802236,16515.234591,-373.184725,-5108.558250,9177.358052,-5355.232102,182.233773,-14760.265024,14765.629442,12502.649427,-7664.569636,-1546.628958,21621.557667,11883.595512,-657.945950,4491.024255,-0.004000,-0.014000,1.006000,192.000000,0.000000,0.000000,0.000000,0.000000,0.000000,0.000000,0.000000,0.000000,0.000000,1769521304.885597,0.000000
242.000000,15238.100617,16506.271542,-460.714157,-5210.593964,9137.236671,-5440.615766,86.389492,-14884.831296,14815.496184,12473.256883,-7730.931965,-1592.070054,21580.095181,11833.907584,-713.467683,4463.710423,0.002000,-0.018000,1.002000,192.000000,0.000000,8.000000,127.500000,56.000000,15.500000,40.000000,0.000000,0.000000,0.000000,1769521304.885607,0.000000
244.000000,15268.990728,16535.887603,-372.067138,-5110.793425,9194.814765,-5371.437117,183.306656,-14763.886006,14881.277368,12505.108119,-7744.544178,-1605.659915,21586.733650,11838.959079,-715.077009,4459.955330,0.002000,-0.018000,1.002000,192.000000,0.000000,0.000000,0.000000,0.000000,0.000000,0.000000,0.000000,0.000000,0.000000,1769521304.885617,0.000000
246.000000,15229.495195,16494.872152,-423.654964,-5163.431783,9147.741991,-5409.904469,128.835455,-14832.908193,14733.130006,12478.889522,-7669.822296,-1555.636711,21606.738461,11863.098963,-664.763232,4495.472252,0.002000,-0.018000,1.002000,192.000000,0.000000,0.000000,0.000000,0.000000,0.000000,0.000000,0.000000,0.000000,0.000000,1769521304.885628,0.000000
248.000000,15260.452361,16530.277315,-431.254558,-5177.446327,9167.255064,-5421.013286,119.246557,-14843.771141,14902.533877,12483.762203,-7785.313759,-1628.861025,21556.022353,11813.947477,-748.001128,4444.487923,0.002000,-0.018000,1.002000,192.000000,0.000000,0.000000,0.000000,0.000000,0.000000,0.000000,0.000000,0.000000,0.000000,1769521304.885638,0.000000
250.000000,15260.698230,16522.476557,-368.624970,-5108.960582,9183.638893,-5351.320547,185.921810,-14753.626556,14767.328175,12506.091595,-7660.725136,-1545.489019,21622.183516,11878.722832,-660.471697,4489.034949,0.002000,-0.018000,1.002000,192.000000,0.000000,0.000000,0.000000,0.000000,0.000000,0.000000,0.000000,0.000000,0.000000,1769521304.885648,0.000000
252.000000,15241.229861,16505.869210,-458.143706,-5215.600755,9140.768247,-5437.464170,88.065873,-14881.098554,14822.067597,12476.363775,-7722.192433,-1588.829051,21584.163199,11836.276869,-703.431750,4461.654062,0.010000,-0.022000,1.006000,192.000000,0.000000,40.000000,127.500000,40.000000,15.500000,56.000000,0.000000,0.000000,0.000000,1769521304.885659,0.000000
254.000000,15279.071364,16542.727237,-363.640531,-5103.596163,9196.737015,-5346.939605,191.397988,-14750.474960,14883.154915,12510.651351,-7734.821169,-1595.132243,21592.165123,11846.044582,-720.352020,4461.944635,0.010000,-0.022000,1.006000,192.000000,0.000000,0.000000,0.000000,0.000000,0.000000,0.000000,0.000000,0.000000,0.000000,1769521304.885669,0.000000
0.000000,15228.399960,16490.670024,-419.408133,-5164.772888,9149.060744,-5395.286428,132.031754,-14830.471853,14735.074608,12487.092613,-7662.759145,-1543.633824,21611.164106,11874.073669,-668.250104,4494.779348,0.010000,-0.022000,1.006000,192.000000,0.000000,0.000000,0.000000,0.000000,0.000000,0.000000,0.000000,0.000000,0.000000,1769521304.885679,0.000000
2.000000,15257.770152,16524.175289,-427.812389,-5175.367615,9166.808029,-5403.914202,121.884063,-14844.307583,14899.359929,12485.282121,-7784.486745,-1628.101066,21560.358591,11816.584982,-748.783439,4450.657004,0.010000,-0.022000,1.006000,192.000000,0.000000,0.000000,0.000000,0.000000,0.000000,0.000000,0.000000,0.000000,0.000000,1769521304.885689,0.000000
4.000000,15245.186120,16506.182135,-372.402414,-5107.887698,9174.295863,-5365.625663,185.206555,-14763.103695,14761.695535,12505.063415,-7665.910741,-1546.047812,21624.463394,11876.845286,-661.544581,4496.835708,0.010000,-0.022000,1.006000,192.000000,0.000000,0.000000,0.000000,0.000000,0.000000,0.000000,0.000000,0.000000,0.000000,1769521304.885699,0.000000
6.000000,15236.178367,16502.471745,-463.217552,-5210.146929,9132.207529,-5445.846074,88.065873,-14886.015938,14811.808146,12469.747659,-7736.944584,-1592.584144,21578.239987,11832.387666,-708.080913,4468.672510,0.006000,-0.016000,1.002000,192.000000,0.000000,24.000000,127.500000,64.000000,15.500000,40.000000,0.000000,0.000000,0.000000,1769521304.885709,0.000000
8.000000,15275.785658,16542.101388,-370.033129,-5103.305591,9194.323026,-5350.605291,187.397026,-14756.711096,14884.294854,12512.730064,-7741.660803,-1594.394635,21593.416821,11849.464399,-716.306355,4461.363490,0.006000,-0.016000,1.002000,192.000000,0.000000,0.000000,0.000000,0.000000,0.000000,0.000000,0.000000,0.000000,0.000000,1769521304.885719,0.000000
10.000000,15227.192965,16494.514524,-429.421714,-5161.822458,9141.707020,-5392.067777,129.371897,-14834.383408,14737.108616,12485.215066,-7670.716366,-1547.031289,21608.347786,11873.179599,-673.614523,4494.064092,0.006000,-0.016000,1.002000,192.000000,0.000000,0.000000,0.000000,0.000000,0.000000,0.000000,0.000000,0.000000,0.000000,1769521304.885729,0.000000
12.000000,15255.311460,16526.991609,-437.401287,-5174.786469,9152.637023,-5411.111463,119.425371,-14847.637993,14902.757395,12483.315168,-7789.448832,-1627.698735,21554.323620,11819.624820,-746.995300,4449.606472,0.006000,-0.016000,1.002000,192.000000,0.000000,0.000000,0.000000,0.000000,0.000000,0.000000,0.000000,0.000000,0.000000,1769521304.885739,0.000000
14.000000,15246.840149,16510.227801,-382.080720,-5104.467881,9161.108334,-5360.752983,180.155060,-14765.472980,14760.622652,12500.302494,-7673.219761,-1551.456934,21612.549914,11879.281626,-661.656339,4496.053397,0.006000,-0.016000,1.002000,192.000000,0.000000,0.000000,0.000000,0.000000,0.000000,0.000000,0.000000,0.000000,0.000000,1769521304.885749,0.000000
16.000000,15238.055913,16506.875039,-467.062052,-5204.335475,9124.071494,-5440.526359,87.104748,-14882.797287,14819.027760,12477.414307,-7733.368305,-1591.354798,21570.774504,11840.411942,-713.624145,4466.549095,0.006000,-0.016000,1.006000,192.000000,0.000000,24.000000,127.500000,64.000000,15.500000,72.000000,0.000000,0.000000,0.000000,1769521304.885759,0.000000
18.000000,15272.432896,16543.733066,-379.823194,-5100.645733,9171.904227,-5364.396318,185.854755,-14755.861730,14880.137429,12509.600819,-7746.377021,-1596.026313,21577.256510,11850.202006,-724.352983,4463.106926,0.006000,-0.016000,1.006000,192.000000,0.000000,0.000000,0.000000,0.000000,0.000000,0.000000,0.000000,0.000000,0.000000,1769521304.885769,0.000000
20.000000,15229.182271,16500.415385,-432.193331,-5159.721394,9128.072456,-5409.144510,128.611938,-14830.360094,14729.620782,12482.644615,-7672.593912,-1546.025460,21594.355594,11868.217512,-674.866220,4491.694807,0.006000,-0.016000,1.006000,192.000000,0.000000,0.000000,0.000000,0.000000,0.000000,0.000000,0.000000,0.000000,0.000000,1769521304.885779,0.000000
22.000000,15258.708925,16532.825414,-436.484866,-5170.852562,9148.725468,-5414.508929,120.408847,-14841.915946,14901.975084,12490.400671,-7786.297236,-1621.954336,21546.522861,11817.322590,-750.951558,4440.151684,0.006000,-0.016000,1.006000,192.000000,0.000000,0.000000,0.000000,0.000000,0.000000,0.000000,0.000000,0.000000,0.000000,1769521304.885790,0.000000
24.000000,15247.801274,16513.625266,-377.051577,-5105.697227,9159.789581,-5366.765602,183.284305,-14760.533245,14754.162998,12505.823374,-7672.392746,-1548.484152,21603.139830,11876.353547,-666.238447,4492.320656,0.006000,-0.016000,1.006000,192.000000,0.000000,0.000000,0.000000,0.000000,0.000000,0.000000,0.000000,0.000000,0.000000,1769521304.885800,0.000000
26.000000,15243.018000,16514.631094,-460.512991,-5206.727112,9126.910165,-5442.850941,89.965771,-14878.550455,14819.787719,12483.516334,-7728.830901,-1582.123528,21574.104914,11842.155378,-724.554148,4462.369318,0.006000,-0.019000,1.006000,192.000000,0.000000,24.000000,127.500000,40.000000,15.500000,56.000000,0.000000,0.000000,0.000000,1769521304.885810,0.000000
28.000000,15276.947949,16547.242289,-370.703682,-5105.853689,9184.242390,-5352.125210,187.352322,-14753.648907,14883.087860,12512.104215,-7741.481989,-1594.193470,21583.000908,11847.363335,-725.112942,4458.010728,0.006000,-0.019000,1.006000,192.000000,0.000000,0.000000,0.000000,0.000000,0.000000,0.000000,0.000000,0.000000,0.000000,1769521304.885820,0.000000
30.000000,15240.089922,16508.104385,-423.498502,-5162.045975,9137.393133,-5401.276696,134.311632,-14823.520461,14743.255346,12493.731081,-7660.568674,-1540.169303,21610.091223,11877.828762,-673.122784,4488.967894,0.006000,-0.019000,1.006000,192.000000,0.000000,0.000000,0.000000,0.000000,0.000000,0.000000,0.000000,0.000000,0.000000,1769521304.885831,0.000000
32.000000,15265.973242,16542.436664,-436.574273,-5172.841868,9152.905244,-5422.242632,124.230996,-14837.490301,14912.145127,12496.413290,-7782.340977,-1620.188549,21558.682210,11822.016456,-744.871884,4438.989394,0.006000,-0.019000,1.006000,192.000000,0.000000,0.000000,0.000000,0.000000,0.000000,0.000000,0.000000,0.000000,0.000000,1769521304.885840,0.000000
34.000000,15249.432951,16520.554307,-383.041845,-5108.178271,9163.164695,-5376.667425,183.932505,-14760.332079,14766.679974,12510.472537,-7668.391784,-1545.868998,21613.198115,11881.025062,-661.119897,4491.895973,0.006000,-0.019000,1.006000,192.000000,0.000000,0.000000,0.000000,0.000000,0.000000,0.000000,0.000000,0.000000,0.000000,1769521304.885850,0.000000
36.000000,15240.894585,16517.223897,-471.152421,-5206.101263,9127.781883,-5442.761534,88.043521,-14879.735098,14825.330952,12481.750546,-7731.423704,-1590.997170,21574.730763,11836.880366,-716.194596,4463.710423,0.005000,-0.021500,1.004000,192.000000,0.000000,16.000000,127.500000,32.000000,15.500000,40.000000,0.000000,0.000000,0.000000,1769521304.885860,0.000000
38.000000,15280.345414,16555.400676,-375.419900,-5101.562154,9183.705948,-5360.685928,189.252220,-14750.296146,14892.475592,12517.356875,-7740.118532,-1592.405330,21583.850275,11851.766628,-726.699916,4457.541341,0.005000,-0.021500,1.004000,192.000000,0.000000,0.000000,0.000000,0.000000,0.000000,0.000000,0.000000,0.000000,0.000000,1769521304.885870,0.000000
40.000000,15236.759512,16509.020806,-428.840569,-5161.688347,9139.762418,-5408.652772,132.545845,-14826.403836,14747.502178,12490.691243,-7665.217837,-1544.662004,21612.527563,11873.783097,-671.982845,4486.665665,0.005000,-0.021500,1.004000,192.000000,0.000000,0.000000,0.000000,0.000000,0.000000,0.000000,0.000000,0.000000,0.000000,1769521304.885881,0.000000
42.000000,15263.827475,16540.894394,-437.177770,-5175.009987,9160.214264,-5425.394228,122.979298,-14841.446560,14910.736967,12486.466764,-7785.470222,-1626.916424,21554.301268,11818.082549,-754.997224,4449.651176,0.005000,-0.021500,1.004000,192.000000,0.000000,0.000000,0.000000,0.000000,0.000000,0.000000,0.000000,0.000000,0.000000,1769521305.365866,0.000000
44.000000,15257.256062,16527.528051,-377.967999,-5104.199660,9176.128706,-5354.539198,186.525307,-14758.052201,14768.825742,12510.539593,-7666.134258,-1547.657138,21618.584885,11885.160134,-669.680616,4498.534441,0.005000,-0.021500,1.004000,192.000000,0.000000,0.000000,0.000000,0.000000,0.000000,0.000000,0.000000,0.000000,0.000000,1769521305.365923,0.000000
46.000000,15238.815873,16515.927495,-465.788003,-5209.275211,9137.236671,-5435.251347,89.317571,-14882.976101,14822.469929,12483.270464,-7732.183663,-1589.790176,21579.178760,11840.568404,-710.316087,4463.196333,0.005500,-0.023750,1.001000,192.000000,0.000000,24.000000,127.500000,24.000000,15.500000,24.000000,0.000000,0.000000,0.000000,1769521305.365968,0.000000
48.000000,15276.299748,16550.885624,-376.045749,-5104.959620,9190.478526,-5357.288463,188.961648,-14755.146474,14882.394955,12513.668837,-7745.684117,-1599.580240,21584.766696,11843.004744,-718.295660,4463.352795,0.005500,-0.023750,1.001000,192.000000,0.000000,0.000000,0.000000,0.000000,0.000000,0.000000,0.000000,0.000000,0.000000,1769521305.366005,0.000000
50.000000,15239.464073,16509.557248,-429.488770,-5161.844809,9146.669107,-5392.179536,132.925824,-14826.783815,14742.137759,12492.121755,-7668.548246,-1548.752373,21607.498420,11871.413812,-673.301598,4497.372150,0.005500,-0.023750,1.001000,192.000000,0.000000,0.000000,0.000000,0.000000,0.000000,0.000000,0.000000,0.000000,0.000000,1769521305.366043,0.000000
52.000000,15265.213283,16539.486234,-438.742392,-5175.099394,9161.711831,-5420.052161,122.040525,-14844.218176,14912.256886,12492.389976,-7786.051367,-1626.581148,21558.995135,11820.988276,-754.304320,4450.813466,0.005500,-0.023750,1.001000,192.000000,0.000000,0.000000,0.000000,0.000000,0.000000,0.000000,0.000000,0.000000,0.000000,1769521305.366080,0.000000
54.000000,15250.371724,16519.392016,-383.019493,-5111.732198,9171.323081,-5368.665501,181.093834,-14768.244597,14766.121181,12509.891392,-7673.331520,-1554.832048,21621.311798,11872.978434,-660.762270,4496.522784,0.005500,-0.023750,1.001000,192.000000,0.000000,0.000000,0.000000,0.000000,0.000000,0.000000,0.000000,0.000000,0.000000,1769521305.366114,0.000000
56.000000,15237.497120,16512.731196,-469.945427,-5212.560917,9138.197796,-5449.064726,85.316609,-14890.307473,14817.507841,12475.961444,-7742.532521,-1601.837766,21580.989251,11829.683105,-706.762160,4466.705557,0.003750,-0.025875,0.998500,192.000000,0.000000,8.000000,127.500000,16.000000,15.500000,16.000000,0.000000,0.000000,0.000000,1769521305.366125,0.000000
58.000000,15277.037356,16552.249080,-377.409205,-5108.625306,9196.781718,-5373.538181,186.234735,-14759.907396,14889.055775,12516.798081,-7748.343974,-1604.050589,21595.272016,11844.681125,-723.950651,4464.515086,0.003750,-0.025875,0.998500,192.000000,0.000000,0.000000,0.000000,0.000000,0.000000,0.000000,0.000000,0.000000,0.000000,1769521305.366136,0.000000
60.000000,15231.640963,16505.690397,-433.333270,-5164.527019,9149.440724,-5396.426367,130.333022,-14833.936373,14743.501215,12491.495906,-7674.359700,-1555.167324,21613.354577,11871.145591,-660.918732,4494.756996,0.003750,-0.025875,0.998500,192.000000,0.000000,0.000000,0.000000,0.000000,0.000000,0.000000,0.000000,0.000000,0.000000,1769521305.366147,0.000000
62.000000,15254.439742,16533.719484,-443.458610,-5174.115917,9162.874122,-5410.552670,122.196987,-14851.437789,14907.942999,12487.517296,-7795.036768,-1635.633604,21557.810492,11819.781282,-747.040003,4448.533588,0.003750,-0.025875,0.998500,192.000000,0.000000,0.000000,0.000000,0.000000,0.000000,0.000000,0.000000,0.000000,0.000000,1769521305.366158,0.000000
64.000000,15243.442684,16514.966370,-388.495670,-5106.188966,9169.043203,-5360.015376,184.558354,-14771.910283,14759.080381,12499.542534,-7679.500601,-1559.905894,21609.375967,11874.543056,-663.019796,4501.283705,0.003750,-0.025875,0.998500,192.000000,0.000000,0.000000,0.000000,0.000000,0.000000,0.000000,0.000000,0.000000,0.000000,1769521305.366170,0.000000
66.000000,15235.083131,16511.323036,-472.582933,-5210.370446,9131.335811,-5447.030717,90.144585,-14890.061604,14808.589495,12466.551359,-7744.499474,-1604.072941,21570.819208,11830.465416,-711.165453,4472.047624,0.003875,-0.023938,0.998250,192.000000,0.000000,16.000000,127.500000,40.000000,15.500000,24.000000,0.000000,0.000000,0.000000,1769521305.366181,0.000000
68.000000,15266.353222,16543.956583,-384.829984,-5114.056780,9178.363881,-5371.481821,186.726473,-14764.668317,14876.516447,12504.482270,-7752.501399,-1606.621040,21575.088391,11841.440122,-713.914718,4461.609359,0.003875,-0.023938,0.998250,192.000000,0.000000,0.000000,0.000000,0.000000,0.000000,0.000000,0.000000,0.000000,0.000000,1769521305.366191,0.000000
70.000000,15230.456320,16504.304588,-435.456685,-5169.489106,9133.772151,-5402.438987,130.958871,-14832.014123,14725.530413,12476.207313,-7679.679415,-1557.111926,21591.762792,11860.059125,-669.345339,4496.142804,0.003875,-0.023938,0.998250,192.000000,0.000000,0.000000,0.000000,0.000000,0.000000,0.000000,0.000000,0.000000,0.000000,1769521305.366202,0.000000
72.000000,15262.709887,16536.759321,-440.195255,-5181.626103,9150.446552,-5428.009382,123.515740,-14840.552490,14900.790441,12482.286988,-7788.934742,-1630.984441,21546.768730,11809.097148,-752.739698,4445.024365,0.003875,-0.023938,0.998250,192.000000,0.000000,0.000000,0.000000,0.000000,0.000000,0.000000,0.000000,0.000000,0.000000,1769521305.366213,0.000000
74.000000,15253.322155,16520.934286,-381.454871,-5111.598088,9161.957700,-5374.141678,187.128805,-14758.365125,14759.013326,12500.861287,-7668.727060,-1551.725155,21606.403185,11866.787001,-668.898305,4495.002865,0.003875,-0.023938,0.998250,192.000000,0.000000,0.000000,0.000000,0.000000,0.000000,0.000000,0.000000,0.000000,0.000000,1769521305.366223,0.000000
76.000000,15242.906242,16513.021769,-467.844363,-5210.348095,9129.301802,-5453.758592,92.715036,-14880.807982,14817.664304,12473.793325,-7731.758980,-1595.132243,21569.791027,11830.823044,-714.227642,4459.396536,0.003938,-0.019969,1.001125,192.000000,0.000000,16.000000,127.500000,64.000000,15.500000,48.000000,0.000000,0.000000,0.000000,1769521305.366234,0.000000
78.000000,15284.234617,16553.031391,-377.073929,-5103.417349,9181.269608,-5371.213600,193.588459,-14748.217433,14884.227798,12511.925401,-7739.760904,-1597.479176,21579.335222,11843.585890,-725.247052,4458.748336,0.003938,-0.019969,1.001125,192.000000,0.000000,0.000000,0.000000,0.000000,0.000000,0.000000,0.000000,0.000000,0.000000,1769521305.366253,0.000000
80.000000,15240.112274,16507.143260,-432.394496,-5167.790373,9133.258061,-5416.341772,133.819894,-14825.688580,14743.612974,12484.388052,-7662.960310,-1547.925359,21605.218542,11870.184466,-674.083909,4491.515993,0.003938,-0.019969,1.001125,192.000000,0.000000,0.000000,0.000000,0.000000,0.000000,0.000000,0.000000,0.000000,0.000000,1769521305.366264,0.000000
82.000000,15280.434821,16549.343353,-432.841531,-5171.813687,9154.827494,-5399.332094,129.528359,-14831.052998,14916.749587,12488.277255,-7777.647111,-1626.938775,21557.609327,11817.277887,-754.103154,4447.371298,0.003938,-0.019969,1.001125,192.000000,0.000000,0.000000,0.000000,0.000000,0.000000,0.000000,0.000000,0.000000,0.000000,1769521305.366275,0.000000
84.000000,15261.882873,16527.237478,-378.727958,-5108.938230,9163.745840,-5368.218466,187.687598,-14755.749971,14777.654681,12513.378264,-7655.584235,-1545.354908,21619.791880,11883.170829,-664.830287,4488.364397,0.003938,-0.019969,1.001125,192.000000,0.000000,0.000000,0.000000,0.000000,0.000000,0.000000,0.000000,0.000000,0.000000,1769521305.366286,0.000000
86.000000,15240.671067,16510.697187,-470.370110,-5213.499691,9117.321267,-5462.073441,89.496385,-14884.540723,14822.760501,12475.000319,-7729.210881,-1596.763920,21570.975670,11832.678238,-709.109093,4460.089440,0.003938,-0.019969,1.001125,192.000000,0.000000,0.000000,0.000000,0.000000,0.000000,0.000000,0.000000,0.000000,0.000000,1769521305.366297,0.000000
88.000000,15273.483428,16544.984763,-380.583153,-5104.736102,9165.601035,-5385.250495,187.866412,-14759.058030,14882.774935,12504.862249,-7743.314832,-1605.749322,21575.110742,11831.962983,-716.216948,4459.240074,0.006000,-0.012000,1.008000,192.000000,0.000000,24.000000,127.500000,80.000000,15.500000,64.000000,0.000000,0.000000,0.000000,1769521305.366308,0.000000
90.000000,15233.362047,16504.103423,-432.193331,-5162.314196,9128.184215,-5428.456417,131.607071,-14831.008295,14736.035733,12476.967272,-7670.783421,-1557.089574,21591.941606,11854.828817,-668.473621,4490.957199,0.006000,-0.012000,1.008000,192.000000,0.000000,0.000000,0.000000,0.000000,0.000000,0.000000,0.000000,0.000000,0.000000,1769521305.366320,0.000000
92.000000,15271.561178,16544.425970,-434.316747,-5169.444402,9144.255119,-5427.383533,126.734391,-14834.450464,14913.955619,12485.751508,-7780.955169,-1628.078714,21547.774559,11809.544183,-750.191599,4443.526798,0.006000,-0.012000,1.008000,192.000000,0.000000,0.000000,0.000000,0.000000,0.000000,0.000000,0.000000,0.000000,0.000000,1769521305.366330,0.000000
94.000000,15260.519416,16530.254964,-377.208039,-5105.473710,9159.655471,-5369.872495,187.553488,-14754.118294,14776.447687,12514.160575,-7657.126505,-1540.661042,21616.796746,11877.582893,-674.150965,4488.230287,0.006000,-0.012000,1.008000,192.000000,0.000000,0.000000,0.000000,0.000000,0.000000,0.000000,0.000000,0.000000,0.000000,1769521305.366341,0.000000
96.000000,15245.722562,16521.269562,-467.732604,-5210.504557,9120.003476,-5444.393211,89.809309,-14880.606816,14822.000542,12480.811772,-7729.926137,-1592.405330,21569.411048,11832.678238,-707.298602,4459.105964,0.006000,-0.012000,1.008000,192.000000,0.000000,0.000000,0.000000,0.000000,0.000000,0.000000,0.000000,0.000000,0.000000,1769521305.366352,0.000000
98.000000,15284.838114,16556.160635,-377.520964,-5104.579640,9171.948930,-5373.627588,188.916944,-14752.799541,14890.598046,12515.568735,-7739.895015,-1597.300362,21577.860007,11843.049448,-724.107113,4458.435411,0.010000,-0.006000,1.008000,192.000000,0.000000,40.000000,127.500000,104.000000,15.500000,64.000000,0.000000,0.000000,0.000000,1769521305.366363,0.000000
100.000000,15235.999553,16505.131603,-432.394496,-5168.371519,9127.290145,-5416.878214,127.382592,-14831.522385,14741.936593,12486.533819,-7666.894217,-1547.433620,21599.272978,11864.797695,-669.814726,4492.991208,0.010000,-0.006000,1.008000,192.000000,0.000000,0.000000,0.000000,0.000000,0.000000,0.000000,0.000000,0.000000,0.000000,1769521305.366374,0.000000
