Sample_index,EXG Channel 0,EXG Channel 1,EXG Channel 2,EXG Channel 3,EXG Channel 4,EXG Channel 5,EXG Channel 6,EXG Channel 7,EXG Channel 8,EXG Channel 9,EXG Channel 10,EXG Channel 11,EXG Channel 12,EXG Channel 13,EXG Channel 14,EXG Channel 15,Accel Channel 0,Accel Channel 1,Accel Channel 2,Not Used,Digital Channel 0 (D11),Digital Channel 1 (D12),Digital Channel 2 (D13),Digital Channel 3 (D17),Not Used,Digital Channel 4 (D18),Analog Channel 0,Analog Channel 1,Analog Channel 2,Timestamp,Marker Channel
90.000000,15191.519581,14520.967248,3882.185087,-2864.800735,6246.217340,-10262.334080,698.223793,-17991.187333,12727.642086,11184.321187,-8763.068469,371.240124,21616.684987,12219.519880,-225.707916,4062.004872,0.004000,-0.020000,1.006000,192.000000,0.000000,0.000000,0.000000,0.000000,0.000000,0.000000,0.000000,0.000000,0.000000,1769524296.307556,101.000000
92.000000,15192.592465,14516.295733,3809.363104,-2946.943396,6228.425351,-10310.189165,623.703077,-18089.333843,12736.426322,11164.249321,-8794.964408,349.715394,21609.800650,12212.724949,-266.566904,4040.368383,0.004000,-0.020000,1.006000,192.000000,0.000000,0.000000,0.000000,0.000000,0.000000,0.000000,0.000000,0.000000,0.000000,1769524296.307628,0.000000
94.000000,15207.814003,14539.318030,3876.395986,-2873.629674,6244.205683,-10272.235903,689.372502,-18001.960874,12809.628285,11171.267768,-8821.205356,330.694059,21576.429495,12194.910609,-276.781652,4018.284859,0.004000,-0.022000,1.010000,192.000000,0.000000,16.000000,127.500000,40.000000,15.500000,72.000000,0.000000,0.000000,0.000000,1769524296.307680,0.000000
96.000000,15186.602197,14515.289905,3844.477695,-2902.619887,6223.597374,-10282.785926,659.108240,-18040.092950,12687.788926,11181.951902,-8749.523312,387.467490,21601.686967,12243.548005,-219.248261,4062.183686,0.004000,-0.022000,1.010000,192.000000,0.000000,0.000000,0.000000,0.000000,0.000000,0.000000,0.000000,0.000000,0.000000,1769524296.307729,0.000000
98.000000,15210.406805,14536.769931,3817.745008,-2930.000774,6239.377706,-10289.849077,633.157865,-18073.374697,12804.800308,11161.880036,-8844.093543,317.662992,21563.733705,12158.209045,-302.732027,4019.000115,0.004000,-0.022000,1.010000,192.000000,0.000000,0.000000,0.000000,0.000000,0.000000,0.000000,0.000000,0.000000,0.000000,1769524296.307777,0.000000
100.000000,15198.806250,14526.778701,3881.291018,-2858.676357,6242.261081,-10246.397286,694.602811,-17990.069746,12734.146444,11190.467917,-8758.396954,378.660903,21606.313778,12219.564583,-237.062602,4064.664729,0.004000,-0.022000,1.010000,192.000000,0.000000,0.000000,0.000000,0.000000,0.000000,0.000000,0.000000,0.000000,0.000000,1769524296.307802,0.000000
102.000000,15184.076450,14508.852602,3797.002589,-2947.815114,6230.235842,-10308.646895,613.309516,-18102.566076,12733.006505,11165.009280,-8799.814737,348.888379,21584.252606,12198.352778,-260.017843,4050.449020,0.004000,-0.022000,1.010000,192.000000,0.000000,0.000000,0.000000,0.000000,0.000000,0.000000,0.000000,0.000000,0.000000,1769524296.307828,0.000000
104.000000,15205.377663,14537.127559,3868.885800,-2875.797793,6249.346584,-10269.956025,682.890497,-18010.700406,12797.156012,11162.237664,-8837.209205,319.428780,21584.252606,12182.237170,-280.581448,4033.573453,0.006000,-0.024000,1.012000,192.000000,0.000000,24.000000,127.500000,32.000000,15.500000,80.000000,0.000000,0.000000,0.000000,1769524296.307878,0.000000
106.000000,15178.935549,14506.080986,3842.622500,-2906.643201,6232.649831,-10286.295150,655.867238,-18050.084180,12688.526534,11178.710899,-8753.636033,379.689083,21613.578095,12256.310851,-220.522311,4070.185610,0.006000,-0.024000,1.012000,192.000000,0.000000,0.000000,0.000000,0.000000,0.000000,0.000000,0.000000,0.000000,0.000000,1769524296.307904,0.000000
108.000000,15200.661445,14529.170338,3817.342677,-2930.134884,6251.201779,-10304.802394,632.017926,-18082.538913,12793.780898,11147.530216,-8855.358822,302.441454,21554.100103,12167.507370,-289.589201,4025.236252,0.006000,-0.024000,1.012000,192.000000,0.000000,0.000000,0.000000,0.000000,0.000000,0.000000,0.000000,0.000000,0.000000,1769524296.307927,0.000000
110.000000,15193.620645,14527.762178,3886.163698,-2858.385784,6247.469037,-10265.552731,697.597944,-17992.573141,12725.943354,11191.607856,-8764.588388,377.006874,21645.943421,12212.032045,-219.248261,4062.720127,0.006000,-0.024000,1.012000,192.000000,0.000000,0.000000,0.000000,0.000000,0.000000,0.000000,0.000000,0.000000,0.000000,1769524296.307950,0.000000
112.000000,15186.803363,14512.741806,3806.502081,-2943.590634,6236.047296,-10295.861697,618.875100,-18099.012148,12727.932659,11168.809076,-8802.273429,348.866027,21585.258434,12185.768746,-246.897369,4046.224540,0.006000,-0.024000,1.012000,192.000000,0.000000,0.000000,0.000000,0.000000,0.000000,0.000000,0.000000,0.000000,0.000000,1769524296.307973,0.000000
114.000000,15213.983084,14547.476417,3878.921733,-2868.756994,6265.506895,-10249.101847,689.126633,-18002.609074,12801.581657,11169.658443,-8833.834092,324.860254,21584.967862,12181.410155,-266.522201,4030.555967,0.007000,-0.023000,1.012000,192.000000,0.000000,32.000000,127.500000,40.000000,15.500000,80.000000,0.000000,0.000000,0.000000,1769524296.307996,0.000000
116.000000,15187.540971,14515.714588,3842.242520,-2898.820090,6226.346639,-10269.933673,657.677729,-18045.502072,12693.265103,11194.446527,-8748.182207,391.736673,21631.548897,12245.827883,-209.480549,4072.510192,0.007000,-0.023000,1.012000,192.000000,0.000000,0.000000,0.000000,0.000000,0.000000,0.000000,0.000000,0.000000,0.000000,1769524296.308020,0.000000
118.000000,15207.635189,14533.797149,3818.929651,-2930.045477,6247.156113,-10285.758708,632.643775,-18079.432020,12796.597218,11152.179379,-8851.648432,311.695076,21547.104007,12173.318824,-292.673742,4040.748363,0.007000,-0.023000,1.012000,192.000000,0.000000,0.000000,0.000000,0.000000,0.000000,0.000000,0.000000,0.000000,0.000000,1769524296.308043,0.000000
120.000000,15197.666311,14525.906983,3883.392082,-2857.335252,6241.769343,-10253.996879,696.323895,-17992.707252,12727.329162,11186.958693,-8764.253111,376.135156,21612.505211,12238.563566,-225.283232,4077.762851,0.007000,-0.023000,1.012000,192.000000,0.000000,0.000000,0.000000,0.000000,0.000000,0.000000,0.000000,0.000000,0.000000,1769524296.308067,0.000000
122.000000,15194.537067,14512.495936,3806.882060,-2939.924948,6230.682877,-10292.464232,621.691420,-18096.419346,12732.604174,11170.172533,-8798.071301,351.123554,21589.281748,12214.848365,-257.022709,4053.108877,0.007000,-0.023000,1.012000,192.000000,0.000000,0.000000,0.000000,0.000000,0.000000,0.000000,0.000000,0.000000,0.000000,1769524296.308090,0.000000
124.000000,15213.983084,14536.457007,3873.199686,-2869.494601,6253.548712,-10259.920092,688.344322,-18009.180487,12810.365893,11171.245417,-8833.007077,322.289803,21642.970639,12193.524801,-288.359855,4036.121552,0.006500,-0.021500,1.007000,192.000000,0.000000,24.000000,127.500000,48.000000,15.500000,40.000000,0.000000,0.000000,0.000000,1769524296.308114,0.000000
126.000000,15185.551665,14505.477489,3848.031622,-2900.876451,6234.281508,-10282.316540,659.734089,-18047.826653,12693.130993,11179.560265,-8751.445562,380.605505,21573.590824,12241.603403,-209.748770,4077.025244,0.006500,-0.021500,1.007000,192.000000,0.000000,0.000000,0.000000,0.000000,0.000000,0.000000,0.000000,0.000000,0.000000,1769524296.308138,0.000000
128.000000,15207.434023,14531.025533,3819.331982,-2926.826826,6241.389363,-10311.485566,635.750668,-18079.297910,12802.498079,11151.709992,-8849.077982,310.085751,21578.217635,12168.021461,-285.610591,4021.749380,0.006500,-0.021500,1.007000,192.000000,0.000000,0.000000,0.000000,0.000000,0.000000,0.000000,0.000000,0.000000,0.000000,1769524296.308161,0.000000
130.000000,15195.654654,14524.655285,3883.816765,-2857.871694,6237.924843,-10267.653795,698.559069,-17992.282568,12733.565299,11189.998530,-8761.392088,377.588019,21617.959037,12224.079636,-221.505788,4062.586017,0.006500,-0.021500,1.007000,192.000000,0.000000,0.000000,0.000000,0.000000,0.000000,0.000000,0.000000,0.000000,0.000000,1769524296.308185,0.000000
132.000000,15198.694491,14523.291829,3810.950078,-2936.438076,6230.571119,-10279.634330,625.625327,-18090.406727,12734.615831,11172.094783,-8795.947885,354.141039,21587.583016,12211.607362,-255.502791,4042.782371,0.006500,-0.021500,1.007000,192.000000,0.000000,0.000000,0.000000,0.000000,0.000000,0.000000,0.000000,0.000000,0.000000,1769524296.308208,0.000000
134.000000,15206.919933,14537.105207,3875.613675,-2868.712290,6256.230921,-10255.673260,687.360845,-18013.092043,12817.026713,11179.470859,-8827.061513,329.978803,21600.435269,12184.673510,-281.475518,4026.443246,0.005250,-0.021750,1.003500,192.000000,0.000000,16.000000,127.500000,40.000000,15.500000,32.000000,0.000000,0.000000,0.000000,1769524296.308232,0.000000
136.000000,15187.563322,14511.445404,3852.077288,-2892.181622,6236.941366,-10275.834534,662.595113,-18043.959802,12686.939560,11179.627321,-8756.564111,382.415996,21626.765624,12259.060116,-209.435846,4081.607351,0.005250,-0.021750,1.003500,192.000000,0.000000,0.000000,0.000000,0.000000,0.000000,0.000000,0.000000,0.000000,0.000000,1769524296.308264,0.000000
138.000000,15209.758605,14538.356905,3823.668220,-2922.423532,6255.627424,-10281.243656,635.527150,-18076.861570,12805.783785,11163.668175,-8844.361764,317.908861,21565.186568,12186.260484,-292.271410,4027.560833,0.005250,-0.021750,1.003500,192.000000,0.000000,0.000000,0.000000,0.000000,0.000000,0.000000,0.000000,0.000000,0.000000,1769524296.308287,0.000000
140.000000,15193.419480,14522.777739,3889.807032,-2859.793944,6243.758648,-10251.605243,696.770930,-17992.550789,12736.336915,11195.720577,-8757.815809,379.554973,21605.509115,12211.205031,-219.292965,4065.871723,0.005250,-0.021750,1.003500,192.000000,0.000000,0.000000,0.000000,0.000000,0.000000,0.000000,0.000000,0.000000,0.000000,1769524296.308311,0.000000
142.000000,15190.133773,14512.093605,3809.497214,-2939.142637,6231.956927,-10296.778118,622.786656,-18094.720613,12733.520595,11166.909178,-8793.690359,351.749402,21602.491629,12201.012635,-251.390070,4053.622967,0.005250,-0.021750,1.003500,192.000000,0.000000,0.000000,0.000000,0.000000,0.000000,0.000000,0.000000,0.000000,0.000000,1769524296.308334,0.000000
144.000000,15206.472898,14538.267498,3876.127765,-2868.399366,6254.241616,-10265.843304,688.523136,-18009.649874,12807.281352,11172.050079,-8828.849653,327.095428,21628.665522,12196.296417,-278.167460,4038.379078,0.005625,-0.022875,1.002750,192.000000,0.000000,24.000000,127.500000,32.000000,15.500000,40.000000,0.000000,0.000000,0.000000,1769524296.308357,0.000000
146.000000,15176.476857,14500.604808,3847.651642,-2900.719988,6232.471017,-10291.145479,660.494049,-18047.781950,12685.218475,11187.293969,-8751.333803,387.221621,21582.218597,12229.891089,-217.929508,4079.707453,0.005625,-0.022875,1.002750,192.000000,0.000000,0.000000,0.000000,0.000000,0.000000,0.000000,0.000000,0.000000,0.000000,1769524296.308380,0.000000
148.000000,15198.247456,14522.554221,3821.477750,-2927.787951,6242.618709,-10297.515726,633.739011,-18083.321224,12791.009282,11151.508826,-8852.833075,312.186815,21574.931929,12168.759068,-285.320018,4028.432551,0.005625,-0.022875,1.002750,192.000000,0.000000,0.000000,0.000000,0.000000,0.000000,0.000000,0.000000,0.000000,0.000000,1769524296.308403,0.000000
150.000000,15186.870418,14517.793300,3885.537849,-2850.786191,6232.471017,-10243.871539,697.687351,-17995.791792,12722.970572,11189.149164,-8769.706937,377.029225,21592.053365,12221.352723,-226.222006,4068.017491,0.005625,-0.022875,1.002750,192.000000,0.000000,0.000000,0.000000,0.000000,0.000000,0.000000,0.000000,0.000000,0.000000,1769524296.308441,0.000000
152.000000,15190.536105,14512.361826,3809.586621,-2930.559567,6232.985107,-10273.956987,623.233691,-18094.295930,12727.552679,11170.373699,-8798.741853,355.169219,21591.159295,12226.135996,-263.236494,4053.801781,0.005625,-0.022875,1.002750,192.000000,0.000000,0.000000,0.000000,0.000000,0.000000,0.000000,0.000000,0.000000,0.000000,1769524296.308465,0.000000
154.000000,15203.813041,14530.399684,3871.478602,-2870.321616,6256.230921,-10257.461400,684.566877,-18013.807298,12800.508773,11169.345518,-8833.901147,325.642565,21612.549914,12209.193374,-281.631980,4034.199302,0.007812,-0.024438,1.002375,192.000000,0.000000,40.000000,127.500000,24.000000,15.500000,40.000000,0.000000,0.000000,0.000000,1769524296.308488,0.000000
156.000000,15179.807267,14501.275361,3846.779924,-2898.685980,6224.759665,-10290.497278,659.510572,-18048.072523,12683.050356,11179.582617,-8752.540797,381.566630,21590.108763,12209.774519,-204.876090,4068.956264,0.007812,-0.024438,1.002375,192.000000,0.000000,0.000000,0.000000,0.000000,0.000000,0.000000,0.000000,0.000000,0.000000,1769524296.308511,0.000000
158.000000,15195.408785,14517.905059,3815.621592,-2924.949279,6246.843189,-10300.108528,632.040278,-18088.529180,12790.942227,11154.258091,-8853.056592,310.622193,21562.772580,12165.808638,-288.829242,4024.208072,0.007812,-0.024438,1.002375,192.000000,0.000000,0.000000,0.000000,0.000000,0.000000,0.000000,0.000000,0.000000,0.000000,1769524296.308534,0.000000
160.000000,15180.768392,14507.310332,3879.994617,-2854.831857,6237.991898,-10252.141685,694.692218,-18004.598380,12717.226174,11185.416423,-8779.318187,369.586095,21602.245760,12213.708426,-224.657384,4068.218657,0.007812,-0.024438,1.002375,192.000000,0.000000,0.000000,0.000000,0.000000,0.000000,0.000000,0.000000,0.000000,0.000000,1769524296.308558,0.000000
162.000000,15190.178477,14509.500803,3807.127930,-2933.979384,6231.487540,-10301.941371,621.512606,-18098.900390,12723.752883,11169.144353,-8805.223859,349.916559,21584.856103,12199.068034,-252.865285,4049.979633,0.007812,-0.024438,1.002375,192.000000,0.000000,0.000000,0.000000,0.000000,0.000000,0.000000,0.000000,0.000000,0.000000,1769524296.308581,0.000000
164.000000,15217.514660,14543.006068,3876.887724,-2866.521819,6260.969491,-10267.743202,690.177165,-18006.878258,12803.302741,11177.325091,-8834.258775,330.202321,21603.720975,12208.813394,-283.263657,4030.198339,0.007906,-0.023219,1.004188,192.000000,0.000000,32.000000,127.500000,40.000000,15.500000,56.000000,0.000000,0.000000,0.000000,1769524296.308605,0.000000
166.000000,15187.764488,14509.679617,3843.762439,-2896.160233,6225.430217,-10274.180505,661.142249,-18044.764464,12683.855019,11189.529144,-8750.104457,389.814423,21617.288484,12234.137921,-216.968383,4072.309026,0.007906,-0.023219,1.004188,192.000000,0.000000,0.000000,0.000000,0.000000,0.000000,0.000000,0.000000,0.000000,0.000000,1769524296.308628,0.000000
168.000000,15217.358198,14535.585288,3815.621592,-2924.234024,6246.418505,-10298.700368,634.364859,-18079.610834,12800.799346,11162.505884,-8845.993441,318.869986,21538.766806,12182.527743,-300.653315,4024.699810,0.007906,-0.023219,1.004188,192.000000,0.000000,0.000000,0.000000,0.000000,0.000000,0.000000,0.000000,0.000000,0.000000,1769524296.308651,0.000000
170.000000,15197.733366,14519.514384,3882.028625,-2854.585988,6239.914148,-10244.855016,695.742750,-18000.664473,12736.515729,11194.044196,-8766.398879,379.778490,21631.906525,12224.638429,-234.827427,4067.861029,0.007906,-0.023219,1.004188,192.000000,0.000000,0.000000,0.000000,0.000000,0.000000,0.000000,0.000000,0.000000,0.000000,1769524296.308675,0.000000
172.000000,15187.652729,14502.504707,3806.502081,-2938.539140,6222.949174,-10298.968589,618.830397,-18110.433890,12732.581822,11166.864475,-8803.055740,346.742612,21569.008716,12190.887295,-255.078108,4046.582168,0.007906,-0.023219,1.004188,192.000000,0.000000,0.000000,0.000000,0.000000,0.000000,0.000000,0.000000,0.000000,0.000000,1769524296.308698,0.000000
174.000000,15202.673102,14525.750521,3871.925637,-2871.685072,6252.833456,-10260.657699,682.555220,-18028.693560,12806.901372,11168.630262,-8844.115894,313.572623,21588.946472,12198.844516,-291.958486,4038.803761,0.007953,-0.020609,1.003094,192.000000,0.000000,32.000000,127.500000,56.000000,15.500000,40.000000,0.000000,0.000000,0.000000,1769524296.308721,0.000000
176.000000,15176.812133,14497.229695,3845.103543,-2899.758863,6220.021095,-10272.191199,657.364804,-18061.975308,12686.783098,11180.789611,-8765.571864,372.245952,21610.605313,12231.411008,-206.977154,4075.013587,0.007953,-0.020609,1.003094,192.000000,0.000000,0.000000,0.000000,0.000000,0.000000,0.000000,0.000000,0.000000,0.000000,1769524296.308745,0.000000
178.000000,15208.216334,14529.147986,3817.521491,-2927.765599,6252.140552,-10296.152269,631.928519,-18092.083107,12803.146279,11162.170608,-8856.811685,306.151844,21563.174911,12180.784307,-287.756358,4018.329563,0.007953,-0.020609,1.003094,192.000000,0.000000,0.000000,0.000000,0.000000,0.000000,0.000000,0.000000,0.000000,0.000000,1769524296.308768,0.000000
180.000000,15192.011320,14519.223812,3874.764308,-2861.179752,6235.287337,-10264.926882,692.524098,-18007.638217,12736.247508,11196.122908,-8775.965425,368.312045,21617.132022,12226.381865,-222.601023,4061.356671,0.007953,-0.020609,1.003094,192.000000,0.000000,0.000000,0.000000,0.000000,0.000000,0.000000,0.000000,0.000000,0.000000,1769524296.308792,0.000000
182.000000,15190.357291,14513.345303,3796.443796,-2941.288405,6224.089113,-10299.661493,618.763342,-18105.203581,12729.877261,11169.144353,-8809.046007,343.725126,21640.288429,12210.378016,-255.726308,4050.761944,0.007953,-0.020609,1.003094,192.000000,0.000000,0.000000,0.000000,0.000000,0.000000,0.000000,0.000000,0.000000,0.000000,1769524296.308815,0.000000
184.000000,15212.440814,14541.240280,3866.181238,-2871.886238,6251.917035,-10261.551769,683.762215,-18016.645970,12809.605933,11177.146277,-8840.360801,322.759190,21544.734722,12186.752222,-284.537707,4024.476293,0.007953,-0.020609,1.003094,192.000000,0.000000,0.000000,0.000000,0.000000,0.000000,0.000000,0.000000,0.000000,0.000000,1769524296.308839,0.000000
186.000000,15176.499209,14500.180125,3843.203645,-2902.105797,6217.048313,-10281.198952,658.638854,-18056.990869,12687.543057,11185.125850,-8758.195789,380.493746,21596.814286,12249.784142,-214.733209,4065.357633,0.008000,-0.016000,1.004000,192.000000,0.000000,32.000000,127.500000,64.000000,15.500000,48.000000,0.000000,0.000000,0.000000,1769524296.308863,0.000000
188.000000,15194.671177,14519.089701,3811.687685,-2933.509998,6229.632345,-10307.462252,627.815798,-18099.258017,12793.915009,11151.866454,-8860.075040,300.876832,21546.791082,12188.719176,-298.172271,4023.671630,0.008000,-0.016000,1.004000,192.000000,0.000000,0.000000,0.000000,0.000000,0.000000,0.000000,0.000000,0.000000,0.000000,1769524296.308886,0.000000
190.000000,15183.115325,14514.038207,3877.625332,-2864.487811,6224.312630,-10256.455571,692.814671,-18006.364167,12719.707217,11182.287178,-8780.636940,360.734804,21616.081490,12223.923173,-236.280291,4061.826058,0.008000,-0.016000,1.004000,192.000000,0.000000,0.000000,0.000000,0.000000,0.000000,0.000000,0.000000,0.000000,0.000000,1769524296.308909,0.000000
192.000000,15181.550703,14504.404605,3802.478767,-2942.271881,6218.232956,-10307.931639,617.958679,-18104.555381,12720.802453,11161.723573,-8806.252039,341.624062,21573.501417,12198.598647,-255.458087,4047.856217,0.008000,-0.016000,1.004000,192.000000,0.000000,0.000000,0.000000,0.000000,0.000000,0.000000,0.000000,0.000000,0.000000,1769524296.308933,0.000000
194.000000,15200.370872,14528.097454,3868.103488,-2875.708386,6237.678973,-10278.427336,681.549392,-18018.836441,12801.894582,11163.332899,-8841.858368,313.013829,21568.673440,12193.681263,-284.940038,4022.174063,0.008000,-0.016000,1.004000,192.000000,0.000000,0.000000,0.000000,0.000000,0.000000,0.000000,0.000000,0.000000,0.000000,1769524296.308956,0.000000
196.000000,15177.259168,14499.598980,3842.890721,-2900.764692,6217.852976,-10287.099813,659.287054,-18046.686714,12685.196124,11176.185152,-8754.239530,378.482089,21613.332225,12229.846386,-223.897424,4062.831886,0.006000,-0.018000,1.004000,192.000000,0.000000,24.000000,127.500000,56.000000,15.500000,48.000000,0.000000,0.000000,0.000000,1769524296.308979,0.000000
198.000000,15190.156125,14511.534811,3813.766398,-2942.338937,6226.480749,-10326.572994,626.653508,-18092.418384,12786.404823,11134.812073,-8855.694098,296.227669,21572.048553,12175.576350,-296.115911,4014.730932,0.006000,-0.018000,1.004000,192.000000,0.000000,0.000000,0.000000,0.000000,0.000000,0.000000,0.000000,0.000000,0.000000,1769524296.309002,0.000000
200.000000,15182.891808,14506.930352,3884.599076,-2862.096174,6222.993877,-10267.854961,693.708741,-18001.379728,12724.423435,11169.412574,-8772.858533,356.487972,21576.496551,12220.659819,-229.753581,4054.628796,0.006000,-0.018000,1.004000,192.000000,0.000000,0.000000,0.000000,0.000000,0.000000,0.000000,0.000000,0.000000,0.000000,1769524296.309028,0.000000
202.000000,15181.640110,14501.364768,3808.692552,-2939.835541,6216.534223,-10299.996769,620.506778,-18099.459183,12726.099816,11160.449524,-8800.395882,342.093449,21593.506228,12188.070975,-263.750585,4038.893168,0.006000,-0.018000,1.004000,192.000000,0.000000,0.000000,0.000000,0.000000,0.000000,0.000000,0.000000,0.000000,0.000000,1769524296.309052,0.000000
204.000000,15195.297026,14520.140233,3866.963549,-2882.771538,6242.819875,-10295.034682,678.107223,-18022.546830,12808.600105,11161.611815,-8840.070229,313.460864,21583.514998,12179.107926,-286.549364,4013.412179,0.006000,-0.018000,1.004000,192.000000,0.000000,0.000000,0.000000,0.000000,0.000000,0.000000,0.000000,0.000000,0.000000,1769524296.309075,0.000000
206.000000,15186.423384,14506.773890,3849.395078,-2896.406102,6220.870462,-10280.438993,657.633025,-18048.161930,12689.889990,11171.290120,-8757.212312,372.313007,21621.356502,12231.232194,-220.119979,4068.956264,0.012000,-0.022000,1.006000,192.000000,0.000000,48.000000,127.500000,40.000000,15.500000,56.000000,0.000000,0.000000,0.000000,1769524296.309098,0.000000
208.000000,15198.225105,14526.555184,3811.844148,-2929.665498,6225.787845,-10293.782984,626.698211,-18092.396032,12812.601067,11165.076335,-8849.614423,309.549309,21572.316774,12185.388766,-299.535727,4022.486987,0.012000,-0.022000,1.006000,192.000000,0.000000,0.000000,0.000000,0.000000,0.000000,0.000000,0.000000,0.000000,0.000000,1769524296.309121,0.000000
210.000000,15184.188209,14519.424977,3879.614637,-2858.810468,6223.195043,-10252.700478,692.524098,-18001.670301,12719.282534,11185.103498,-8779.765222,364.758118,21577.323565,12248.733610,-237.286119,4065.648206,0.012000,-0.022000,1.006000,192.000000,0.000000,0.000000,0.000000,0.000000,0.000000,0.000000,0.000000,0.000000,0.000000,1769524296.787737,0.000000
212.000000,15170.307776,14506.237448,3804.088092,-2941.288405,6215.841319,-10303.260124,618.696287,-18103.795422,12715.147461,11177.995643,-8805.156804,348.262530,21579.603443,12216.860022,-256.441564,4044.324642,0.012000,-0.022000,1.006000,192.000000,0.000000,0.000000,0.000000,0.000000,0.000000,0.000000,0.000000,0.000000,0.000000,1769524296.787793,0.000000
214.000000,15195.006453,14543.073123,3871.389195,-2872.042700,6246.530264,-10273.755821,682.219944,-18020.803394,12781.822715,11186.176382,-8847.133380,318.914690,21594.243836,12203.337217,-280.112062,4015.177967,0.012000,-0.022000,1.006000,192.000000,0.000000,0.000000,0.000000,0.000000,0.000000,0.000000,0.000000,0.000000,0.000000,1769524296.787831,0.000000
216.000000,15160.450656,14504.270494,3845.058840,-2894.148576,6214.254345,-10291.704272,655.621368,-18056.789703,12659.469266,11203.141356,-8766.555341,378.750310,21584.543179,12232.997982,-222.399857,4063.591845,0.008000,-0.024000,1.006000,192.000000,0.000000,32.000000,127.500000,32.000000,15.500000,56.000000,0.000000,0.000000,0.000000,1769524296.787869,0.000000
218.000000,15177.683851,14526.398722,3809.988953,-2931.341878,6224.536148,-10311.485566,620.931461,-18101.783765,12755.917043,11177.503905,-8871.675595,302.620268,21576.228330,12184.852324,-298.015809,4026.666764,0.008000,-0.024000,1.006000,192.000000,0.000000,0.000000,0.000000,0.000000,0.000000,0.000000,0.000000,0.000000,0.000000,1769524296.787914,0.000000
220.000000,15167.469104,14522.308352,3874.317273,-2859.190447,6221.563366,-10268.458458,685.930334,-18011.370958,12682.156286,11210.919763,-8797.288990,359.505458,21589.527618,12256.556720,-220.231738,4063.256569,0.008000,-0.024000,1.006000,192.000000,0.000000,0.000000,0.000000,0.000000,0.000000,0.000000,0.000000,0.000000,0.000000,1769524296.787952,0.000000
222.000000,15166.128000,14512.138309,3795.527374,-2938.136809,6205.693627,-10300.488508,613.041295,-18109.316302,12683.452688,11196.257019,-8819.976010,344.730955,21565.454789,12217.597630,-259.257884,4054.539389,0.008000,-0.024000,1.006000,192.000000,0.000000,0.000000,0.000000,0.000000,0.000000,0.000000,0.000000,0.000000,0.000000,1769524296.787968,0.000000
224.000000,15182.534180,14534.713570,3859.363956,-2875.395462,6229.118255,-10282.227133,674.977979,-18027.888897,12760.320337,11189.730309,-8861.729069,312.835015,21544.555908,12188.763879,-288.426910,4025.079790,0.008000,-0.024000,1.006000,192.000000,0.000000,0.000000,0.000000,0.000000,0.000000,0.000000,0.000000,0.000000,0.000000,1769524296.787980,0.000000
226.000000,15167.714973,14514.708759,3842.063706,-2895.377922,6217.428293,-10281.087194,656.247217,-18051.581747,12644.068914,11208.259905,-8769.796344,377.878592,21583.291481,12256.132037,-217.460122,4066.743441,0.006000,-0.022000,1.008000,192.000000,0.000000,24.000000,127.500000,40.000000,15.500000,64.000000,0.000000,0.000000,0.000000,1769524296.787990,0.000000
228.000000,15188.412689,14535.674695,3812.626459,-2930.917195,6227.486578,-10298.163926,625.111237,-18093.670081,12754.352421,11183.963559,-8865.350052,308.051742,21552.244908,12193.144821,-294.081902,4018.217804,0.006000,-0.022000,1.008000,192.000000,0.000000,0.000000,0.000000,0.000000,0.000000,0.000000,0.000000,0.000000,0.000000,1769524296.788001,0.000000
230.000000,15181.394241,14532.098416,3880.732224,-2859.033985,6224.402037,-10248.319536,691.607677,-18000.262141,12697.556638,11215.635981,-8782.961522,368.937894,21607.900752,12250.342935,-231.944052,4060.887284,0.006000,-0.022000,1.008000,192.000000,0.000000,0.000000,0.000000,0.000000,0.000000,0.000000,0.000000,0.000000,0.000000,1769524296.788012,0.000000
232.000000,15185.618721,14529.259745,3805.898584,-2935.342841,6222.189214,-10285.088156,618.740990,-18094.206523,12691.901647,11194.200658,-8810.409464,349.357766,21563.174911,12222.336200,-252.597064,4047.967976,0.006000,-0.022000,1.008000,192.000000,0.000000,0.000000,0.000000,0.000000,0.000000,0.000000,0.000000,0.000000,0.000000,1769524296.788023,0.000000
234.000000,15212.530221,14565.491923,3869.779869,-2862.118526,6248.296052,-10268.145534,682.152889,-18004.196048,12784.750794,11211.053873,-8838.639717,334.382097,21567.466446,12212.970819,-284.425948,4021.347048,0.006000,-0.022000,1.008000,192.000000,0.000000,0.000000,0.000000,0.000000,0.000000,0.000000,0.000000,0.000000,0.000000,1769524296.788033,0.000000
236.000000,15182.467125,14531.472567,3844.790619,-2884.380863,6214.321400,-10289.156173,659.331758,-18037.723665,12662.509103,11224.599031,-8756.295890,398.665714,21600.010586,12266.771468,-221.796360,4073.493668,0.006000,-0.024000,1.004000,192.000000,0.000000,24.000000,127.500000,32.000000,15.500000,48.000000,0.000000,0.000000,0.000000,1769524296.788043,0.000000
238.000000,15200.884962,14548.839873,3812.201776,-2921.015372,6235.577909,-10315.888860,627.346412,-18081.644843,12764.678927,11194.737100,-8857.459886,324.793199,21574.775466,12185.388766,-294.238364,4025.392714,0.006000,-0.024000,1.004000,192.000000,0.000000,0.000000,0.000000,0.000000,0.000000,0.000000,0.000000,0.000000,0.000000,1769524296.788054,0.000000
240.000000,15192.301892,14545.241242,3885.649608,-2847.522837,6228.537110,-10260.948272,695.943915,-17987.968682,12702.943409,11223.436740,-8778.088841,380.225525,21625.022188,12255.819113,-228.434828,4066.363462,0.006000,-0.024000,1.004000,192.000000,0.000000,0.000000,0.000000,0.000000,0.000000,0.000000,0.000000,0.000000,0.000000,1769524296.788065,0.000000
242.000000,15184.925817,14532.098416,3810.279526,-2932.057134,6209.761645,-10305.227078,620.037391,-18089.713823,12698.897743,11204.370702,-8798.183059,361.651225,21553.787178,12235.613136,-255.972178,4041.061287,0.006000,-0.024000,1.004000,192.000000,0.000000,0.000000,0.000000,0.000000,0.000000,0.000000,0.000000,0.000000,0.000000,1769524296.788076,0.000000
244.000000,15198.068642,14553.064353,3870.048090,-2863.526686,6226.793674,-10273.062917,681.862316,-18010.722758,12769.685718,11202.716673,-8843.378287,328.905920,21563.532539,12227.499453,-301.770902,4021.101179,0.006000,-0.024000,1.004000,192.000000,0.000000,0.000000,0.000000,0.000000,0.000000,0.000000,0.000000,0.000000,0.000000,1769524296.788087,0.000000
246.000000,15169.883093,14521.302524,3845.908206,-2884.313808,6197.669351,-10298.454499,661.075194,-18039.444749,12646.304088,11213.557269,-8758.687527,391.915487,21579.804609,12229.309944,-224.545625,4066.832848,0.012000,-0.024000,1.012000,192.000000,0.000000,48.000000,127.500000,32.000000,15.500000,80.000000,0.000000,0.000000,0.000000,1769524296.788097,0.000000
248.000000,15194.849991,14545.420056,3810.279526,-2919.294288,6219.462302,-10306.411720,629.447476,-18081.197808,12744.562357,11181.281350,-8861.639662,316.411295,21547.819262,12195.536458,-304.877794,4014.663877,0.012000,-0.024000,1.012000,192.000000,0.000000,0.000000,0.000000,0.000000,0.000000,0.000000,0.000000,0.000000,0.000000,1769524296.788108,0.000000
250.000000,15189.686738,14544.257765,3879.413471,-2844.080668,6221.339848,-10257.059068,697.687351,-17986.269949,12691.834592,11220.955696,-8776.792440,379.197345,21585.370193,12255.170912,-247.254997,4056.081659,0.012000,-0.024000,1.012000,192.000000,0.000000,0.000000,0.000000,0.000000,0.000000,0.000000,0.000000,0.000000,0.000000,1769524296.788121,0.000000
252.000000,15184.501134,14533.797149,3800.042427,-2926.446846,6212.577964,-10307.529307,620.059743,-18088.819753,12682.156286,11199.073338,-8803.636885,358.276112,21571.512112,12223.319676,-254.027576,4046.023374,0.012000,-0.024000,1.012000,192.000000,0.000000,0.000000,0.000000,0.000000,0.000000,0.000000,0.000000,0.000000,0.000000,1769524296.788131,0.000000
254.000000,15210.116233,14562.586196,3862.359090,-2859.548075,6239.087133,-10253.505141,682.175241,-18006.185354,12771.384450,11203.789556,-8840.383153,332.325737,21554.860062,12238.921194,-300.206280,4028.387848,0.012000,-0.024000,1.012000,192.000000,0.000000,0.000000,0.000000,0.000000,0.000000,0.000000,0.000000,0.000000,0.000000,1769524296.788141,0.000000
0.000000,15182.668290,14526.108149,3845.796447,-2878.971741,6218.545880,-10277.242694,662.058671,-18036.315505,12648.449856,11220.016923,-8755.379469,394.865918,21618.316664,12264.670404,-226.467875,4074.499497,0.010000,-0.022000,1.010000,192.000000,0.000000,32.000000,127.500000,48.000000,15.500000,64.000000,0.000000,0.000000,0.000000,1769524296.788153,0.000000
2.000000,15209.199811,14551.544434,3816.515662,-2914.063980,6240.160017,-10299.706197,631.883816,-18076.883921,12756.855816,11192.166649,-8852.587205,322.021582,21560.984440,12199.850345,-293.836033,4015.870871,0.010000,-0.022000,1.010000,192.000000,0.000000,0.000000,0.000000,0.000000,0.000000,0.000000,0.000000,0.000000,0.000000,1769524296.788163,0.000000
4.000000,15186.333977,14531.427864,3880.843983,-2848.551017,6229.341773,-10274.605188,694.803976,-17998.518705,12700.104737,11225.314286,-8777.306530,379.487917,21601.575208,12251.259357,-235.207407,4060.395546,0.010000,-0.022000,1.010000,192.000000,0.000000,0.000000,0.000000,0.000000,0.000000,0.000000,0.000000,0.000000,0.000000,1769524296.788174,0.000000
6.000000,15179.024956,14516.675713,3801.092959,-2932.414762,6214.634325,-10309.518613,617.444589,-18103.795422,12678.244731,11191.294931,-8815.840938,344.909769,21567.064114,12241.670459,-241.018860,4051.633662,0.010000,-0.022000,1.010000,192.000000,0.000000,0.000000,0.000000,0.000000,0.000000,0.000000,0.000000,0.000000,0.000000,1769524296.788195,0.000000
8.000000,15207.366968,14551.030344,3864.638968,-2863.280816,6253.079325,-10262.356432,680.968247,-18017.338874,12770.199808,11200.280333,-8851.067287,319.741704,21575.021335,12204.007769,-282.995437,4028.745476,0.010000,-0.022000,1.010000,192.000000,0.000000,0.000000,0.000000,0.000000,0.000000,0.000000,0.000000,0.000000,0.000000,1769524296.788221,0.000000
10.000000,15182.198904,14521.749559,3844.745916,-2884.000884,6226.503101,-10266.603263,661.835153,-18044.362133,12648.896891,11215.658333,-8763.649614,383.086548,21620.797708,12270.392450,-215.381410,4075.259456,0.008000,-0.019000,1.010000,192.000000,0.000000,24.000000,127.500000,64.000000,15.500000,72.000000,0.000000,0.000000,0.000000,1769524296.788244,0.000000
12.000000,15203.768337,14545.218890,3813.408770,-2917.908480,6238.394229,-10283.925865,628.955737,-18087.813924,12759.046287,11194.200658,-8858.309252,315.271356,21559.397466,12222.447958,-297.591126,4028.410200,0.008000,-0.019000,1.010000,192.000000,0.000000,0.000000,0.000000,0.000000,0.000000,0.000000,0.000000,0.000000,0.000000,1769524296.788267,0.000000
14.000000,15188.949131,14535.540585,3885.001407,-2847.746354,6236.650793,-10263.049336,695.251011,-17999.971569,12699.881220,11226.767150,-8780.860458,374.525830,21574.797818,12245.894938,-236.280291,4060.864933,0.008000,-0.019000,1.010000,192.000000,0.000000,0.000000,0.000000,0.000000,0.000000,0.000000,0.000000,0.000000,0.000000,1769524296.788290,0.000000
16.000000,15182.265959,14525.258783,3810.637153,-2928.078524,6221.809235,-10318.369903,622.205510,-18098.274541,12683.765612,11196.592295,-8806.810833,352.643472,21563.621946,12235.568432,-243.030517,4044.905787,0.008000,-0.019000,1.010000,192.000000,0.000000,0.000000,0.000000,0.000000,0.000000,0.000000,0.000000,0.000000,0.000000,1769524296.788313,0.000000
18.000000,15201.667273,14551.790303,3868.259951,-2864.890142,6242.775171,-10270.492467,680.431805,-18019.216421,12763.360174,11201.576734,-8850.083810,322.669783,21605.352653,12193.882429,-283.442471,4023.895147,0.008000,-0.019000,1.010000,192.000000,0.000000,0.000000,0.000000,0.000000,0.000000,0.000000,0.000000,0.000000,0.000000,1769524296.788337,0.000000
20.000000,15176.655671,14527.158681,3846.265834,-2881.922171,6217.338886,-10276.370976,661.499877,-18044.026857,12645.097094,11218.139376,-8761.101515,388.339208,21577.323565,12257.182569,-216.096665,4072.353729,0.007000,-0.017500,1.012000,192.000000,0.000000,24.000000,127.500000,64.000000,15.500000,88.000000,0.000000,0.000000,0.000000,1769524296.788360,0.000000
22.000000,15203.142488,14552.706725,3812.112369,-2915.248622,6237.053125,-10291.167830,630.319194,-18083.812962,12755.380601,11190.892600,-8855.269415,320.076981,21561.699696,12222.336200,-300.765073,4025.549176,0.007000,-0.017500,1.012000,192.000000,0.000000,0.000000,0.000000,0.000000,0.000000,0.000000,0.000000,0.000000,0.000000,1769524296.788383,0.000000
24.000000,15183.025918,14536.635820,3876.820669,-2847.791058,6222.345677,-10271.542999,694.647514,-17999.613941,12696.751976,11222.766188,-8778.871152,376.649246,21588.432382,12237.960069,-240.303605,4063.793011,0.007000,-0.017500,1.012000,192.000000,0.000000,0.000000,0.000000,0.000000,0.000000,0.000000,0.000000,0.000000,0.000000,1769524296.788406,0.000000
26.000000,15183.428250,14527.896288,3804.669238,-2925.932756,6221.853938,-10293.827688,622.406676,-18098.721576,12683.139763,11199.296856,-8805.112100,354.990405,21582.285652,12222.671476,-249.289006,4046.872741,0.007000,-0.017500,1.012000,192.000000,0.000000,0.000000,0.000000,0.000000,0.000000,0.000000,0.000000,0.000000,0.000000,1769524296.788432,0.000000
28.000000,15201.399052,14552.773780,3866.605922,-2861.805601,6236.449627,-10282.785926,679.537735,-18021.563354,12767.808171,11205.309475,-8847.356897,323.787370,21580.341051,12213.753130,-290.840899,4032.254700,0.007000,-0.017500,1.012000,192.000000,0.000000,0.000000,0.000000,0.000000,0.000000,0.000000,0.000000,0.000000,0.000000,1769524296.788455,0.000000
30.000000,15175.694546,14522.621277,3851.205570,-2883.844421,6215.416636,-10290.586685,659.979959,-18045.680886,12644.627708,11214.518394,-8760.319204,386.528717,21598.982406,12251.795799,-211.089875,4066.899904,0.007500,-0.017750,1.015000,192.000000,0.000000,32.000000,127.500000,56.000000,15.500000,104.000000,0.000000,0.000000,0.000000,1769524296.788478,0.000000
32.000000,15199.253285,14545.844739,3817.052104,-2917.237928,6232.068686,-10295.325255,628.486351,-18087.501000,12757.213444,11191.294931,-8850.888473,319.384077,21555.351800,12205.728853,-293.254887,4019.134226,0.007500,-0.017750,1.015000,192.000000,0.000000,0.000000,0.000000,0.000000,0.000000,0.000000,0.000000,0.000000,0.000000,1769524296.788501,0.000000
34.000000,15189.485573,14537.865166,3885.359035,-2845.555883,6227.575985,-10253.058106,695.765101,-17997.646987,12696.014368,11223.190871,-8779.251132,373.318836,21612.236990,12254.321546,-231.698183,4064.552970,0.007500,-0.017750,1.015000,192.000000,0.000000,0.000000,0.000000,0.000000,0.000000,0.000000,0.000000,0.000000,0.000000,1769524296.788538,0.000000
36.000000,15189.083241,14530.086759,3810.100712,-2929.062000,6223.463264,-10295.280551,621.289089,-18097.603988,12692.147516,11205.667103,-8801.044083,356.353862,21590.242873,12227.991191,-250.160724,4047.677403,0.007500,-0.017750,1.015000,192.000000,0.000000,0.000000,0.000000,0.000000,0.000000,0.000000,0.000000,0.000000,0.000000,1769524296.788561,0.000000
38.000000,15211.636151,14556.886501,3869.086965,-2866.074785,6248.698383,-10278.427336,679.381273,-18020.289304,12779.475782,11202.761376,-8847.558063,322.535672,21599.675310,12213.529612,-284.180079,4023.246947,0.007500,-0.017750,1.015000,192.000000,0.000000,0.000000,0.000000,0.000000,0.000000,0.000000,0.000000,0.000000,0.000000,1769524296.788584,0.000000
40.000000,15183.294139,14526.242259,3848.053974,-2884.738491,6218.724694,-10285.155211,659.801145,-18045.703238,12654.909510,11223.369685,-8761.079164,388.786243,21611.901714,12251.505226,-216.029610,4068.375119,0.009750,-0.016875,1.017500,192.000000,0.000000,48.000000,127.500000,64.000000,15.500000,112.000000,0.000000,0.000000,0.000000,1769524296.788607,0.000000
42.000000,15210.831488,14550.829178,3813.609935,-2920.434227,6241.970508,-10300.779080,627.055839,-18087.165724,12765.193017,11198.089862,-8853.525979,319.138207,21557.586975,12204.343045,-300.139225,4021.056476,0.009750,-0.016875,1.017500,192.000000,0.000000,0.000000,0.000000,0.000000,0.000000,0.000000,0.000000,0.000000,0.000000,1769524296.788630,0.000000
44.000000,15190.603160,14537.619297,3882.922695,-2849.556845,6233.745066,-10259.674222,692.322933,-17999.613941,12708.777214,11225.403693,-8779.049966,372.067138,21597.529542,12264.804514,-231.072334,4062.943645,0.009750,-0.016875,1.017500,192.000000,0.000000,0.000000,0.000000,0.000000,0.000000,0.000000,0.000000,0.000000,0.000000,1769524296.788654,0.000000
46.000000,15191.296064,14531.785492,3808.401979,-2922.758808,6220.423427,-10300.689674,619.858577,-18093.334805,12691.655778,11205.980027,-8804.374493,355.236275,21602.223408,12217.396464,-245.131581,4048.459714,0.009750,-0.016875,1.017500,192.000000,0.000000,0.000000,0.000000,0.000000,0.000000,0.000000,0.000000,0.000000,0.000000,1769524296.788677,0.000000
48.000000,15212.932552,14559.434600,3865.868314,-2861.492677,6244.920939,-10266.983243,677.950761,-18016.176583,12779.028747,11210.852708,-8845.904034,326.357821,21591.002833,12204.387749,-284.582410,4020.698848,0.009750,-0.016875,1.017500,192.000000,0.000000,0.000000,0.000000,0.000000,0.000000,0.000000,0.000000,0.000000,0.000000,1769524296.788701,0.000000
50.000000,15184.478782,14525.258783,3844.835322,-2883.263276,6220.423427,-10286.563371,657.767136,-18045.882052,12657.055277,11222.520318,-8759.805114,388.428615,21610.582961,12260.132999,-219.382372,4074.052462,0.008875,-0.016438,1.013750,192.000000,0.000000,32.000000,127.500000,64.000000,15.500000,72.000000,0.000000,0.000000,0.000000,1769524296.788724,0.000000
52.000000,15210.809137,14553.153760,3813.274659,-2920.501282,6237.924843,-10309.116281,625.513569,-18087.612759,12757.481665,11190.333806,-8861.125572,313.371457,21558.212824,12213.976647,-293.523108,4020.743551,0.008875,-0.016438,1.013750,192.000000,0.000000,0.000000,0.000000,0.000000,0.000000,0.000000,0.000000,0.000000,0.000000,1769524296.788747,0.000000
54.000000,15202.024901,14549.197501,3882.118032,-2844.706517,6221.608069,-10251.359373,694.871032,-17993.020176,12709.403063,11231.729237,-8778.982911,377.453909,21592.232179,12247.146636,-241.801172,4057.042784,0.008875,-0.016438,1.013750,192.000000,0.000000,0.000000,0.000000,0.000000,0.000000,0.000000,0.000000,0.000000,0.000000,1769524296.788770,0.000000
56.000000,15191.944264,14531.472567,3799.148357,-2925.239852,6218.702342,-10304.243601,616.774036,-18099.615645,12695.790851,11211.903240,-8802.876926,360.488935,21576.429495,12246.900767,-267.818602,4050.784296,0.008875,-0.016438,1.013750,192.000000,0.000000,0.000000,0.000000,0.000000,0.000000,0.000000,0.000000,0.000000,0.000000,1769524296.788794,0.000000
58.000000,15204.550648,14553.779608,3857.329948,-2870.008692,6236.740200,-10278.047356,671.759328,-18026.816014,12767.808171,11201.822603,-8858.778639,319.518187,21567.064114,12197.548115,-284.291838,4029.617194,0.008875,-0.016438,1.013750,192.000000,0.000000,0.000000,0.000000,0.000000,0.000000,0.000000,0.000000,0.000000,0.000000,1769524296.788820,0.000000
60.000000,15183.964692,14532.478396,3843.091886,-2883.598552,6215.483691,-10287.055109,656.224865,-18044.585651,12646.058219,11220.888641,-8767.985853,388.294505,21604.369176,12239.256470,-212.766255,4071.347901,0.011437,-0.016219,1.010875,192.000000,0.000000,56.000000,127.500000,64.000000,15.500000,64.000000,0.000000,0.000000,0.000000,1769524296.788844,0.000000
62.000000,15212.127890,14559.166379,3808.916069,-2918.467274,6235.287337,-10301.337874,624.261871,-18086.003433,12758.331032,11203.320170,-8856.945796,325.776675,21560.470350,12208.746339,-292.003190,4020.788255,0.011437,-0.016219,1.010875,192.000000,0.000000,0.000000,0.000000,0.000000,0.000000,0.000000,0.000000,0.000000,0.000000,1769524296.788868,0.000000
64.000000,15206.629361,14558.965213,3880.955742,-2845.220607,6237.790732,-10256.410868,695.072197,-17988.728641,12709.045435,11237.384228,-8779.586408,381.678388,21615.410938,12281.545971,-236.392049,4054.673499,0.011437,-0.016219,1.010875,192.000000,0.000000,0.000000,0.000000,0.000000,0.000000,0.000000,0.000000,0.000000,0.000000,1769524296.788892,0.000000
66.000000,15203.723634,14550.985640,3803.574002,-2917.506149,6226.436046,-10302.768386,622.250214,-18087.322186,12703.166926,11225.493100,-8795.947885,368.669673,21584.900807,12250.611156,-255.502791,4044.995194,0.011437,-0.016219,1.010875,192.000000,0.000000,0.000000,0.000000,0.000000,0.000000,0.000000,0.000000,0.000000,0.000000,1769524296.788915,0.000000
68.000000,15223.460224,14578.143010,3862.224980,-2857.067032,6245.725601,-10256.455571,679.493031,-18010.186316,12776.458296,11224.733141,-8845.658165,336.527865,21578.687022,12196.363473,-299.066341,4026.264432,0.011437,-0.016219,1.010875,192.000000,0.000000,0.000000,0.000000,0.000000,0.000000,0.000000,0.000000,0.000000,0.000000,1769524296.788938,0.000000
70.000000,15184.277616,14537.507538,3840.119104,-2875.730738,6210.655714,-10277.443859,661.924560,-18039.087121,12654.216606,11244.357973,-8757.011146,402.979601,21626.117423,12269.028994,-222.243395,4069.202133,0.011437,-0.016219,1.010875,192.000000,0.000000,0.000000,0.000000,0.000000,0.000000,0.000000,0.000000,0.000000,0.000000,1769524296.788962,0.000000
72.000000,15199.230933,14550.270385,3805.764473,-2916.232099,6226.301935,-10294.006502,627.502874,-18088.529180,12745.098799,11208.773995,-8862.243159,326.581338,21549.138015,12215.474214,-302.441454,4024.722162,0.014000,-0.016000,1.006000,192.000000,0.000000,56.000000,127.500000,64.000000,15.500000,56.000000,0.000000,0.000000,0.000000,1769524296.788986,0.000000
74.000000,15178.443811,14533.014838,3875.457212,-2845.779401,6216.891851,-10258.780153,693.820500,-18002.564371,12686.112545,11231.885699,-8791.388129,373.721167,21580.162237,12257.629604,-230.290023,4064.620026,0.014000,-0.016000,1.006000,192.000000,0.000000,0.000000,0.000000,0.000000,0.000000,0.000000,0.000000,0.000000,0.000000,1769524297.268612,0.000000
76.000000,15174.465200,14526.309315,3802.568174,-2923.407009,6211.281563,-10298.655665,621.244385,-18100.755584,12667.180618,11217.602935,-8812.935211,357.538504,21546.679324,12235.233156,-250.808925,4047.409182,0.014000,-0.016000,1.006000,192.000000,0.000000,0.000000,0.000000,0.000000,0.000000,0.000000,0.000000,0.000000,0.000000,1769524297.268677,0.000000
78.000000,15188.323282,14544.749504,3857.799334,-2864.577218,6230.302898,-10281.735394,675.492069,-18030.124072,12752.229005,11219.525185,-8862.399621,321.507492,21553.809530,12211.540307,-291.332637,4022.732857,0.014000,-0.016000,1.006000,192.000000,0.000000,0.000000,0.000000,0.000000,0.000000,0.000000,0.000000,0.000000,0.000000,1769524297.268716,0.000000
80.000000,15169.123133,14521.704855,3844.701212,-2879.552886,6205.157185,-10282.361243,661.052842,-18047.312563,12627.193347,11229.985801,-8772.255036,386.327551,21581.749211,12260.356517,-226.579634,4071.236142,0.014000,-0.016000,1.006000,192.000000,0.000000,0.000000,0.000000,0.000000,0.000000,0.000000,0.000000,0.000000,0.000000,1769524297.268756,0.000000
82.000000,15192.883038,14542.782550,3806.367970,-2919.562509,6224.759665,-10304.131842,624.731258,-18096.419346,12737.722723,11207.678760,-8866.557046,316.187777,21578.530559,12212.032045,-308.252908,4024.051610,0.012000,-0.018000,1.008000,192.000000,0.000000,48.000000,127.500000,56.000000,15.500000,64.000000,0.000000,0.000000,0.000000,1769524297.268802,0.000000
84.000000,15173.280558,14529.751483,3875.501916,-2845.935863,6222.390380,-10261.618824,690.043055,-18009.694577,12684.391461,11239.217071,-8796.774900,366.747423,21570.014545,12266.994985,-240.772991,4062.228389,0.012000,-0.018000,1.008000,192.000000,0.000000,0.000000,0.000000,0.000000,0.000000,0.000000,0.000000,0.000000,0.000000,1769524297.268843,0.000000
86.000000,15176.610968,14526.711646,3802.657581,-2922.781160,6214.857842,-10299.706197,619.076266,-18102.499020,12665.236016,11211.523260,-8818.299629,349.648339,21573.859045,12237.043647,-247.411459,4050.180799,0.012000,-0.018000,1.008000,192.000000,0.000000,0.000000,0.000000,0.000000,0.000000,0.000000,0.000000,0.000000,0.000000,1769524297.268865,0.000000
88.000000,15205.422366,14564.307280,3865.443631,-2858.698709,6246.127933,-10254.756839,679.671845,-18019.350531,12762.756677,11222.117987,-8855.805857,325.173178,21558.972783,12204.164231,-294.685399,4025.035086,0.012000,-0.018000,1.008000,192.000000,0.000000,0.000000,0.000000,0.000000,0.000000,0.000000,0.000000,0.000000,0.000000,1769524297.268877,0.000000
90.000000,15178.734383,14532.590155,3849.104506,-2876.513049,6212.309743,-10273.129973,662.461002,-18044.004505,12645.030039,11240.692287,-8762.554379,393.055426,21600.770545,12279.087279,-223.919776,4072.666654,0.012000,-0.018000,1.008000,192.000000,0.000000,0.000000,0.000000,0.000000,0.000000,0.000000,0.000000,0.000000,0.000000,1769524297.268895,0.000000
92.000000,15197.532201,14546.984678,3810.883023,-2920.166006,6226.614860,-10296.845173,623.144284,-18097.313416,12741.656630,11205.868269,-8862.600787,314.846672,21568.695792,12218.603458,-287.756358,4025.862101,0.014000,-0.016000,1.004000,192.000000,0.000000,56.000000,127.500000,64.000000,15.500000,48.000000,0.000000,0.000000,0.000000,1769524297.268906,0.000000
94.000000,15187.451564,14539.385085,3881.939218,-2844.818276,6222.569194,-10253.773362,691.361808,-18005.000711,12687.990092,11246.414333,-8791.164612,371.977731,21580.788086,12250.521749,-243.030517,4063.100107,0.014000,-0.016000,1.004000,192.000000,0.000000,0.000000,0.000000,0.000000,0.000000,0.000000,0.000000,0.000000,0.000000,1769524297.268916,0.000000
96.000000,15183.361195,14531.204347,3806.435026,-2924.390486,6215.327229,-10307.126976,619.053914,-18102.744890,12667.359432,11214.652504,-8815.282144,350.028318,21565.521844,12232.953278,-231.385259,4048.191494,0.014000,-0.016000,1.004000,192.000000,0.000000,0.000000,0.000000,0.000000,0.000000,0.000000,0.000000,0.000000,0.000000,1769524297.268927,0.000000
98.000000,15205.221201,14562.005050,3858.447535,-2864.420755,6239.265947,-10284.685824,675.022683,-18026.592496,12758.174569,11221.246269,-8857.258720,323.161521,21582.196245,12208.902801,-281.564925,4027.426723,0.014000,-0.016000,1.004000,192.000000,0.000000,0.000000,0.000000,0.000000,0.000000,0.000000,0.000000,0.000000,0.000000,1769524297.268938,0.000000
100.000000,15183.942340,14539.921527,3843.225997,-2874.814317,6216.310706,-10267.676147,659.443517,-18043.401008,12631.216661,11240.222900,-8769.729289,389.702665,21615.634455,12272.806439,-216.923680,4075.773546,0.014000,-0.016000,1.004000,192.000000,0.000000,0.000000,0.000000,0.000000,0.000000,0.000000,0.000000,0.000000,0.000000,1769524297.268948,0.000000
102.000000,15206.294084,14559.300489,3807.686723,-2914.712180,6232.091037,-10294.498240,624.753609,-18090.026747,12743.645935,11221.469786,-8857.124610,326.626042,21534.922306,12235.255508,-300.966239,4026.644412,0.012000,-0.020000,0.998000,192.000000,0.000000,48.000000,127.500000,48.000000,15.500000,24.000000,0.000000,0.000000,0.000000,1769524297.268960,0.000000
104.000000,15191.966616,14550.002164,3882.028625,-2842.516046,6226.614860,-10249.571234,694.513404,-17997.445821,12691.968702,11244.089752,-8785.911952,375.710473,21592.746269,12257.137866,-231.139389,4060.306139,0.012000,-0.020000,0.998000,192.000000,0.000000,0.000000,0.000000,0.000000,0.000000,0.000000,0.000000,0.000000,0.000000,1769524297.268970,0.000000
106.000000,15195.811116,14550.560957,3810.145415,-2915.338029,6218.367066,-10292.419528,623.904243,-18089.333843,12676.635406,11231.550423,-8801.200545,364.445193,21569.701620,12241.111665,-247.500866,4042.514150,0.012000,-0.020000,0.998000,192.000000,0.000000,0.000000,0.000000,0.000000,0.000000,0.000000,0.000000,0.000000,0.000000,1769524297.268981,0.000000
108.000000,15209.177459,14570.722231,3862.157924,-2858.162267,6235.510854,-10280.260179,675.983808,-18021.786871,12765.662404,11230.634002,-8848.720354,332.795123,21571.266242,12226.694790,-296.205318,4023.716333,0.012000,-0.020000,0.998000,192.000000,0.000000,0.000000,0.000000,0.000000,0.000000,0.000000,0.000000,0.000000,0.000000,1769524297.268992,0.000000
110.000000,15181.930683,14537.954573,3846.757573,-2874.255523,6208.085264,-10284.507011,659.711738,-18042.819863,12636.648135,11244.469731,-8763.090821,395.603525,21587.515961,12259.305985,-215.627279,4073.091337,0.012000,-0.020000,0.998000,192.000000,0.000000,0.000000,0.000000,0.000000,0.000000,0.000000,0.000000,0.000000,0.000000,1769524297.269003,0.000000
112.000000,15207.031692,14558.451123,3808.893717,-2914.399256,6226.592508,-10296.308732,624.038353,-18090.004395,12741.366058,11214.026655,-8860.276206,323.273280,21576.250681,12204.499507,-295.691227,4026.733819,0.016000,-0.018000,1.006000,192.000000,0.000000,64.000000,127.500000,56.000000,15.500000,56.000000,0.000000,0.000000,0.000000,1769524297.269013,0.000000
114.000000,15196.995759,14551.276213,3882.252143,-2838.179807,6231.755761,-10246.643155,695.765101,-17994.607150,12695.097947,11251.421124,-8783.296798,379.487917,21604.056252,12268.179627,-240.393012,4059.099145,0.016000,-0.018000,1.006000,192.000000,0.000000,0.000000,0.000000,0.000000,0.000000,0.000000,0.000000,0.000000,0.000000,1769524297.269024,0.000000
116.000000,15189.239703,14538.602774,3805.071569,-2920.233061,6222.882119,-10287.971531,621.222034,-18094.497096,12673.059127,11227.996496,-8804.195679,362.232371,21562.839635,12248.174816,-251.144201,4051.276034,0.016000,-0.018000,1.006000,192.000000,0.000000,0.000000,0.000000,0.000000,0.000000,0.000000,0.000000,0.000000,0.000000,1769524297.269034,0.000000
118.000000,15206.539954,14567.056545,3861.241503,-2861.805601,6242.819875,-10275.208685,675.603828,-18022.189203,12765.103610,11233.092693,-8850.396735,333.376269,21576.407144,12244.911461,-292.651390,4021.078828,0.016000,-0.018000,1.006000,192.000000,0.000000,0.000000,0.000000,0.000000,0.000000,0.000000,0.000000,0.000000,0.000000,1769524297.269045,0.000000
120.000000,15176.700375,14533.573631,3842.264872,-2877.384767,6212.980296,-10286.541019,659.130592,-18044.786816,12628.847376,11241.541653,-8771.673891,389.277981,21585.638414,12265.743287,-208.787645,4074.723014,0.016000,-0.018000,1.006000,192.000000,0.000000,0.000000,0.000000,0.000000,0.000000,0.000000,0.000000,0.000000,0.000000,1769524297.269056,0.000000
122.000000,15214.474823,14570.006975,3808.625496,-2909.973611,6235.913186,-10288.552676,626.094714,-18083.678852,12743.690639,11225.560156,-8857.258720,328.414181,21560.827978,12216.748263,-293.523108,4030.891243,0.008000,-0.020000,1.012000,192.000000,0.000000,32.000000,127.500000,48.000000,15.500000,80.000000,0.000000,0.000000,0.000000,1769524297.269068,0.000000
124.000000,15199.990892,14561.714478,3880.911038,-2834.581177,6229.051200,-10235.713152,696.726226,-17988.840400,12693.309807,11263.580473,-8783.833240,386.215792,21628.285543,12265.162142,-243.589311,4070.990273,0.008000,-0.020000,1.012000,192.000000,0.000000,0.000000,0.000000,0.000000,0.000000,0.000000,0.000000,0.000000,0.000000,1769524297.269078,0.000000
126.000000,15186.468087,14539.742713,3804.758645,-2921.596518,6213.315572,-10282.852981,620.126798,-18093.647730,12670.354565,11241.228728,-8800.060606,373.564705,21575.468370,12259.596558,-251.211256,4048.347956,0.008000,-0.020000,1.012000,192.000000,0.000000,0.000000,0.000000,0.000000,0.000000,0.000000,0.000000,0.000000,0.000000,1769524297.269090,0.000000
128.000000,15200.817907,14560.753353,3855.675919,-2858.430488,6230.861691,-10261.596472,673.614523,-18023.798528,12748.742133,11230.745760,-8859.292729,326.156655,21534.274105,12220.704522,-281.475518,4036.412124,0.008000,-0.020000,1.012000,192.000000,0.000000,0.000000,0.000000,0.000000,0.000000,0.000000,0.000000,0.000000,0.000000,1769524297.269101,0.000000
130.000000,15178.063831,14533.439521,3847.584587,-2873.942599,6213.963773,-10267.206760,663.086851,-18036.650781,12627.662734,11253.499836,-8765.214236,401.794958,21577.368269,12288.653825,-218.488302,4078.768680,0.008000,-0.020000,1.012000,192.000000,0.000000,0.000000,0.000000,0.000000,0.000000,0.000000,0.000000,0.000000,0.000000,1769524297.269112,0.000000
132.000000,15203.589523,14557.937033,3809.832491,-2913.728704,6226.816026,-10312.536098,627.301708,-18083.008299,12734.839348,11226.588336,-8855.627043,334.382097,21572.294423,12225.554851,-295.244193,4017.994287,0.008000,-0.019000,1.008000,192.000000,0.000000,32.000000,127.500000,56.000000,15.500000,48.000000,0.000000,0.000000,0.000000,1769524297.269123,0.000000
134.000000,15193.531238,14550.583309,3880.374596,-2832.837741,6217.316534,-10263.228150,698.089683,-17989.421545,12685.911380,11261.769982,-8784.660254,387.422787,21589.952301,12254.925043,-242.918759,4055.187590,0.008000,-0.019000,1.008000,192.000000,0.000000,0.000000,0.000000,0.000000,0.000000,0.000000,0.000000,0.000000,0.000000,1769524297.269135,0.000000
136.000000,15192.704224,14541.128521,3808.044351,-2911.515881,6211.885060,-10295.101737,626.944080,-18086.249302,12666.487714,11242.994516,-8799.926496,375.397548,21550.367361,12265.743287,-262.230666,4051.432496,0.008000,-0.019000,1.008000,192.000000,0.000000,0.000000,0.000000,0.000000,0.000000,0.000000,0.000000,0.000000,0.000000,1769524297.269145,0.000000
138.000000,15205.400015,14561.267443,3859.565122,-2860.665662,6229.051200,-10273.934635,677.727244,-18020.915153,12757.861645,11239.574699,-8848.429781,336.684327,21552.781350,12238.921194,-294.663047,4017.413141,0.008000,-0.019000,1.008000,192.000000,0.000000,0.000000,0.000000,0.000000,0.000000,0.000000,0.000000,0.000000,0.000000,1769524297.269156,0.000000
140.000000,15187.183343,14540.502672,3850.959700,-2865.940674,6214.164938,-10270.805391,666.931351,-18032.538060,12628.445045,11252.896339,-8762.532027,398.866880,21599.384737,12264.558645,-219.225910,4071.973750,0.008000,-0.019000,1.008000,192.000000,0.000000,0.000000,0.000000,0.000000,0.000000,0.000000,0.000000,0.000000,0.000000,1769524297.269168,0.000000
142.000000,15201.980198,14553.019649,3807.150281,-2913.125207,6226.681915,-10298.543906,624.440685,-18091.479610,12741.790741,11235.305516,-8848.720354,337.466638,21552.423722,12219.072845,-299.245155,4020.184758,0.008000,-0.016500,1.004000,192.000000,0.000000,32.000000,127.500000,72.000000,15.500000,32.000000,0.000000,0.000000,0.000000,1769524297.269180,0.000000
144.000000,15187.026881,14539.161568,3875.837192,-2839.051525,6216.243650,-10252.767533,693.082892,-18002.452612,12677.015385,11250.012964,-8793.198620,376.090452,21595.137905,12270.794782,-244.483381,4072.465488,0.008000,-0.016500,1.004000,192.000000,0.000000,0.000000,0.000000,0.000000,0.000000,0.000000,0.000000,0.000000,0.000000,1769524297.269190,0.000000
146.000000,15178.421459,14523.962381,3802.836395,-2918.310811,6202.765549,-10300.577915,619.813874,-18101.336730,12660.139818,11231.393961,-8808.062531,362.947626,21563.331373,12255.237967,-247.120887,4051.946587,0.008000,-0.016500,1.004000,192.000000,0.000000,0.000000,0.000000,0.000000,0.000000,0.000000,0.000000,0.000000,0.000000,1769524297.269201,0.000000
148.000000,15202.740157,14553.109056,3856.860561,-2858.966930,6229.386476,-10290.989016,674.732110,-18027.330104,12749.010354,11230.030504,-8856.543464,326.849559,21544.600611,12222.783234,-289.522146,4019.871833,0.008000,-0.016500,1.004000,192.000000,0.000000,0.000000,0.000000,0.000000,0.000000,0.000000,0.000000,0.000000,0.000000,1769524297.269211,0.000000
150.000000,15176.543912,14524.185899,3846.176427,-2873.719081,6205.939496,-10279.142592,662.081023,-18043.110435,12626.165167,11246.347278,-8765.616568,393.368351,21592.053365,12270.414802,-219.874110,4072.867819,0.008000,-0.016500,1.004000,192.000000,0.000000,0.000000,0.000000,0.000000,0.000000,0.000000,0.000000,0.000000,0.000000,1769524297.269222,0.000000
152.000000,15200.348520,14548.102265,3808.223165,-2917.014410,6215.282525,-10283.836458,624.217167,-18091.792535,12729.989020,11219.189908,-8857.415182,322.982707,21563.912518,12238.585918,-291.734969,4021.078828,0.005000,-0.015250,1.002000,192.000000,0.000000,8.000000,127.500000,72.000000,15.500000,32.000000,0.000000,0.000000,0.000000,1769524297.269233,0.000000
154.000000,15196.012282,14549.868053,3885.850774,-2835.251729,6214.835491,-10253.616900,699.833119,-17990.159153,12685.196124,11252.672822,-8784.146164,379.242048,21594.310891,12256.132037,-238.269596,4058.897979,0.005000,-0.015250,1.002000,192.000000,0.000000,0.000000,0.000000,0.000000,0.000000,0.000000,0.000000,0.000000,0.000000,1769524297.269246,0.000000
156.000000,15193.575942,14539.474492,3807.887889,-2912.678172,6206.520642,-10289.334987,625.379458,-18089.222084,12666.130086,11235.014943,-8795.612609,373.922333,21577.524731,12235.076694,-257.357986,4047.632700,0.005000,-0.015250,1.002000,192.000000,0.000000,0.000000,0.000000,0.000000,0.000000,0.000000,0.000000,0.000000,0.000000,1769524297.269256,0.000000
158.000000,15213.156070,14564.508446,3861.777945,-2855.837686,6234.303860,-10273.711118,678.911886,-18021.295133,12753.704220,11231.304554,-8851.894301,331.655184,21592.321586,12226.381865,-294.350123,4020.922365,0.005000,-0.015250,1.002000,192.000000,0.000000,0.000000,0.000000,0.000000,0.000000,0.000000,0.000000,0.000000,0.000000,1769524297.269267,0.000000
160.000000,15195.967578,14542.424922,3853.127820,-2864.957197,6214.120235,-10275.320444,668.674787,-18031.554583,12638.503330,11254.125685,-8756.832332,400.498557,21563.376077,12279.489610,-218.577709,4068.218657,0.005000,-0.015250,1.002000,192.000000,0.000000,0.000000,0.000000,0.000000,0.000000,0.000000,0.000000,0.000000,0.000000,1769524297.269278,0.000000
162.000000,15216.106500,14561.155684,3810.435988,-2910.107721,6237.097828,-10290.050243,628.821627,-18084.841142,12744.025915,11228.465882,-8849.614423,333.510379,21568.405219,12263.150485,-303.156710,4021.659973,0.004500,-0.015625,1.001000,192.000000,0.000000,16.000000,127.500000,64.000000,15.500000,32.000000,0.000000,0.000000,0.000000,1769524297.269289,0.000000
164.000000,15204.617704,14555.612452,3884.107337,-2832.994203,6230.481712,-10252.544016,699.363732,-17989.935635,12700.037682,11262.462886,-8783.341501,385.455833,21594.646167,12259.574206,-243.499904,4051.231331,0.004500,-0.015625,1.001000,192.000000,0.000000,0.000000,0.000000,0.000000,0.000000,0.000000,0.000000,0.000000,0.000000,1769524297.269300,0.000000
166.000000,15186.021052,14531.561974,3800.064778,-2917.014410,6205.470110,-10293.045377,620.707944,-18100.330901,12673.640272,11234.858481,-8803.122795,366.389795,21578.932891,12241.111665,-252.753526,4053.019470,0.004500,-0.015625,1.001000,192.000000,0.000000,0.000000,0.000000,0.000000,0.000000,0.000000,0.000000,0.000000,0.000000,1769524297.269310,0.000000
168.000000,15205.064738,14555.880672,3857.620520,-2863.459630,6237.500159,-10275.968644,674.508592,-18031.174604,12750.552625,11225.828377,-8862.466677,320.121684,21559.665687,12224.124339,-290.952658,4030.287746,0.004500,-0.015625,1.001000,192.000000,0.000000,0.000000,0.000000,0.000000,0.000000,0.000000,0.000000,0.000000,0.000000,1769524297.269320,0.000000
170.000000,15170.665404,14516.943934,3842.108410,-2876.133070,6214.500214,-10291.950141,659.689386,-18052.475816,12619.794919,11237.205414,-8774.020824,383.600638,21595.562589,12274.304005,-210.575785,4076.287636,0.004500,-0.015625,1.001000,192.000000,0.000000,0.000000,0.000000,0.000000,0.000000,0.000000,0.000000,0.000000,0.000000,1769524297.269331,0.000000
172.000000,15203.321302,14549.599832,3807.999648,-2917.863776,6238.505988,-10300.399101,622.585490,-18097.738099,12726.993886,11209.511603,-8867.004081,313.192643,21578.038821,12223.096159,-285.878812,4033.662860,0.003250,-0.016813,1.001500,192.000000,0.000000,8.000000,127.500000,56.000000,15.500000,40.000000,0.000000,0.000000,0.000000,1769524297.269342,0.000000
174.000000,15196.369910,14552.013821,3878.631160,-2835.609357,6228.827683,-10229.924051,694.803976,-17998.049319,12695.567333,11255.824418,-8789.152955,374.726996,21593.796801,12268.671366,-240.661233,4067.637511,0.003250,-0.016813,1.001500,192.000000,0.000000,0.000000,0.000000,0.000000,0.000000,0.000000,0.000000,0.000000,0.000000,1769524297.269353,0.000000
176.000000,15184.970520,14534.713570,3803.395188,-2917.975535,6218.277659,-10286.093984,621.467903,-18099.950922,12665.951272,11232.332734,-8807.570792,362.008853,21576.809475,12268.336090,-254.564018,4073.650130,0.003250,-0.016813,1.001500,192.000000,0.000000,0.000000,0.000000,0.000000,0.000000,0.000000,0.000000,0.000000,0.000000,1769524297.269363,0.000000
178.000000,15209.512736,14568.397649,3859.274549,-2854.563636,6241.009383,-10263.541074,678.509555,-18024.759653,12757.906348,11231.058685,-8857.437534,325.039068,21561.565585,12219.922211,-291.779672,4037.775581,0.003250,-0.016813,1.001500,192.000000,0.000000,0.000000,0.000000,0.000000,0.000000,0.000000,0.000000,0.000000,0.000000,1769524297.269375,0.000000
180.000000,15186.289273,14539.273326,3849.059802,-2861.917360,6219.149377,-10252.678126,668.540677,-18038.617735,12638.279812,11258.372516,-8760.922701,399.693894,21598.110688,12273.566398,-224.076238,4078.545163,0.003250,-0.016813,1.001500,192.000000,0.000000,0.000000,0.000000,0.000000,0.000000,0.000000,0.000000,0.000000,0.000000,1769524297.269386,0.000000
182.000000,15210.250343,14560.663946,3810.748912,-2906.352628,6231.509892,-10285.825763,628.776923,-18089.378546,12739.108531,11234.813778,-8851.916653,332.884530,21576.384792,12244.978517,-301.256812,4021.481159,0.003625,-0.018406,1.000750,192.000000,0.000000,16.000000,127.500000,48.000000,15.500000,32.000000,0.000000,0.000000,0.000000,1769524297.269397,0.000000
184.000000,15191.631340,14544.302469,3880.016968,-2839.118581,6222.368028,-10257.304938,694.692218,-17999.993920,12688.101851,11250.750572,-8790.359949,374.145850,21605.285597,12286.239837,-238.984852,4059.769697,0.003625,-0.018406,1.000750,192.000000,0.000000,0.000000,0.000000,0.000000,0.000000,0.000000,0.000000,0.000000,0.000000,1769524297.269408,0.000000
186.000000,15198.225105,14544.548338,3812.022962,-2916.634430,6213.270868,-10290.005540,626.742915,-18087.255131,12665.727754,11230.544595,-8799.322998,367.395624,21554.256565,12241.022258,-249.311358,4055.813438,0.003625,-0.018406,1.000750,192.000000,0.000000,0.000000,0.000000,0.000000,0.000000,0.000000,0.000000,0.000000,0.000000,1769524297.269419,0.000000
188.000000,15216.397073,14570.163437,3864.326044,-2864.197238,6237.589566,-10276.527438,676.900229,-18021.563354,12762.756677,11229.762284,-8850.039107,329.442362,21586.800705,12242.206900,-292.249059,4024.252775,0.003625,-0.018406,1.000750,192.000000,0.000000,0.000000,0.000000,0.000000,0.000000,0.000000,0.000000,0.000000,0.000000,1769524297.269430,0.000000
190.000000,15190.804325,14541.687315,3853.485448,-2868.377014,6219.305839,-10270.358356,667.937180,-18033.275668,12639.710324,11245.721429,-8758.888693,400.230336,21604.346824,12267.933758,-213.280346,4077.427575,0.003625,-0.018406,1.000750,192.000000,0.000000,0.000000,0.000000,0.000000,0.000000,0.000000,0.000000,0.000000,0.000000,1769524297.269441,0.000000
192.000000,15209.333922,14561.602719,3809.251345,-2910.778273,6229.230014,-10303.818918,625.066534,-18091.054927,12739.622621,11221.089807,-8854.710621,332.370440,21549.205071,12221.196261,-294.841861,4032.008831,0.004812,-0.020203,1.002375,192.000000,0.000000,24.000000,127.500000,40.000000,15.500000,48.000000,0.000000,0.000000,0.000000,1769524297.269452,0.000000
194.000000,15201.711977,14555.992431,3882.229791,-2830.759028,6232.918052,-10248.699516,697.486186,-17995.277702,12692.862772,11251.711697,-8789.711748,379.063234,21595.674347,12285.256360,-239.342480,4067.391642,0.004812,-0.020203,1.002375,192.000000,0.000000,0.000000,0.000000,0.000000,0.000000,0.000000,0.000000,0.000000,0.000000,1769524297.749153,0.000000
196.000000,15199.633264,14544.928318,3811.531223,-2911.158253,6227.128950,-10272.638234,624.843016,-18088.775049,12669.169923,11236.445455,-8800.440586,369.273170,21585.861932,12248.577148,-247.746736,4064.396508,0.004812,-0.020203,1.002375,192.000000,0.000000,0.000000,0.000000,0.000000,0.000000,0.000000,0.000000,0.000000,0.000000,1769524297.749212,0.000000
198.000000,15219.749835,14572.845646,3862.157924,-2859.548075,6247.960776,-10263.272853,674.620351,-18022.591534,12767.986985,11234.813778,-8849.010926,331.588129,21567.779370,12232.059208,-292.740797,4032.545272,0.004812,-0.020203,1.002375,192.000000,0.000000,0.000000,0.000000,0.000000,0.000000,0.000000,0.000000,0.000000,0.000000,1769524297.749255,0.000000
200.000000,15190.200828,14544.794207,3856.145305,-2868.712290,6225.921956,-10263.228150,666.417261,-18033.655647,12640.805559,11251.957566,-8757.748754,400.163281,21625.938609,12284.496401,-212.118055,4084.423671,0.004812,-0.020203,1.002375,192.000000,0.000000,0.000000,0.000000,0.000000,0.000000,0.000000,0.000000,0.000000,0.000000,1769524297.749298,0.000000
202.000000,15212.709035,14565.804847,3812.067665,-2908.856023,6238.975375,-10290.385519,626.251176,-18086.048136,12740.896671,11225.604859,-8851.559025,332.862178,21571.176835,12230.695752,-290.326809,4032.813493,0.004812,-0.020203,1.002375,192.000000,0.000000,0.000000,0.000000,0.000000,0.000000,0.000000,0.000000,0.000000,0.000000,1769524297.749339,0.000000
204.000000,15202.606047,14558.160550,3887.817727,-2833.083610,6242.708116,-10245.212644,699.162567,-17991.097926,12699.210668,11258.193702,-8783.319149,385.366426,21611.029996,12302.288389,-247.947901,4065.692909,0.010000,-0.022000,1.008000,192.000000,0.000000,40.000000,127.500000,40.000000,15.500000,64.000000,0.000000,0.000000,0.000000,1769524297.749378,0.000000
206.000000,15191.139602,14539.809768,3810.748912,-2911.180605,6226.570156,-10299.326217,624.932423,-18092.507791,12670.309862,11236.847787,-8795.500850,372.983560,21582.330356,12253.539235,-238.336651,4049.376136,0.010000,-0.022000,1.008000,192.000000,0.000000,0.000000,0.000000,0.000000,0.000000,0.000000,0.000000,0.000000,0.000000,1769524297.749393,0.000000
208.000000,15210.831488,14565.938957,3861.688538,-2858.743412,6246.999651,-10257.528455,674.843869,-18025.609019,12757.191093,11226.789502,-8856.230540,327.877739,21560.224481,12213.551964,-289.879774,4033.729915,0.010000,-0.022000,1.008000,192.000000,0.000000,0.000000,0.000000,0.000000,0.000000,0.000000,0.000000,0.000000,0.000000,1769524297.749403,0.000000
210.000000,15180.008433,14534.534756,3853.306634,-2868.287607,6216.020133,-10266.156228,664.003273,-18038.975363,12631.775454,11250.191778,-8762.979062,398.621011,21592.835676,12278.260264,-210.419322,4082.568477,0.010000,-0.022000,1.008000,192.000000,0.000000,0.000000,0.000000,0.000000,0.000000,0.000000,0.000000,0.000000,0.000000,1769524297.749414,0.000000
212.000000,15207.389320,14560.552187,3813.654639,-2909.481872,6234.214453,-10284.752880,625.647679,-18087.501000,12740.315526,11227.616516,-8851.559025,334.359745,21580.966900,12231.321601,-292.472576,4035.339240,0.010000,-0.022000,1.008000,192.000000,0.000000,0.000000,0.000000,0.000000,0.000000,0.000000,0.000000,0.000000,0.000000,1769524297.749426,0.000000
214.000000,15194.112384,14552.505559,3884.554372,-2833.597700,6227.643040,-10246.464341,695.832157,-17995.255351,12698.584819,11257.925482,-8784.772013,382.617162,21587.448905,12293.571209,-245.265692,4073.337206,0.006000,-0.018000,1.002000,192.000000,0.000000,24.000000,127.500000,56.000000,15.500000,40.000000,0.000000,0.000000,0.000000,1769524297.749436,0.000000
216.000000,15185.953997,14539.966230,3808.737255,-2911.605288,6210.968639,-10292.419528,623.121932,-18092.708956,12665.794810,11234.992592,-8800.932324,370.502516,21569.701620,12263.329299,-248.663157,4065.312930,0.006000,-0.018000,1.002000,192.000000,0.000000,0.000000,0.000000,0.000000,0.000000,0.000000,0.000000,0.000000,0.000000,1769524297.749448,0.000000
218.000000,15204.774166,14563.927300,3860.302730,-2854.943616,6239.154189,-10247.179597,674.910924,-18026.324275,12762.689622,11232.690362,-8853.883607,330.045859,21606.827868,12256.422610,-303.022600,4036.568586,0.006000,-0.018000,1.002000,192.000000,0.000000,0.000000,0.000000,0.000000,0.000000,0.000000,0.000000,0.000000,0.000000,1769524297.749469,0.000000
220.000000,15175.761601,14533.774797,3851.853770,-2866.343005,6216.064837,-10257.170827,664.092680,-18039.802377,12632.177786,11250.549406,-8764.297815,394.910621,21588.678251,12272.627625,-224.210349,4082.255552,0.006000,-0.018000,1.002000,192.000000,0.000000,0.000000,0.000000,0.000000,0.000000,0.000000,0.000000,0.000000,0.000000,1769524297.749480,0.000000
222.000000,15214.161898,14572.711536,3817.297973,-2908.967782,6243.445723,-10277.913246,626.720563,-18083.969424,12737.655668,11231.058685,-8851.447267,331.431667,21579.894016,12225.666609,-308.230556,4034.780447,0.006000,-0.018000,1.002000,192.000000,0.000000,0.000000,0.000000,0.000000,0.000000,0.000000,0.000000,0.000000,0.000000,1769524297.749492,0.000000
224.000000,15209.043349,14568.442353,3892.913925,-2835.072915,6244.004517,-10246.911376,699.073160,-17984.817086,12714.275743,11279.561970,-8774.378452,393.793034,21589.147638,12274.393412,-246.740907,4057.221598,0.008000,-0.018000,1.002000,192.000000,0.000000,32.000000,127.500000,56.000000,15.500000,40.000000,0.000000,0.000000,0.000000,1769524297.749504,0.000000
226.000000,15184.076450,14538.423960,3809.318401,-2921.082428,6217.316534,-10313.787796,621.020868,-18093.200695,12668.074687,11232.846824,-8797.937190,369.519039,21568.449923,12253.852159,-242.114096,4060.529656,0.008000,-0.018000,1.002000,192.000000,0.000000,0.000000,0.000000,0.000000,0.000000,0.000000,0.000000,0.000000,0.000000,1769524297.749514,0.000000
228.000000,15209.624494,14573.739716,3862.895532,-2858.586950,6246.172636,-10262.043507,678.017816,-18020.490470,12759.783895,11233.092693,-8853.593034,333.890359,21577.256510,12238.630621,-298.194623,4031.807665,0.008000,-0.018000,1.002000,192.000000,0.000000,0.000000,0.000000,0.000000,0.000000,0.000000,0.000000,0.000000,0.000000,1769524297.749527,0.000000
230.000000,15174.889883,14534.333591,3854.625387,-2866.253598,6215.751912,-10263.138743,669.099470,-18038.260107,12634.748237,11255.109162,-8758.754582,404.231298,21594.154429,12299.449718,-222.869244,4084.915410,0.008000,-0.018000,1.002000,192.000000,0.000000,0.000000,0.000000,0.000000,0.000000,0.000000,0.000000,0.000000,0.000000,1769524297.749540,0.000000
232.000000,15195.095860,14552.863187,3810.883023,-2911.068846,6234.929709,-10287.300979,626.429990,-18094.787669,12724.892822,11221.358028,-8858.331604,328.816513,21585.973690,12249.359459,-291.667913,4033.595804,0.008000,-0.018000,1.002000,192.000000,0.000000,0.000000,0.000000,0.000000,0.000000,0.000000,0.000000,0.000000,0.000000,1769524297.749550,0.000000
234.000000,15194.358253,14559.568710,3888.778852,-2825.908700,6230.504063,-10254.578025,702.425921,-17988.683938,12694.494449,11260.495932,-8785.599027,383.332417,21612.773432,12255.975575,-245.846837,4063.860066,0.004000,-0.024000,1.000000,192.000000,0.000000,16.000000,127.500000,32.000000,15.500000,32.000000,0.000000,0.000000,0.000000,1769524297.749561,0.000000
236.000000,15188.636206,14548.214024,3812.045313,-2907.157291,6218.948212,-10294.744109,627.771095,-18084.528218,12664.878388,11244.357973,-8795.478498,377.476260,21575.177798,12265.542122,-261.336596,4062.518962,0.004000,-0.024000,1.000000,192.000000,0.000000,0.000000,0.000000,0.000000,0.000000,0.000000,0.000000,0.000000,0.000000,1769524297.749572,0.000000
238.000000,15211.122061,14577.494809,3866.091831,-2855.904741,6246.709078,-10255.405039,678.487203,-18015.438976,12769.596311,11243.866234,-8845.501702,339.299481,21570.998021,12244.151502,-302.486158,4033.551101,0.004000,-0.024000,1.000000,192.000000,0.000000,0.000000,0.000000,0.000000,0.000000,0.000000,0.000000,0.000000,0.000000,1769524297.749583,0.000000
240.000000,15187.742136,14549.912757,3859.051032,-2864.241941,6224.178520,-10247.984260,670.150002,-18025.988999,12643.040734,11263.580473,-8751.222044,409.394551,21606.671406,12291.336035,-227.138427,4084.960113,0.004000,-0.024000,1.000000,192.000000,0.000000,0.000000,0.000000,0.000000,0.000000,0.000000,0.000000,0.000000,0.000000,1769524297.749593,0.000000
242.000000,15211.055006,14570.543417,3820.382514,-2910.957087,6246.217340,-10282.763574,629.045144,-18082.225988,12744.160026,11236.668973,-8842.640679,341.177027,21602.134002,12246.587842,-294.864213,4033.931081,0.004000,-0.024000,1.000000,192.000000,0.000000,0.000000,0.000000,0.000000,0.000000,0.000000,0.000000,0.000000,0.000000,1769524297.749604,0.000000
244.000000,15197.353387,14560.686297,3892.377483,-2834.514121,6242.819875,-10248.967737,699.877822,-17988.952159,12706.095005,11270.174238,-8778.580580,390.753197,21637.270944,12288.318549,-250.428945,4060.999043,0.002000,-0.020000,1.002000,192.000000,0.000000,8.000000,127.500000,48.000000,15.500000,40.000000,0.000000,0.000000,0.000000,1769524297.749614,0.000000
246.000000,15184.121154,14540.547376,3817.655601,-2917.394390,6218.657639,-10297.158098,625.334755,-18090.093802,12669.885179,11237.965374,-8795.791423,373.385891,21579.469333,12263.910444,-250.496000,4059.859104,0.002000,-0.020000,1.002000,192.000000,0.000000,0.000000,0.000000,0.000000,0.000000,0.000000,0.000000,0.000000,0.000000,1769524297.749626,0.000000
248.000000,15211.725558,14574.700841,3864.013119,-2860.017462,6250.106543,-10262.982281,675.134441,-18021.652761,12763.628395,11232.220975,-8853.056592,330.492894,21566.438266,12249.024182,-292.204355,4029.639546,0.002000,-0.020000,1.002000,192.000000,0.000000,0.000000,0.000000,0.000000,0.000000,0.000000,0.000000,0.000000,0.000000,1769524297.749636,0.000000
250.000000,15186.132811,14546.716457,3853.731317,-2867.482944,6225.541976,-10261.127086,667.557200,-18030.660514,12644.515949,11257.277281,-8754.463047,405.639458,21619.009569,12320.169785,-217.996564,4080.065081,0.002000,-0.020000,1.002000,192.000000,0.000000,0.000000,0.000000,0.000000,0.000000,0.000000,0.000000,0.000000,0.000000,1769524297.749648,0.000000
252.000000,15201.175535,14561.066277,3804.445720,-2914.645125,6231.331078,-10285.892819,623.300746,-18091.390203,12737.633316,11228.734103,-8851.715487,334.292690,21590.108763,12222.693827,-300.854480,4035.965089,0.002000,-0.020000,1.002000,192.000000,0.000000,0.000000,0.000000,0.000000,0.000000,0.000000,0.000000,0.000000,0.000000,1769524297.749660,0.000000
254.000000,15192.458355,14557.355888,3884.755538,-2837.531607,6228.157130,-10254.622728,698.804939,-17991.589664,12698.808336,11260.138304,-8787.476574,382.639513,21596.501362,12278.416726,-257.357986,4065.514095,0.006000,-0.020000,1.004000,192.000000,0.000000,24.000000,127.500000,48.000000,15.500000,48.000000,0.000000,0.000000,0.000000,1769524297.749671,0.000000
0.000000,15175.694546,14535.294716,3811.642982,-2919.607212,6218.098845,-10289.446746,623.636022,-18096.218180,12660.922129,11233.070342,-8799.859440,367.529734,21570.372173,12261.742325,-256.128640,4061.893113,0.006000,-0.020000,1.004000,192.000000,0.000000,0.000000,0.000000,0.000000,0.000000,0.000000,0.000000,0.000000,0.000000,1769524297.749681,0.000000
2.000000,15203.656578,14567.883559,3865.913018,-2866.544171,6243.915110,-10255.986185,675.313255,-18028.380636,12757.079334,11227.281240,-8856.185836,324.435571,21595.227312,12247.996002,-298.351085,4030.488912,0.006000,-0.020000,1.004000,192.000000,0.000000,0.000000,0.000000,0.000000,0.000000,0.000000,0.000000,0.000000,0.000000,1769524297.749693,0.000000
4.000000,15181.349538,14541.217928,3859.833343,-2868.622883,6217.338886,-10271.967682,670.105299,-18034.214441,12637.564556,11251.197606,-8757.167608,397.749293,21599.362385,12285.166953,-221.461084,4079.618046,0.006000,-0.020000,1.004000,192.000000,0.000000,0.000000,0.000000,0.000000,0.000000,0.000000,0.000000,0.000000,0.000000,1769524297.749703,0.000000
6.000000,15205.601180,14563.256748,3815.085151,-2915.293326,6234.303860,-10292.911266,627.547577,-18088.573884,12737.767427,11224.956658,-8847.938043,332.169274,21577.882359,12241.178720,-295.154786,4029.527787,0.006000,-0.020000,1.004000,192.000000,0.000000,0.000000,0.000000,0.000000,0.000000,0.000000,0.000000,0.000000,0.000000,1769524297.749714,0.000000
8.000000,15194.738232,14561.021574,3885.850774,-2835.229377,6225.631383,-10253.594548,699.743712,-17990.673243,12699.791813,11257.120819,-8787.297760,380.717263,21601.485801,12277.723822,-252.015919,4061.803706,0.010000,-0.014000,0.996000,192.000000,0.000000,40.000000,127.500000,72.000000,15.500000,16.000000,0.000000,0.000000,0.000000,1769524297.749725,0.000000
10.000000,15186.065756,14547.588175,3811.799444,-2910.666515,6215.953078,-10285.334025,628.128723,-18086.517523,12663.917263,11239.105313,-8796.305513,374.749348,21587.225388,12269.744250,-259.816678,4062.340148,0.010000,-0.014000,0.996000,192.000000,0.000000,0.000000,0.000000,0.000000,0.000000,0.000000,0.000000,0.000000,0.000000,1769524297.749736,0.000000
12.000000,15212.127890,14578.791211,3864.437802,-2861.202104,6248.653680,-10255.628557,676.028511,-18020.378711,12761.884959,11233.830301,-8852.296633,331.744591,21580.810437,12258.568377,-301.390922,4030.533615,0.010000,-0.014000,0.996000,192.000000,0.000000,0.000000,0.000000,0.000000,0.000000,0.000000,0.000000,0.000000,0.000000,1769524297.749746,0.000000
14.000000,15180.455468,14546.694105,3855.832381,-2866.343005,6228.782979,-10260.031850,667.892476,-18033.230964,12640.492635,11259.467752,-8754.910082,405.371237,21643.328267,12295.716977,-225.640860,4078.791032,0.010000,-0.014000,0.996000,192.000000,0.000000,0.000000,0.000000,0.000000,0.000000,0.000000,0.000000,0.000000,0.000000,1769524297.749772,0.000000
16.000000,15206.025863,14569.023498,3818.035581,-2910.130073,6241.299956,-10291.145479,626.228824,-18086.070488,12735.040514,11230.812816,-8849.502665,334.583263,21581.726859,12242.631584,-298.574602,4032.411162,0.010000,-0.014000,0.996000,192.000000,0.000000,0.000000,0.000000,0.000000,0.000000,0.000000,0.000000,0.000000,0.000000,1769524297.749783,0.000000
18.000000,15198.649788,14567.615338,3892.980980,-2829.775552,6239.333002,-10244.340926,698.424959,-17986.895798,12708.754862,11268.251987,-8778.111193,385.947572,21604.056252,12289.816116,-256.598026,4066.989311,0.010000,-0.014000,0.997000,192.000000,0.000000,40.000000,127.500000,72.000000,15.500000,24.000000,0.000000,0.000000,0.000000,1769524297.749794,0.000000
20.000000,15183.919988,14545.174187,3815.733351,-2916.589727,6230.347601,-10284.529362,621.914938,-18092.776012,12668.141743,11242.748647,-8793.332731,372.402414,21606.336129,12273.879322,-248.596102,4061.736651,0.010000,-0.014000,0.997000,192.000000,0.000000,0.000000,0.000000,0.000000,0.000000,0.000000,0.000000,0.000000,0.000000,1769524297.749804,0.000000
22.000000,15219.101634,14586.659025,3869.221076,-2859.436316,6262.355299,-10258.467228,674.665055,-18020.691636,12770.311567,11241.005211,-8849.100333,328.101257,21571.109780,12246.029049,-297.032332,4032.053534,0.010000,-0.014000,0.997000,192.000000,0.000000,0.000000,0.000000,0.000000,0.000000,0.000000,0.000000,0.000000,0.000000,1769524297.749815,0.000000
24.000000,15181.885979,14543.296640,3855.206532,-2871.953293,6228.984145,-10279.544923,662.595113,-18039.712970,12645.924109,11259.825380,-8754.932434,399.224508,21614.583923,12295.113480,-229.172436,4080.378006,0.010000,-0.014000,0.997000,192.000000,0.000000,0.000000,0.000000,0.000000,0.000000,0.000000,0.000000,0.000000,0.000000,1769524297.749827,0.000000
26.000000,15202.270770,14562.027402,3813.073494,-2921.462407,6247.625500,-10296.979284,620.260909,-18097.827506,12734.191148,11220.083978,-8853.682441,321.038106,21599.496496,12244.039743,-287.398730,4030.488912,0.010000,-0.014000,0.997000,192.000000,0.000000,0.000000,0.000000,0.000000,0.000000,0.000000,0.000000,0.000000,0.000000,1769524297.749838,0.000000
28.000000,15187.518619,14553.287870,3882.252143,-2840.996127,6241.434066,-10257.930786,692.010008,-18002.162040,12693.890952,11250.907034,-8791.790461,368.222638,21609.219505,12281.568322,-244.930416,4055.075831,0.010000,-0.015000,1.000500,192.000000,0.000000,40.000000,127.500000,64.000000,15.500000,48.000000,0.000000,0.000000,0.000000,1769524297.749849,0.000000
30.000000,15182.958863,14541.262632,3812.827624,-2911.247660,6218.679991,-10276.080403,622.987821,-18096.464049,12656.608243,11231.483368,-8800.999379,360.958321,21598.200094,12277.500305,-262.811811,4070.431479,0.010000,-0.015000,1.000500,192.000000,0.000000,0.000000,0.000000,0.000000,0.000000,0.000000,0.000000,0.000000,0.000000,1769524297.749860,0.000000
32.000000,15211.278523,14577.695975,3865.935369,-2859.413965,6252.744049,-10243.491559,672.563991,-18030.638162,12758.129866,11231.371609,-8853.950662,322.356859,21570.506283,12249.650031,-308.677591,4037.283842,0.010000,-0.015000,1.000500,192.000000,0.000000,0.000000,0.000000,0.000000,0.000000,0.000000,0.000000,0.000000,0.000000,1769524297.749870,0.000000
34.000000,15179.807267,14546.403533,3857.799334,-2866.365357,6225.966659,-10258.310766,666.104337,-18038.461273,12629.674391,11255.757362,-8759.849818,394.463586,21629.425481,12291.850125,-223.562148,4079.685101,0.010000,-0.015000,1.000500,192.000000,0.000000,0.000000,0.000000,0.000000,0.000000,0.000000,0.000000,0.000000,0.000000,1769524297.749880,0.000000
36.000000,15195.274674,14559.076972,3811.240651,-2916.545024,6231.398133,-10299.482679,620.752647,-18098.319244,12724.222270,11221.782711,-8851.581377,325.083771,21545.628792,12227.410046,-300.541556,4036.255662,0.010000,-0.015000,1.000500,192.000000,0.000000,0.000000,0.000000,0.000000,0.000000,0.000000,0.000000,0.000000,0.000000,1769524297.749890,0.000000
38.000000,15191.720747,14561.289795,3887.080120,-2835.341136,6233.476845,-10254.086286,696.793282,-17995.680034,12687.811278,11250.884682,-8790.628170,371.150717,21609.174801,12270.906540,-254.251093,4060.976691,0.011000,-0.016500,0.998250,192.000000,0.000000,48.000000,127.500000,56.000000,15.500000,16.000000,0.000000,0.000000,0.000000,1769524297.749900,0.000000
40.000000,15185.238741,14547.029382,3813.431122,-2910.375942,6221.585717,-10289.692615,624.418333,-18091.725480,12652.897853,11234.992592,-8796.774900,366.233333,21613.823964,12265.430363,-251.680643,4060.686119,0.011000,-0.016500,0.998250,192.000000,0.000000,0.000000,0.000000,0.000000,0.000000,0.000000,0.000000,0.000000,0.000000,1769524297.749911,0.000000
42.000000,15210.987951,14578.388879,3861.308558,-2859.570427,6254.353375,-10257.506103,670.954665,-18027.307752,12754.888863,11232.310382,-8854.308290,325.441399,21574.864873,12235.769598,-308.051742,4034.288708,0.011000,-0.016500,0.998250,192.000000,0.000000,0.000000,0.000000,0.000000,0.000000,0.000000,0.000000,0.000000,0.000000,1769524297.749921,0.000000
44.000000,15187.853895,14548.146969,3857.776983,-2865.605398,6228.067723,-10263.898702,666.305502,-18032.538060,12633.921222,11253.835112,-8754.753620,396.743464,21629.984275,12303.584791,-228.725401,4077.785203,0.011000,-0.016500,0.998250,192.000000,0.000000,0.000000,0.000000,0.000000,0.000000,0.000000,0.000000,0.000000,0.000000,1769524297.749932,0.000000
46.000000,15203.410709,14561.714478,3811.575927,-2916.500320,6244.339793,-10295.459365,620.193853,-18095.502924,12737.745075,11225.381342,-8844.562929,328.436533,21550.479120,12250.924081,-301.882661,4029.617194,0.011000,-0.016500,0.998250,192.000000,0.000000,0.000000,0.000000,0.000000,0.000000,0.000000,0.000000,0.000000,0.000000,1769524297.749942,0.000000
48.000000,15196.191096,14562.228568,3885.962532,-2835.654060,6240.204721,-10250.957042,693.574630,-17998.250484,12697.154307,11250.392944,-8791.388129,367.753252,21604.525638,12319.074550,-246.204465,4066.274055,0.011500,-0.018250,0.999125,192.000000,0.000000,48.000000,127.500000,48.000000,15.500000,32.000000,0.000000,0.000000,0.000000,1769524297.749952,0.000000
50.000000,15183.048270,14541.106169,3814.459302,-2909.034837,6225.564328,-10286.988054,623.546615,-18094.005358,12661.369164,11239.820569,-8795.769071,366.970940,21602.625740,12240.776389,-247.724384,4057.199247,0.011500,-0.018250,0.999125,192.000000,0.000000,0.000000,0.000000,0.000000,0.000000,0.000000,0.000000,0.000000,0.000000,1769524297.749963,0.000000
52.000000,15212.351407,14576.846609,3862.895532,-2859.123392,6252.587587,-10255.807371,671.401700,-18027.352456,12755.157084,11226.990667,-8855.135304,323.653260,21587.828885,12237.155406,-305.570698,4032.433514,0.011500,-0.018250,0.999125,192.000000,0.000000,0.000000,0.000000,0.000000,0.000000,0.000000,0.000000,0.000000,0.000000,1769524297.749974,0.000000
54.000000,15181.729517,14542.067294,3861.822648,-2864.912494,6225.497273,-10279.991958,668.205400,-18035.086159,12625.964001,11253.388077,-8759.045155,398.129272,21613.220467,12285.323415,-223.718610,4074.566552,0.011500,-0.018250,0.999125,192.000000,0.000000,0.000000,0.000000,0.000000,0.000000,0.000000,0.000000,0.000000,0.000000,1769524297.749986,0.000000
56.000000,15199.610913,14556.573577,3809.720732,-2918.266108,6236.248462,-10322.482624,618.495121,-18101.962579,12723.439959,11219.525185,-8850.217921,327.140132,21564.225443,12248.957127,-291.533803,4033.953432,0.011500,-0.018250,0.999125,192.000000,0.000000,0.000000,0.000000,0.000000,0.000000,0.000000,0.000000,0.000000,0.000000,1769524297.749998,0.000000
58.000000,15202.404881,14564.955481,3889.404701,-2831.966022,6243.021040,-10235.020248,697.352075,-17994.070708,12684.771441,11250.705868,-8793.757414,371.597752,21583.537350,12281.613026,-249.892503,4062.295444,0.009750,-0.019125,1.000563,192.000000,0.000000,32.000000,127.500000,48.000000,15.500000,40.000000,0.000000,0.000000,0.000000,1769524298.229909,0.000000
60.000000,15187.518619,14546.671754,3814.034619,-2907.291401,6225.609031,-10279.477868,624.507740,-18094.564151,12657.234091,11240.893452,-8793.757414,372.223600,21597.596597,12284.094069,-256.687433,4060.484953,0.009750,-0.019125,1.000563,192.000000,0.000000,0.000000,0.000000,0.000000,0.000000,0.000000,0.000000,0.000000,0.000000,1769524298.229985,0.000000
62.000000,15207.858706,14573.538551,3861.643834,-2858.922226,6255.381555,-10257.573158,670.753499,-18033.476834,12753.279537,11231.997458,-8855.492932,326.022545,21582.643280,12229.309944,-303.424931,4030.310098,0.009750,-0.019125,1.000563,192.000000,0.000000,0.000000,0.000000,0.000000,0.000000,0.000000,0.000000,0.000000,0.000000,1769524298.230040,0.000000
64.000000,15177.840314,14537.127559,3853.932482,-2863.705500,6225.407866,-10265.329214,663.399775,-18043.199842,12623.505309,11248.627156,-8763.761373,394.396531,21619.657769,12279.131982,-225.752619,4083.909581,0.009750,-0.019125,1.000563,192.000000,0.000000,0.000000,0.000000,0.000000,0.000000,0.000000,0.000000,0.000000,0.000000,1769524298.230097,0.000000
66.000000,15202.248419,14557.758219,3808.938421,-2911.962916,6242.909282,-10285.624598,618.338659,-18102.163744,12722.188261,11225.649563,-8855.135304,328.995327,21577.815304,12234.897880,-301.815605,4037.015621,0.009750,-0.019125,1.000563,192.000000,0.000000,0.000000,0.000000,0.000000,0.000000,0.000000,0.000000,0.000000,0.000000,1769524298.230153,0.000000
68.000000,15193.397128,14554.025478,3885.806070,-2835.765819,6239.914148,-10243.692725,690.780662,-18005.313636,12692.438089,11252.806932,-8797.937190,369.966074,21604.458583,12293.168878,-250.674814,4066.251703,0.009875,-0.020563,1.001281,192.000000,0.000000,40.000000,127.500000,40.000000,15.500000,40.000000,0.000000,0.000000,0.000000,1769524298.230198,0.000000
70.000000,15187.518619,14539.698009,3814.593412,-2911.381771,6230.392305,-10280.461345,620.193853,-18100.844991,12660.877426,11240.111141,-8801.200545,369.094356,21610.873534,12266.637357,-251.770050,4063.569494,0.009875,-0.020563,1.001281,192.000000,0.000000,0.000000,0.000000,0.000000,0.000000,0.000000,0.000000,0.000000,0.000000,1769524298.230222,0.000000
72.000000,15209.043349,14567.704745,3860.950930,-2865.136011,6260.097773,-10264.837475,665.702005,-18041.344648,12761.907311,11231.013981,-8860.387964,324.726143,21564.918347,12257.517845,-301.525033,4035.965089,0.009875,-0.020563,1.001281,192.000000,0.000000,0.000000,0.000000,0.000000,0.000000,0.000000,0.000000,0.000000,0.000000,1769524298.230245,0.000000
74.000000,15180.231950,14536.300544,3857.620520,-2864.510162,6226.078418,-10266.871484,663.176258,-18046.262031,12631.775454,11246.079057,-8766.175361,391.066121,21612.728728,12303.405977,-216.297831,4086.301218,0.009875,-0.020563,1.001281,192.000000,0.000000,0.000000,0.000000,0.000000,0.000000,0.000000,0.000000,0.000000,0.000000,1769524298.230268,0.000000
76.000000,15203.768337,14557.266481,3813.073494,-2910.018314,6244.071572,-10288.195048,620.819702,-18102.811945,12725.652781,11219.815757,-8856.409354,327.475408,21589.393507,12221.240964,-296.115911,4032.165293,0.009875,-0.020563,1.001281,192.000000,0.000000,0.000000,0.000000,0.000000,0.000000,0.000000,0.000000,0.000000,0.000000,1769524298.230291,0.000000
78.000000,15199.499154,14557.557053,3888.465928,-2829.775552,6239.467113,-10252.700478,697.441482,-18000.999749,12699.389481,11251.868159,-8794.271504,374.503478,21653.408903,12275.868628,-253.357023,4061.557837,0.009938,-0.021281,1.001641,192.000000,0.000000,40.000000,127.500000,40.000000,15.500000,40.000000,0.000000,0.000000,0.000000,1769524298.230334,0.000000
80.000000,15187.406860,14537.909870,3815.576889,-2907.380808,6220.915165,-10297.381615,625.513569,-18098.431003,12658.083458,11234.322039,-8797.579562,370.681330,21565.812417,12275.131020,-255.279273,4061.155505,0.009938,-0.021281,1.001641,192.000000,0.000000,0.000000,0.000000,0.000000,0.000000,0.000000,0.000000,0.000000,0.000000,1769524298.230358,0.000000
82.000000,15209.825660,14564.731963,3857.106430,-2862.945540,6247.312575,-10282.852981,669.121822,-18040.428226,12746.194034,11220.061626,-8864.031299,318.758228,21572.115609,12226.694790,-295.199489,4031.248871,0.009938,-0.021281,1.001641,192.000000,0.000000,0.000000,0.000000,0.000000,0.000000,0.000000,0.000000,0.000000,0.000000,1769524298.230381,0.000000
84.000000,15188.859724,14541.754370,3860.682709,-2861.157401,6229.073552,-10261.082382,669.993540,-18037.567203,12629.272059,11247.084885,-8760.542722,395.335304,21604.637397,12290.643131,-223.204520,4083.842526,0.009938,-0.021281,1.001641,192.000000,0.000000,0.000000,0.000000,0.000000,0.000000,0.000000,0.000000,0.000000,0.000000,1769524298.230404,0.000000
86.000000,15208.864535,14559.926338,3811.575927,-2910.934736,6243.155151,-10285.803412,624.083057,-18098.073375,12726.323334,11223.615554,-8849.346203,330.783466,21573.590824,12232.908575,-300.250983,4036.210959,0.009938,-0.021281,1.001641,192.000000,0.000000,0.000000,0.000000,0.000000,0.000000,0.000000,0.000000,0.000000,0.000000,1769524298.230428,0.000000
88.000000,15199.610913,14556.506521,3888.085948,-2835.989336,6243.468075,-10252.298147,696.323895,-18000.418603,12695.053243,11250.728220,-8792.304551,372.692987,21592.165123,12284.809325,-259.749622,4059.412069,0.009938,-0.021281,1.001641,192.000000,0.000000,0.000000,0.000000,0.000000,0.000000,0.000000,0.000000,0.000000,0.000000,1769524298.230450,0.000000
90.000000,15196.593427,14546.269422,3814.995744,-2904.676247,6226.972488,-10288.016234,627.368763,-18090.674948,12655.222434,11233.472673,-8795.612609,368.535563,21613.756909,12283.065889,-250.741869,4063.033052,0.010000,-0.022000,1.006000,192.000000,0.000000,40.000000,127.500000,40.000000,15.500000,56.000000,0.000000,0.000000,0.000000,1769524298.230483,0.000000
92.000000,15221.023884,14575.639615,3861.196799,-2858.944578,6255.247445,-10261.060031,670.932313,-18032.247488,12761.572035,11234.746723,-8853.011889,329.040030,21598.401260,12247.146636,-308.722294,4030.243043,0.010000,-0.022000,1.006000,192.000000,0.000000,0.000000,0.000000,0.000000,0.000000,0.000000,0.000000,0.000000,0.000000,1769524298.230506,0.000000
94.000000,15192.815982,14545.330649,3861.777945,-2859.883351,6229.274717,-10257.908435,670.217057,-18034.035627,12635.217623,11252.605766,-8758.374603,397.861051,21595.607292,12275.287482,-227.183131,4081.361482,0.010000,-0.022000,1.006000,192.000000,0.000000,0.000000,0.000000,0.000000,0.000000,0.000000,0.000000,0.000000,0.000000,1769524298.230529,0.000000
96.000000,15204.640055,14551.969117,3810.771264,-2916.925003,6242.931633,-10305.048264,620.149150,-18104.287160,12729.117302,11221.000400,-8849.904996,327.386001,21564.806588,12237.378924,-296.361780,4035.540406,0.010000,-0.022000,1.006000,192.000000,0.000000,0.000000,0.000000,0.000000,0.000000,0.000000,0.000000,0.000000,0.000000,1769524298.230552,0.000000
98.000000,15201.421404,14553.287870,3889.359997,-2835.028211,6245.815008,-10256.679089,697.150910,-18001.916170,12693.756842,11242.949813,-8796.752548,364.467545,21598.177743,12283.714090,-243.835180,4064.441212,0.010000,-0.022000,1.006000,192.000000,0.000000,0.000000,0.000000,0.000000,0.000000,0.000000,0.000000,0.000000,0.000000,1769524298.230575,0.000000
100.000000,15193.598293,14539.720361,3816.046276,-2905.458558,6231.733409,-10293.514764,627.927557,-18095.793497,12660.251577,11236.356048,-8795.657312,367.485031,21609.979464,12251.818150,-249.981910,4061.826058,0.008000,-0.016000,1.006000,192.000000,0.000000,32.000000,127.500000,64.000000,15.500000,56.000000,0.000000,0.000000,0.000000,1769524298.230599,0.000000
102.000000,15217.693474,14569.492885,3862.336738,-2861.515029,6257.080288,-10264.077516,671.356996,-18037.231927,12761.147351,11230.902223,-8858.286900,322.669783,21591.941606,12228.862909,-301.145053,4034.400467,0.008000,-0.016000,1.006000,192.000000,0.000000,0.000000,0.000000,0.000000,0.000000,0.000000,0.000000,0.000000,0.000000,1769524298.230625,0.000000
104.000000,15189.709090,14537.775759,3860.570951,-2863.638444,6236.181407,-10276.862714,670.105299,-18038.237755,12638.570385,11255.086810,-8757.748754,397.324609,21605.598522,12305.439985,-220.589366,4077.785203,0.008000,-0.016000,1.006000,192.000000,0.000000,0.000000,0.000000,0.000000,0.000000,0.000000,0.000000,0.000000,0.000000,1769524298.230649,0.000000
106.000000,15207.344616,14553.556091,3809.877194,-2911.985268,6239.288299,-10286.719833,621.825531,-18102.610779,12724.356380,11222.028580,-8854.621214,327.184835,21556.603498,12224.124339,-294.216012,4041.620081,0.008000,-0.016000,1.006000,192.000000,0.000000,0.000000,0.000000,0.000000,0.000000,0.000000,0.000000,0.000000,0.000000,1769524298.230684,0.000000
108.000000,15208.641018,14562.340327,3891.326951,-2827.138046,6241.478770,-10230.996934,701.107168,-17995.165944,12702.764595,11253.723354,-8792.349254,374.145850,21637.226240,12285.122250,-257.313282,4065.871723,0.008000,-0.016000,1.006000,192.000000,0.000000,0.000000,0.000000,0.000000,0.000000,0.000000,0.000000,0.000000,0.000000,1769524298.230734,0.000000
110.000000,15193.754756,14542.223757,3817.745008,-2905.167986,6220.915165,-10289.983188,628.329888,-18094.072413,12663.358469,11239.597051,-8792.863344,374.212906,21597.462487,12288.966750,-262.521239,4069.537409,0.010000,-0.022000,1.004000,192.000000,0.000000,40.000000,127.500000,40.000000,15.500000,48.000000,0.000000,0.000000,0.000000,1769524298.230766,0.000000
112.000000,15216.017093,14570.565769,3861.308558,-2860.911532,6244.831532,-10275.365147,672.787508,-18035.086159,12759.269805,11227.996496,-8858.711583,323.832074,21564.739533,12219.296362,-300.250983,4035.495703,0.010000,-0.022000,1.004000,192.000000,0.000000,0.000000,0.000000,0.000000,0.000000,0.000000,0.000000,0.000000,0.000000,1769524298.230798,0.000000
114.000000,15191.363119,14540.212100,3859.676881,-2861.157401,6229.811159,-10263.317557,672.474584,-18035.264973,12636.201100,11252.426952,-8760.855646,397.324609,21624.284580,12287.402128,-227.250186,4080.757985,0.010000,-0.022000,1.004000,192.000000,0.000000,0.000000,0.000000,0.000000,0.000000,0.000000,0.000000,0.000000,0.000000,1769524298.230829,0.000000
116.000000,15209.959770,14557.445295,3813.565232,-2917.103817,6242.730468,-10287.278627,623.278394,-18099.950922,12733.610002,11224.017885,-8849.614423,329.397658,21555.977649,12237.133054,-301.972068,4033.975784,0.010000,-0.022000,1.004000,192.000000,0.000000,0.000000,0.000000,0.000000,0.000000,0.000000,0.000000,0.000000,0.000000,1769524298.230864,0.000000
118.000000,15199.521506,14552.550263,3887.124823,-2835.318784,6248.072535,-10256.656737,695.586287,-18002.944351,12704.776252,11252.158731,-8794.763243,369.630798,21594.735574,12270.683023,-256.441564,4062.675424,0.010000,-0.022000,1.004000,192.000000,0.000000,0.000000,0.000000,0.000000,0.000000,0.000000,0.000000,0.000000,0.000000,1769524298.230908,0.000000
120.000000,15190.178477,14535.093550,3817.253270,-2911.426474,6227.553633,-10294.230019,625.200644,-18097.983968,12658.195216,11229.941097,-8802.295780,362.478240,21617.824926,12250.745267,-237.107305,4064.463563,0.008000,-0.022000,1.000000,192.000000,0.000000,32.000000,127.500000,40.000000,15.500000,32.000000,0.000000,0.000000,0.000000,1769524298.230940,0.000000
122.000000,15226.634172,14575.997242,3867.187067,-2860.486848,6263.852866,-10258.735449,673.055729,-18030.548755,12769.998642,11236.333696,-8855.135304,326.693097,21572.584995,12257.294328,-294.797158,4030.667726,0.008000,-0.022000,1.000000,192.000000,0.000000,0.000000,0.000000,0.000000,0.000000,0.000000,0.000000,0.000000,0.000000,1769524298.230976,0.000000
124.000000,15192.100727,14542.290812,3862.068517,-2861.380918,6226.123122,-10262.468190,670.909962,-18034.862642,12645.119446,11262.552293,-8755.468876,400.789130,21618.517830,12310.402073,-223.472741,4080.936799,0.008000,-0.022000,1.000000,192.000000,0.000000,0.000000,0.000000,0.000000,0.000000,0.000000,0.000000,0.000000,0.000000,1769524298.231006,0.000000
126.000000,15212.284352,14561.312146,3813.565232,-2917.103817,6246.798485,-10288.709138,621.959641,-18098.252189,12730.950145,11229.248193,-8848.385078,331.208149,21589.326452,12224.750188,-293.500756,4040.390735,0.008000,-0.022000,1.000000,192.000000,0.000000,0.000000,0.000000,0.000000,0.000000,0.000000,0.000000,0.000000,0.000000,1769524298.231021,0.000000
128.000000,15211.680855,14565.380164,3892.042207,-2832.480113,6245.435029,-10252.298147,699.006104,-17992.260217,12709.492470,11261.948796,-8788.169478,375.509307,21598.982406,12263.441058,-251.658291,4065.335282,0.008000,-0.022000,1.000000,192.000000,0.000000,0.000000,0.000000,0.000000,0.000000,0.000000,0.000000,0.000000,0.000000,1769524298.231037,0.000000
130.000000,15210.093881,14556.126542,3824.517587,-2906.710256,6235.242633,-10293.537115,631.973223,-18081.510732,12671.114525,11247.308403,-8783.520315,376.895115,21598.088336,12268.805476,-255.234570,4063.234218,0.004000,-0.018000,1.004000,192.000000,0.000000,16.000000,127.500000,56.000000,15.500000,48.000000,0.000000,0.000000,0.000000,1769524298.231050,0.000000
132.000000,15224.063721,14575.952539,3863.901361,-2865.560694,6252.520532,-10274.493429,672.832212,-18032.269839,12772.949072,11241.228728,-8847.535711,331.476370,21587.650071,12246.565491,-308.118797,4029.416028,0.004000,-0.018000,1.004000,192.000000,0.000000,0.000000,0.000000,0.000000,0.000000,0.000000,0.000000,0.000000,0.000000,1769524298.231061,0.000000
134.000000,15199.566209,14550.203329,3866.069480,-2859.123392,6228.559462,-10259.406001,676.162622,-18028.559450,12640.894966,11258.596034,-8754.328937,399.179804,21612.393452,12330.161015,-222.131636,4083.216677,0.004000,-0.018000,1.004000,192.000000,0.000000,0.000000,0.000000,0.000000,0.000000,0.000000,0.000000,0.000000,0.000000,1769524298.231071,0.000000
136.000000,15223.840204,14571.325728,3815.867462,-2905.391503,6238.729505,-10271.408888,628.486351,-18090.674948,12742.751866,11242.681592,-8837.186854,343.613368,21598.781240,12263.128133,-300.742722,4032.701735,0.004000,-0.018000,1.004000,192.000000,0.000000,0.000000,0.000000,0.000000,0.000000,0.000000,0.000000,0.000000,0.000000,1769524298.231081,0.000000
138.000000,15210.093881,14563.435562,3892.198669,-2826.691011,6241.054087,-10246.173769,701.464796,-17994.853019,12711.012389,11262.149961,-8788.348292,378.795013,21629.693702,12249.359459,-257.872076,4066.721090,0.004000,-0.018000,1.004000,192.000000,0.000000,0.000000,0.000000,0.000000,0.000000,0.000000,0.000000,0.000000,0.000000,1769524298.231092,0.000000
140.000000,15200.214410,14549.152797,3825.679877,-2899.356532,6230.414656,-10271.677109,633.850769,-18086.606930,12666.420658,11246.548444,-8788.549458,377.252743,21580.609272,12271.197113,-251.658291,4067.704566,0.004000,-0.022000,1.006000,192.000000,0.000000,16.000000,127.500000,40.000000,15.500000,56.000000,0.000000,0.000000,0.000000,1769524298.231103,0.000000
142.000000,15216.262962,14574.253806,3865.443631,-2856.597645,6254.062802,-10255.092115,673.413357,-18034.505014,12768.344613,11241.116970,-8851.268453,330.001155,21596.479010,12251.080543,-294.238364,4029.594842,0.004000,-0.022000,1.006000,192.000000,0.000000,0.000000,0.000000,0.000000,0.000000,0.000000,0.000000,0.000000,0.000000,1769524298.231114,0.000000
144.000000,15182.020090,14541.039114,3861.554427,-2855.904741,6223.753837,-10258.981318,672.519287,-18037.187223,12630.099074,11260.384173,-8760.386260,398.844528,21619.322493,12303.316570,-220.097628,4087.798785,0.004000,-0.022000,1.006000,192.000000,0.000000,0.000000,0.000000,0.000000,0.000000,0.000000,0.000000,0.000000,0.000000,1769524298.231124,0.000000
146.000000,15206.830526,14563.055582,3815.956869,-2910.621811,6237.589566,-10285.356377,626.005307,-18097.022843,12722.747054,11232.690362,-8846.954566,334.136228,21548.758036,12262.658747,-296.384131,4045.174008,0.004000,-0.022000,1.006000,192.000000,0.000000,0.000000,0.000000,0.000000,0.000000,0.000000,0.000000,0.000000,0.000000,1769524298.231135,0.000000
148.000000,15199.432099,14562.340327,3894.590306,-2830.535511,6246.887892,-10249.124199,702.962363,-17994.405984,12701.132918,11259.914787,-8789.041196,375.665769,21621.557667,12302.936590,-245.153933,4061.781354,0.004000,-0.022000,1.006000,192.000000,0.000000,0.000000,0.000000,0.000000,0.000000,0.000000,0.000000,0.000000,0.000000,1769524298.231146,0.000000
150.000000,15193.218314,14547.677582,3825.232843,-2902.955163,6230.325249,-10284.082327,634.141342,-18084.818791,12660.698612,11239.619403,-8785.509620,373.855278,21583.067963,12260.825904,-242.136448,4068.799802,0.006000,-0.022000,1.006000,192.000000,0.000000,24.000000,127.500000,40.000000,15.500000,56.000000,0.000000,0.000000,0.000000,1769524298.231156,0.000000
152.000000,15214.452471,14574.454972,3865.845962,-2864.599569,6259.762497,-10272.995862,672.563991,-18031.822804,12769.238683,11235.149054,-8847.021621,327.318946,21596.568417,12244.509130,-311.896242,4036.657993,0.006000,-0.022000,1.006000,192.000000,0.000000,0.000000,0.000000,0.000000,0.000000,0.000000,0.000000,0.000000,0.000000,1769524298.231167,0.000000
154.000000,15190.536105,14547.476417,3868.818744,-2860.442145,6235.130875,-10249.437123,673.748633,-18029.319409,12640.336173,11257.947833,-8750.149161,398.218679,21644.132929,12292.364215,-215.381410,4083.015511,0.006000,-0.022000,1.006000,192.000000,0.000000,0.000000,0.000000,0.000000,0.000000,0.000000,0.000000,0.000000,0.000000,1769524298.231179,0.000000
156.000000,15201.376701,14556.662983,3813.721694,-2916.120340,6243.356316,-10283.434127,621.937289,-18100.487363,12732.157139,11227.460054,-8842.014830,328.861216,21547.796911,12249.828845,-290.863251,4035.383944,0.006000,-0.022000,1.006000,192.000000,0.000000,0.000000,0.000000,0.000000,0.000000,0.000000,0.000000,0.000000,0.000000,1769524298.231189,0.000000
158.000000,15193.374776,14556.953556,3892.422186,-2833.016554,6249.614805,-10246.866673,699.810767,-17997.490525,12702.004636,11259.266586,-8790.695225,371.798917,21602.245760,12282.216523,-251.434773,4057.579226,0.006000,-0.022000,1.006000,192.000000,0.000000,0.000000,0.000000,0.000000,0.000000,0.000000,0.000000,0.000000,0.000000,1769524298.231200,0.000000
160.000000,15188.882075,14545.844739,3822.729447,-2905.279744,6224.893776,-10284.931694,629.983917,-18088.797401,12653.747219,11238.412409,-8791.857516,368.401452,21575.781295,12258.434267,-242.471724,4058.719165,0.008000,-0.021000,1.004000,192.000000,0.000000,40.000000,127.500000,48.000000,15.500000,40.000000,0.000000,0.000000,0.000000,1769524298.231210,0.000000
162.000000,15219.772186,14582.993338,3869.198724,-2858.810468,6256.745011,-10270.805391,675.760290,-18027.911249,12771.585616,11242.838054,-8846.731048,330.045859,21598.803592,12243.503302,-309.325792,4031.472389,0.008000,-0.021000,1.004000,192.000000,0.000000,0.000000,0.000000,0.000000,0.000000,0.000000,0.000000,0.000000,0.000000,1769524298.231221,0.000000
164.000000,15187.295102,14548.504597,3869.176372,-2858.631654,6239.131837,-10269.240769,675.693235,-18030.906383,12645.946460,11260.898264,-8750.126809,397.346961,21661.299069,12305.462337,-222.310450,4078.522811,0.008000,-0.021000,1.004000,192.000000,0.000000,0.000000,0.000000,0.000000,0.000000,0.000000,0.000000,0.000000,0.000000,1769524298.231232,0.000000
166.000000,15202.874267,14563.279100,3815.755703,-2912.231137,6243.222206,-10293.246543,625.424162,-18098.408651,12732.112435,11228.979972,-8841.858368,328.637699,21597.753060,12261.295290,-294.573640,4038.133209,0.008000,-0.021000,1.004000,192.000000,0.000000,0.000000,0.000000,0.000000,0.000000,0.000000,0.000000,0.000000,0.000000,1769524298.231243,0.000000
168.000000,15195.185267,14564.128466,3892.869221,-2827.987412,6246.329099,-10253.840417,700.883651,-17996.842324,12703.926886,11257.634909,-8791.745757,367.306217,21572.473237,12259.395392,-253.379375,4068.397471,0.008000,-0.021000,1.004000,192.000000,0.000000,0.000000,0.000000,0.000000,0.000000,0.000000,0.000000,0.000000,0.000000,1769524298.231254,0.000000
170.000000,15188.189171,14548.929280,3820.807197,-2900.295305,6234.303860,-10286.183391,631.660298,-18088.372718,12660.005708,11244.872063,-8788.929437,372.067138,21592.321586,12266.257377,-252.999395,4064.240046,0.007000,-0.020500,1.005000,192.000000,0.000000,24.000000,127.500000,48.000000,15.500000,56.000000,0.000000,0.000000,0.000000,1769524298.231264,0.000000
172.000000,15207.925762,14574.834952,3859.229846,-2860.732718,6251.134724,-10260.702403,670.954665,-18038.595383,12762.242587,11239.641755,-8855.314118,323.899129,21626.162127,12252.756924,-309.906937,4036.345069,0.007000,-0.020500,1.005000,192.000000,0.000000,0.000000,0.000000,0.000000,0.000000,0.000000,0.000000,0.000000,0.000000,1769524298.231275,0.000000
174.000000,15176.856837,14542.268460,3862.694366,-2859.838648,6225.810197,-10255.226225,670.820555,-18041.277592,12629.316763,11258.327813,-8762.062640,386.908697,21591.159295,12300.880230,-217.750694,4089.318703,0.007000,-0.020500,1.005000,192.000000,0.000000,0.000000,0.000000,0.000000,0.000000,0.000000,0.000000,0.000000,0.000000,1769524298.231285,0.000000
176.000000,15202.248419,14564.396687,3815.509834,-2914.198090,6249.435991,-10283.389423,623.747781,-18103.013111,12724.959877,11232.600955,-8846.462827,323.027411,21574.686059,12257.763715,-293.791329,4041.933005,0.007000,-0.020500,1.005000,192.000000,0.000000,0.000000,0.000000,0.000000,0.000000,0.000000,0.000000,0.000000,0.000000,1769524298.231295,0.000000
178.000000,15197.018110,14565.938957,3895.707893,-2829.842607,6250.553578,-10240.719943,701.509500,-17997.848153,12702.451670,11256.383211,-8792.818641,363.126440,21616.975560,12290.687834,-242.807000,4066.586979,0.007000,-0.020500,1.005000,192.000000,0.000000,0.000000,0.000000,0.000000,0.000000,0.000000,0.000000,0.000000,0.000000,1769524298.710695,0.000000
180.000000,15194.112384,14557.624109,3829.993764,-2899.758863,6240.696459,-10279.611978,634.521322,-18084.371756,12661.145647,11245.788484,-8785.151992,374.123499,21597.283673,12252.712220,-248.640805,4067.503401,0.008500,-0.019250,1.008500,192.000000,0.000000,40.000000,127.500000,56.000000,15.500000,80.000000,0.000000,0.000000,0.000000,1769524298.710750,0.000000
182.000000,15217.089977,14586.211990,3871.322140,-2859.548075,6265.529247,-10255.785019,674.843869,-18030.124072,12775.765392,11241.161673,-8843.870025,328.727106,21651.173729,12239.792912,-297.926402,4022.665801,0.008500,-0.019250,1.008500,192.000000,0.000000,0.000000,0.000000,0.000000,0.000000,0.000000,0.000000,0.000000,0.000000,1769524298.710787,0.000000
184.000000,15186.445735,14556.908853,3869.712814,-2856.463534,6232.381610,-10273.755821,675.425014,-18028.268877,12643.398362,11261.144133,-8748.718649,399.068046,21630.096034,12291.805421,-220.522311,4084.960113,0.008500,-0.019250,1.008500,192.000000,0.000000,0.000000,0.000000,0.000000,0.000000,0.000000,0.000000,0.000000,0.000000,1769524298.710825,0.000000
186.000000,15206.897581,14573.225626,3817.454436,-2911.471178,6241.009383,-10310.926772,625.401810,-18093.312453,12734.548775,11234.523205,-8833.767037,335.410277,21582.755039,12241.402238,-290.147995,4038.401429,0.008500,-0.019250,1.008500,192.000000,0.000000,0.000000,0.000000,0.000000,0.000000,0.000000,0.000000,0.000000,0.000000,1769524298.710871,0.000000
188.000000,15190.245532,14564.754315,3893.338608,-2828.501502,6240.316479,-10242.105751,700.481319,-17995.948255,12705.536211,11258.372516,-8785.934304,373.989388,21599.675310,12278.796706,-258.028538,4060.328491,0.008500,-0.019250,1.008500,192.000000,0.000000,0.000000,0.000000,0.000000,0.000000,0.000000,0.000000,0.000000,0.000000,1769524298.710925,0.000000
190.000000,15177.192113,14545.353001,3820.002534,-2905.302096,6231.554595,-10274.716946,628.419295,-18093.938302,12648.338097,11239.820569,-8792.326902,370.323702,21620.484784,12281.836543,-247.254997,4065.000005,0.008250,-0.018625,1.008250,192.000000,0.000000,32.000000,127.500000,56.000000,15.500000,64.000000,0.000000,0.000000,0.000000,1769524298.710981,0.000000
192.000000,15196.794593,14570.364603,3859.095735,-2864.286645,6252.274663,-10263.384612,666.216095,-18046.329087,12758.532197,11235.059647,-8859.091563,322.513321,21568.874606,12261.787029,-309.862233,4031.137113,0.008250,-0.018625,1.008250,192.000000,0.000000,0.000000,0.000000,0.000000,0.000000,0.000000,0.000000,0.000000,0.000000,1769524298.710992,0.000000
194.000000,15171.894750,14541.374390,3865.600093,-2857.938750,6238.595395,-10261.328252,671.379348,-18040.249412,12623.706475,11251.979918,-8765.303643,390.440272,21639.126139,12281.188343,-210.151101,4075.371215,0.008250,-0.018625,1.008250,192.000000,0.000000,0.000000,0.000000,0.000000,0.000000,0.000000,0.000000,0.000000,0.000000,1769524298.711003,0.000000
196.000000,15194.447660,14557.937033,3809.720732,-2912.789930,6250.642985,-10290.653740,618.316307,-18107.304645,12721.428302,11226.253060,-8847.669822,326.491931,21613.555743,12227.521804,-289.030408,4033.819322,0.008250,-0.018625,1.008250,192.000000,0.000000,0.000000,0.000000,0.000000,0.000000,0.000000,0.000000,0.000000,0.000000,1769524298.711015,0.000000
198.000000,15197.018110,14563.167341,3892.578649,-2828.032115,6252.945215,-10247.179597,696.994447,-17997.736394,12703.390444,11254.036278,-8792.885696,366.143926,21572.808513,12262.546988,-259.503753,4064.307101,0.008250,-0.018625,1.008250,192.000000,0.000000,0.000000,0.000000,0.000000,0.000000,0.000000,0.000000,0.000000,0.000000,1769524298.711025,0.000000
200.000000,15187.160991,14547.789341,3824.606994,-2900.027084,6233.007459,-10291.167830,631.213263,-18085.154067,12659.558673,11235.976068,-8781.687472,372.357711,21604.860914,12278.886113,-250.965387,4067.749270,0.008125,-0.021313,1.007125,192.000000,0.000000,32.000000,127.500000,32.000000,15.500000,56.000000,0.000000,0.000000,0.000000,1769524298.711035,0.000000
202.000000,15208.395148,14576.399574,3863.141401,-2859.481020,6256.007404,-10267.407926,669.725319,-18033.700351,12765.215369,11232.936231,-8844.987612,328.771809,21612.505211,12254.008621,-298.641658,4030.667726,0.008125,-0.021313,1.007125,192.000000,0.000000,0.000000,0.000000,0.000000,0.000000,0.000000,0.000000,0.000000,0.000000,1769524298.711047,0.000000
204.000000,15179.159067,14544.995373,3864.482506,-2855.323595,6232.292203,-10263.518722,672.184011,-18031.845156,12636.335210,11254.885644,-8752.160818,398.196327,21628.419653,12297.639227,-225.238529,4090.302180,0.008125,-0.021313,1.007125,192.000000,0.000000,0.000000,0.000000,0.000000,0.000000,0.000000,0.000000,0.000000,0.000000,1769524298.711057,0.000000
206.000000,15194.313549,14556.506521,3809.474863,-2916.813244,6243.423372,-10283.948217,617.511644,-18104.644788,12725.272802,11226.007190,-8842.663031,328.168312,21581.905673,12240.977554,-287.152861,4039.317851,0.008125,-0.021313,1.007125,192.000000,0.000000,0.000000,0.000000,0.000000,0.000000,0.000000,0.000000,0.000000,0.000000,1769524298.711068,0.000000
208.000000,15187.205695,14556.484170,3887.661265,-2829.842607,6239.198892,-10260.121257,695.228660,-18003.883124,12698.271894,11248.761266,-8797.892487,360.913618,21638.790862,12281.568322,-252.954692,4066.966959,0.008125,-0.021313,1.007125,192.000000,0.000000,0.000000,0.000000,0.000000,0.000000,0.000000,0.000000,0.000000,0.000000,1769524298.711078,0.000000
210.000000,15180.410764,14543.743675,3820.091941,-2897.031951,6232.649831,-10285.579894,629.849807,-18092.843067,12650.819141,11238.926499,-8790.628170,368.557914,21579.044649,12254.701526,-242.248206,4062.742479,0.005063,-0.021656,1.007562,192.000000,0.000000,8.000000,127.500000,40.000000,15.500000,64.000000,0.000000,0.000000,0.000000,1769524298.711089,0.000000
212.000000,15201.399052,14568.934091,3855.877084,-2859.033985,6248.921901,-10260.545940,667.579552,-18045.546776,12753.279537,11234.411446,-8858.443363,320.747533,21589.214693,12228.795854,-312.589146,4037.283842,0.005063,-0.021656,1.007562,192.000000,0.000000,0.000000,0.000000,0.000000,0.000000,0.000000,0.000000,0.000000,0.000000,1769524298.711106,0.000000
214.000000,15176.834485,14542.894309,3864.415451,-2850.786191,6229.028848,-10263.071688,673.681578,-18036.919002,12621.359542,11250.549406,-8763.537856,388.786243,21623.770490,12303.070701,-212.051000,4085.183631,0.005063,-0.021656,1.007562,192.000000,0.000000,0.000000,0.000000,0.000000,0.000000,0.000000,0.000000,0.000000,0.000000,1769524298.711116,0.000000
216.000000,15199.543858,14562.541492,3815.398075,-2906.889070,6242.708116,-10289.603208,623.054877,-18101.113212,12719.193127,11230.455188,-8841.366630,331.833998,21610.270036,12252.779276,-294.953620,4032.791142,0.005063,-0.021656,1.007562,192.000000,0.000000,0.000000,0.000000,0.000000,0.000000,0.000000,0.000000,0.000000,0.000000,1769524298.711126,0.000000
218.000000,15196.101689,14566.207178,3898.010123,-2822.600642,6246.731430,-10234.863786,701.867128,-17995.814144,12704.955066,11254.684479,-8790.203487,368.870839,21598.602426,12295.918142,-254.407555,4054.226465,0.005063,-0.021656,1.007562,192.000000,0.000000,0.000000,0.000000,0.000000,0.000000,0.000000,0.000000,0.000000,0.000000,1769524298.711139,0.000000
220.000000,15173.481723,14538.915698,3822.483578,-2899.200070,6222.457435,-10289.066766,629.291013,-18097.000491,12651.154417,11237.361877,-8786.426042,370.323702,21603.318644,12256.154389,-250.518352,4068.531581,0.007531,-0.020828,1.008781,192.000000,0.000000,40.000000,127.500000,48.000000,15.500000,72.000000,0.000000,0.000000,0.000000,1769524298.711149,0.000000
222.000000,15203.254247,14572.644481,3863.387270,-2854.161305,6253.660471,-10271.185371,669.457098,-18044.317430,12753.145427,11228.264717,-8859.113915,319.719353,21604.190362,12236.238985,-301.703847,4033.528749,0.007531,-0.020828,1.008781,192.000000,0.000000,0.000000,0.000000,0.000000,0.000000,0.000000,0.000000,0.000000,0.000000,1769524298.711160,0.000000
224.000000,15179.024956,14547.744637,3866.807087,-2850.361508,6230.057029,-10260.568292,674.486241,-18036.717836,12630.143777,11259.557159,-8759.246321,398.665714,21624.418691,12323.634305,-223.428038,4084.513078,0.007531,-0.020828,1.008781,192.000000,0.000000,0.000000,0.000000,0.000000,0.000000,0.000000,0.000000,0.000000,0.000000,1769524298.711170,0.000000
226.000000,15194.693529,14563.703783,3808.647848,-2906.576145,6240.987032,-10295.705234,620.931461,-18108.511640,12713.359322,11232.042161,-8850.597900,331.342260,21573.121437,12247.146636,-287.331675,4035.607461,0.007531,-0.020828,1.008781,192.000000,0.000000,0.000000,0.000000,0.000000,0.000000,0.000000,0.000000,0.000000,0.000000,1769524298.711181,0.000000
228.000000,15199.521506,14574.119696,3890.857564,-2817.906775,6242.976337,-10239.669411,701.375389,-17997.423470,12699.009502,11266.977938,-8798.026597,374.101147,21642.054217,12292.811250,-258.140297,4064.664729,0.007531,-0.020828,1.008781,192.000000,0.000000,0.000000,0.000000,0.000000,0.000000,0.000000,0.000000,0.000000,0.000000,1769524298.711191,0.000000
230.000000,15186.088107,14552.572614,3820.762494,-2896.294343,6230.213491,-10284.149383,632.643775,-18090.451430,12651.400286,11249.364763,-8788.884734,375.218734,21597.976577,12288.899695,-249.579579,4066.877552,0.007531,-0.020828,1.008781,192.000000,0.000000,0.000000,0.000000,0.000000,0.000000,0.000000,0.000000,0.000000,0.000000,1769524298.711201,0.000000
232.000000,15210.764433,14580.288777,3864.326044,-2861.135049,6252.967567,-10268.838438,672.116956,-18039.154177,12764.857741,11239.954679,-8850.754362,327.363649,21595.853161,12236.864833,-303.313172,4023.358705,0.010000,-0.022000,1.008000,192.000000,0.000000,40.000000,127.500000,40.000000,15.500000,64.000000,0.000000,0.000000,0.000000,1769524298.711212,0.000000
234.000000,15182.645939,14548.862225,3871.322140,-2849.579197,6232.091037,-10262.065859,676.632008,-18031.666342,12632.267193,11256.539673,-8754.775972,395.536470,21630.610124,12299.516773,-220.745828,4082.970808,0.010000,-0.022000,1.008000,192.000000,0.000000,0.000000,0.000000,0.000000,0.000000,0.000000,0.000000,0.000000,0.000000,1769524298.711222,0.000000
236.000000,15198.381567,14559.725172,3818.572023,-2909.213651,6240.539997,-10282.115374,623.099580,-18103.773070,12725.675133,11232.355086,-8838.125627,335.343222,21586.890112,12257.987232,-292.517280,4032.500569,0.010000,-0.022000,1.008000,192.000000,0.000000,0.000000,0.000000,0.000000,0.000000,0.000000,0.000000,0.000000,0.000000,1769524298.711233,0.000000
238.000000,15191.318416,14559.211082,3893.740939,-2825.394610,6251.604110,-10249.347716,699.341381,-18002.474964,12700.350606,11253.276319,-8797.780728,366.859182,21622.116461,12281.456564,-249.646634,4059.054441,0.010000,-0.022000,1.008000,192.000000,0.000000,0.000000,0.000000,0.000000,0.000000,0.000000,0.000000,0.000000,0.000000,1769524298.711243,0.000000
